Jaz Data File
++++++++++++++++++++++++++++++++++++
Date: Fri Jun 04 15:57:28 2021
User: jaz
Dark Spectrum Present: Yes
Reference Spectrum Present: Yes
Processed Spectrum Present: Yes
Spectrometers: JAZA3586
Integration Time (usec): 66300 (JAZA3586)
Spectra Averaged: 10 (JAZA3586)
Boxcar Smoothing: 1 (JAZA3586)
Correct for Electrical Dark: No (JAZA3586)
Strobe/Lamp Enabled: Yes (JAZA3586)
Correct for Detector Non-linearity: No (JAZA3586)
Correct for Stray Light: No (JAZA3586)
Number of Pixels in Processed Spectrum: 2048
>>>>>Begin Processed Spectral Data<<<<<
W	D	R	S	P
191.335022	0.000000	0.000000	0.000000	0.000000
191.713211	413.271729	406.584473	404.949799	124.444618
192.091385	820.970703	817.552795	808.562195	363.043976
192.469528	1233.870972	1233.722290	1218.564575	10294.745117
192.847641	1238.849243	1246.056519	1232.310547	-90.723557
193.225739	1254.452759	1253.635498	1247.617065	836.415222
193.603790	1262.328857	1260.842896	1257.350708	335.011902
193.981842	1271.245239	1263.220581	1253.709839	218.518967
194.359863	1271.393921	1267.084351	1254.750122	386.205536
194.737854	1274.960327	1268.347290	1252.000854	347.184998
195.115829	1267.158691	1270.724976	1262.997681	-116.676361
195.493774	1262.551880	1268.718872	1264.335083	28.915281
195.871704	1261.363159	1272.805542	1263.740723	20.778570
196.249603	1265.895630	1277.189331	1264.706543	-10.528762
196.627457	1277.561035	1284.025269	1263.592041	-216.096680
197.005310	1277.263794	1278.749756	1271.245361	-405.019318
197.383133	1283.505127	1272.805542	1267.084351	153.471146
197.760910	1280.978882	1272.211182	1268.421753	143.220322
198.138687	1283.505127	1274.291626	1269.684814	150.000656
198.516449	1272.434082	1272.211182	1267.678589	2133.461182
198.894180	1262.180298	1264.037842	1264.929443	147.998947
199.271866	1263.815063	1257.870728	1261.511597	38.750614
199.649536	1266.192749	1265.969727	1265.301025	399.835785
200.027191	1263.220581	1277.040894	1265.301147	15.054409
200.404816	1257.202026	1284.916870	1266.861328	34.852448
200.782410	1257.796509	1293.090210	1264.409424	18.736814
201.159988	1259.356812	1296.656738	1265.449707	16.334873
201.537537	1263.592041	1299.628906	1263.443481	-0.412243
201.915070	1265.152466	1293.090210	1262.997559	-7.713247
202.292557	1268.570435	1294.204712	1263.592163	-19.420370
202.670029	1262.700439	1302.526733	1261.660278	-2.611745
203.047485	1255.790283	1310.254150	1264.706665	16.371187
203.424911	1260.396973	1306.093140	1262.328979	4.227941
203.802292	1264.037964	1306.984741	1258.762329	-12.284122
204.179688	1263.889282	1303.195313	1259.505493	-11.152968
204.557037	1259.653931	1305.647339	1256.756226	-6.300261
204.934357	1260.025513	1301.412109	1253.189575	-16.517273
205.311661	1261.808838	1302.600952	1241.598511	-49.544693
205.688934	1262.328857	1304.755737	1242.787231	-46.059540
206.066177	1255.715942	1299.183105	1248.954468	-15.555362
206.443390	1249.102905	1302.006470	1249.474609	0.702607
206.820587	1251.034790	1296.359497	1240.558228	-23.114462
207.197769	1252.818237	1299.777466	1237.586060	-32.437027
207.574921	1255.270142	1289.598022	1239.592285	-45.670914
207.952042	1250.514771	1288.706421	1247.914185	-6.809305
208.329147	1241.895630	1292.272949	1247.988403	12.094278
208.706223	1261.437378	1310.848511	1262.626099	2.405775
209.083267	1267.010010	1316.124146	1265.969727	-2.118093
209.460297	1269.982056	1308.991089	1262.180298	-19.999874
209.837280	1258.167847	1295.096558	1244.719238	-36.417759
210.214264	1254.378540	1286.031372	1238.849243	-49.061317
210.591217	1257.870850	1284.768433	1246.130981	-43.646553
210.968124	1247.914307	1288.334839	1249.846191	4.779464
211.345016	1248.508667	1293.610352	1252.372437	8.566796
211.721893	1249.400269	1295.542114	1249.771851	0.805304
212.098724	1253.041138	1288.037598	1246.353882	-19.108377
212.475555	1249.103149	1290.118042	1246.056519	-7.428109
212.852356	1245.833862	1296.582397	1237.660400	-16.105808
213.229126	1245.759399	1303.864136	1240.781128	-8.567755
213.605865	1238.403442	1303.641235	1246.205200	11.958954
213.982590	1245.982300	1298.885864	1251.852173	11.095421
214.359283	1241.970093	1303.344116	1252.669556	17.433210
214.735931	1252.669678	1305.201660	1252.223755	-0.848860
215.112579	1246.353882	1308.619507	1246.651001	0.477180
215.489197	1251.777954	1308.173706	1243.158813	-15.283316
215.865799	1252.372314	1306.390503	1235.134155	-31.911768
216.242355	1254.972900	1297.622803	1245.239380	-22.821905
216.618896	1252.818237	1289.078003	1245.610840	-19.877121
216.995407	1249.623169	1286.105835	1242.861694	-18.533390
217.371902	1249.474487	1289.449463	1241.970093	-18.772730
217.748367	1242.192993	1288.409180	1240.112427	-4.501813
218.124802	1240.929810	1301.560669	1243.233276	3.799166
218.501236	1235.357056	1305.127319	1243.753296	12.034124
218.877609	1245.536499	1308.099487	1246.799683	2.019059
219.253983	1250.663452	1299.108765	1243.010132	-15.797855
219.630295	1249.771851	1293.684692	1234.391113	-35.025600
220.006592	1252.149536	1293.684692	1225.994751	-62.970234
220.382889	1244.719116	1289.598022	1227.332153	-38.741947
220.759140	1246.799683	1294.873657	1232.830688	-29.057289
221.135391	1246.279663	1295.170776	1244.421875	-3.799848
221.511581	1252.743774	1300.371948	1243.233154	-19.968475
221.887772	1261.362915	1307.727905	1245.164917	-34.935837
222.263931	1254.081177	1307.207764	1249.028687	-9.510285
222.640060	1243.010254	1311.368652	1251.777954	12.826077
223.016159	1232.161987	1312.111694	1254.304321	27.695328
223.392212	1238.700562	1315.752563	1241.078247	3.085819
223.768265	1249.623169	1307.430542	1245.462280	-7.197851
224.144302	1253.486938	1304.607056	1241.301270	-23.837326
224.520294	1250.291870	1301.560913	1246.502563	-7.391023
224.896286	1245.016479	1312.631958	1255.344482	15.274613
225.272217	1248.657227	1320.062134	1258.688110	14.047892
225.648148	1252.669556	1327.120972	1252.223633	-0.598945
226.024048	1254.675781	1320.953735	1244.421997	-15.470882
226.399902	1251.183472	1315.975464	1235.059814	-24.885262
226.775772	1255.195801	1312.631714	1239.740845	-26.908175
227.151581	1253.932739	1315.232300	1233.127930	-33.939575
227.527374	1251.109253	1319.913452	1236.545898	-21.166374
227.903137	1244.273315	1328.904175	1232.682129	-13.696170
228.278870	1241.078247	1344.953613	1235.579956	-5.293161
228.654572	1246.130859	1350.972046	1235.208496	-10.418008
229.030273	1241.672852	1364.420898	1236.620117	-4.116346
229.405930	1249.697510	1376.458008	1233.350952	-12.895624
229.781555	1244.719238	1392.730103	1235.282837	-6.375479
230.157181	1251.852173	1401.720825	1235.802856	-10.708921
230.532761	1243.307495	1395.182129	1238.403442	-3.229014
230.908325	1245.239258	1387.157593	1242.935913	-1.623007
231.283859	1244.570557	1373.337280	1251.109253	5.077940
231.659332	1252.743774	1378.835571	1256.681885	3.123209
232.034821	1254.973022	1375.417603	1253.189697	-1.480619
232.410263	1258.167969	1374.303223	1248.211426	-8.573231
232.785690	1255.493042	1362.414673	1246.353882	-8.547531
233.161087	1253.858398	1360.705688	1251.629395	-2.086159
233.536469	1251.257813	1351.417847	1254.452881	3.189963
233.911804	1254.750000	1356.693237	1251.777954	-2.915393
234.287140	1253.784058	1355.504517	1245.388062	-8.253989
234.662430	1251.406372	1369.770508	1243.307495	-6.842340
235.037704	1242.118530	1361.002930	1244.347778	1.875139
235.412933	1239.592285	1362.934692	1245.387817	4.698734
235.788162	1235.654297	1363.083496	1241.004028	4.198199
236.163345	1245.982422	1375.789185	1238.403442	-5.838663
236.538513	1251.406372	1375.492065	1240.112427	-9.101730
236.913635	1255.864624	1377.126587	1250.812012	-4.166692
237.288742	1241.895630	1379.504272	1264.409302	16.360653
237.663834	1242.787231	1383.070801	1264.260620	15.307130
238.038879	1240.706787	1381.510376	1257.499146	11.926087
238.413910	1248.062866	1382.773560	1250.440430	1.764940
238.788910	1249.846069	1388.271973	1248.954346	-0.644188
239.163879	1253.264038	1398.600098	1250.217529	-2.096182
239.538834	1256.236206	1392.210083	1250.440430	-4.262419
239.913757	1250.143311	1402.389648	1253.932739	2.489011
240.288651	1242.935913	1410.042603	1249.771851	4.090762
240.663528	1241.895752	1424.085938	1243.307373	0.774806
241.038361	1246.056763	1431.367554	1241.301270	-2.566226
241.413177	1246.948364	1447.714233	1242.935913	-1.998572
241.787979	1242.861694	1468.741821	1244.942139	0.921039
242.162735	1239.295044	1496.531128	1238.106323	-0.462113
242.537476	1243.158813	1521.794312	1234.391235	-3.146612
242.912170	1249.846069	1552.629883	1239.518066	-3.411016
243.286865	1250.366333	1570.833984	1243.976196	-1.994004
243.661514	1251.703735	1575.440552	1249.474609	-0.688561
244.036148	1251.257813	1565.409668	1245.610840	-1.797530
244.410751	1248.508667	1534.276855	1246.725464	-0.624003
244.785339	1243.456177	1516.890015	1250.886353	2.717358
245.159882	1251.555054	1500.692017	1251.257813	-0.119308
245.534378	1254.750122	1509.459839	1249.400269	-2.100373
245.908890	1255.864624	1515.701172	1248.880005	-2.688082
246.283356	1245.908081	1547.131226	1248.137085	0.739984
246.657791	1254.750000	1589.632446	1250.588989	-1.242529
247.032196	1253.264038	1646.771118	1244.124878	-2.322490
247.406586	1253.115356	1701.606567	1237.288940	-3.528813
247.780960	1243.010132	1749.531738	1234.465454	-1.686933
248.155289	1251.777954	1769.965210	1235.505737	-3.140219
248.529602	1254.155640	1756.962036	1238.552002	-3.103309
248.903870	1253.412598	1729.990234	1240.112305	-2.790792
249.278122	1245.833862	1679.018555	1237.808960	-1.852536
249.652344	1233.722534	1644.244995	1240.409546	1.628903
250.026550	1239.220825	1600.703491	1243.901733	1.294919
250.400711	1239.072144	1589.706665	1247.022583	2.267443
250.774857	1248.583008	1575.217773	1245.685059	-0.887214
251.148987	1244.644897	1571.651245	1240.186768	-1.363316
251.523071	1242.861694	1569.273438	1246.056641	0.978809
251.897125	1243.381714	1575.440552	1245.536499	0.648917
252.271164	1239.369385	1588.071899	1247.022583	2.194764
252.645187	1247.617065	1603.824219	1240.855347	-1.898255
253.019165	1249.920532	1614.895142	1236.991699	-3.542392
253.393112	1256.161865	1618.313110	1240.706787	-4.267576
253.767044	1246.725342	1599.217407	1233.648071	-3.709948
254.140930	1246.428101	1579.973145	1237.734741	-2.606352
254.514801	1240.781128	1555.230469	1237.586060	-1.016084
254.888657	1248.954468	1550.251953	1246.725220	-0.739883
255.262466	1243.381714	1553.595581	1249.771851	2.059913
255.636276	1246.502441	1556.047485	1250.514771	1.296202
256.010010	1248.285767	1557.533569	1247.988525	-0.096117
256.383759	1246.056641	1559.242554	1250.737671	1.494649
256.757446	1253.858521	1578.189819	1241.449829	-3.825931
257.131134	1246.428223	1603.304077	1238.626343	-2.186161
257.504791	1247.691406	1624.703491	1233.722412	-3.705185
257.878418	1242.564331	1648.182983	1245.313599	0.677796
258.252014	1250.068970	1683.328125	1248.211426	-0.428737
258.625580	1253.635498	1732.145142	1250.291870	-0.698759
258.999115	1251.406372	1787.723633	1240.484009	-2.036549
259.372650	1247.022461	1852.292603	1237.288940	-1.608128
259.746124	1245.090698	1929.864624	1236.025757	-1.323786
260.119598	1246.428101	2011.894897	1235.505737	-1.426889
260.493042	1245.833740	2085.825928	1239.963867	-0.698801
260.866425	1250.588989	2130.110352	1232.682251	-2.035964
261.239838	1255.790283	2113.540771	1234.911255	-2.434161
261.613159	1251.480713	2045.479492	1234.019653	-2.199129
261.986511	1252.000854	1950.223511	1241.598511	-1.489832
262.359802	1250.663330	1880.156128	1243.679077	-1.109505
262.733063	1257.573486	1836.986206	1249.474609	-1.397773
263.106293	1257.053345	1809.940063	1250.663330	-1.155755
263.479523	1258.167969	1793.964966	1248.211426	-1.858268
263.852692	1253.189575	1779.550171	1243.678955	-1.806864
264.225861	1247.914185	1777.915649	1242.935913	-0.939294
264.598969	1251.109253	1778.361328	1246.725342	-0.831464
264.972076	1254.155640	1781.333618	1244.421997	-1.846367
265.345154	1258.688110	1785.123047	1243.976074	-2.794654
265.718201	1250.143188	1797.085571	1245.759399	-0.801508
266.091217	1252.818237	1822.571411	1249.251587	-0.625999
266.464203	1251.034912	1857.419434	1247.245483	-0.624922
266.837158	1245.462158	1893.827759	1247.542725	0.320894
267.210114	1241.375610	1922.508667	1250.440552	1.330862
267.583038	1238.997925	1941.604492	1259.579712	2.929347
267.955902	1249.103149	1955.127441	1256.459106	1.041884
268.328766	1245.685181	1961.442993	1254.675903	1.256112
268.701569	1251.109253	1952.972656	1252.446777	0.190568
269.074371	1242.341431	1953.492798	1257.722168	2.162794
269.447144	1247.617065	1960.477173	1260.471313	1.803194
269.819885	1239.220825	1985.963257	1254.155640	1.999995
270.192596	1242.935913	2010.780273	1243.455933	0.067725
270.565277	1235.134155	2044.142212	1231.939087	-0.394937
270.937927	1235.802856	2092.513184	1236.843140	0.121428
271.310577	1241.301147	2158.048340	1241.821411	0.056751
271.683136	1251.555054	2231.979492	1258.390869	0.697230
272.055725	1256.384766	2300.337891	1252.223755	-0.398582
272.428284	1249.548828	2335.631836	1252.075073	0.232601
272.800812	1246.428101	2325.303711	1241.747070	-0.433880
273.173279	1246.502563	2291.570313	1240.706909	-0.554572
273.545776	1249.400269	2259.694580	1241.152710	-0.816352
273.918152	1252.669556	2237.700684	1244.050415	-0.875012
274.290558	1252.149414	2225.515137	1246.948242	-0.534349
274.662964	1249.697388	2198.766113	1248.582886	-0.117431
275.035278	1249.697388	2178.927490	1248.434448	-0.135912
275.407593	1258.390747	2163.843750	1249.251709	-1.009333
275.779907	1261.585815	2164.884033	1248.359985	-1.464171
276.152161	1261.362915	2191.707275	1247.022583	-1.541400
276.524384	1246.279541	2228.710205	1239.369507	-0.703361
276.896606	1249.697388	2266.827393	1242.787354	-0.679366
277.268799	1244.496338	2285.031494	1240.484009	-0.385602
277.640930	1256.236206	2301.898193	1246.056763	-0.973493
278.013031	1256.830444	2318.021973	1241.375488	-1.456378
278.385162	1256.681885	2328.498779	1242.713013	-1.303289
278.757233	1250.589111	2316.759033	1248.731567	-0.174226
279.129272	1245.165039	2308.808594	1249.251587	0.384203
279.501282	1249.251587	2312.820801	1252.669556	0.321368
279.873230	1248.657349	2335.185791	1246.725464	-0.177803
280.245178	1252.446655	2370.925537	1240.632568	-1.056264
280.617126	1249.400146	2414.392822	1239.889526	-0.816367
280.988983	1251.629272	2464.250000	1234.614014	-1.403181
281.360870	1250.812012	2511.952393	1241.152710	-0.765918
281.732697	1253.858521	2571.171631	1235.802856	-1.370643
282.104492	1257.573608	2619.468018	1247.468384	-0.741998
282.476288	1249.920410	2671.256836	1237.363159	-0.883482
282.848053	1249.920532	2698.749268	1241.078247	-0.610306
283.219757	1250.812012	2718.885498	1234.168213	-1.133717
283.591461	1253.784058	2713.238037	1237.586182	-1.109859
283.963135	1250.811890	2711.826416	1232.459351	-1.256150
284.334747	1248.880127	2692.507568	1235.877075	-0.900721
284.706360	1254.229980	2705.064697	1238.552124	-1.080609
285.077942	1255.344604	2733.374268	1242.415771	-0.874734
285.449524	1250.143311	2795.937256	1242.341675	-0.504701
285.821014	1243.456177	2835.540283	1247.171143	0.233340
286.192535	1241.152710	2887.329346	1249.251587	0.491981
286.563995	1241.227051	2941.942139	1248.434204	0.423772
286.935425	1245.165039	2970.399658	1244.942139	-0.012920
287.306824	1245.833618	2966.907471	1241.598511	-0.246074
287.678223	1248.731445	2914.747314	1241.301270	-0.445985
288.049561	1251.703613	2885.546143	1252.149536	0.027293
288.420898	1254.452759	2839.850342	1254.973022	0.032816
288.792145	1256.236084	2829.001953	1252.966797	-0.207869
289.163452	1252.372314	2827.441406	1248.805786	-0.226436
289.534668	1243.084595	2868.753906	1249.251587	0.379351
289.905914	1241.598511	2908.505859	1246.948242	0.320938
290.277039	1238.255005	2974.932373	1244.570679	0.363664
290.648193	1252.966919	3037.197998	1249.326050	-0.204058
291.019318	1251.926636	3104.962158	1247.245605	-0.252614
291.390381	1248.805786	3116.776367	1248.434326	-0.019886
291.761475	1245.982300	3096.789063	1241.004028	-0.268978
292.132507	1248.062866	3060.380127	1247.468384	-0.032802
292.503510	1254.824341	3037.049561	1248.954468	-0.329356
292.874481	1253.784058	3015.278564	1250.960571	-0.160289
293.245422	1248.582886	3014.758789	1253.635376	0.286069
293.616364	1245.610718	3045.668701	1256.533081	0.606778
293.987213	1245.610840	3103.550537	1254.972778	0.503888
294.358093	1249.994751	3171.091553	1250.291748	0.015460
294.728943	1250.514771	3254.756592	1247.245483	-0.163118
295.099731	1245.982300	3352.984619	1247.542847	0.074065
295.470490	1245.536499	3427.213135	1251.703735	0.282683
295.841248	1249.920410	3458.642822	1251.926636	0.090832
296.211975	1258.688110	3468.005127	1254.898804	-0.171515
296.582642	1252.297974	3513.552734	1261.734497	0.417314
296.953308	1251.109253	3588.821533	1251.480835	0.015895
297.323883	1245.536499	3659.706299	1249.920410	0.181591
297.694519	1251.480713	3700.052490	1235.802856	-0.640286
298.065063	1255.047241	3702.653076	1243.084595	-0.488749
298.435608	1252.075195	3656.808594	1243.753296	-0.346063
298.806122	1251.109253	3557.614258	1245.313599	-0.251274
299.176575	1249.846069	3432.860107	1249.103027	-0.034037
299.547028	1262.403198	3352.093018	1242.490112	-0.952921
299.917450	1259.728394	3306.991211	1244.942017	-0.722251
300.287872	1252.818115	3301.046875	1239.666504	-0.642097
300.658234	1239.443726	3280.688232	1242.935913	0.171081
301.028564	1240.706665	3264.489990	1241.301270	0.029381
301.398865	1242.564331	3251.263916	1241.226929	-0.066581
301.769135	1240.260864	3234.174561	1240.483887	0.011185
302.139374	1243.901733	3231.573975	1243.010254	-0.044850
302.509583	1240.260986	3226.149658	1239.369507	-0.044891
302.879791	1240.335327	3227.933350	1235.802856	-0.228038
303.249939	1239.592285	3205.642578	1232.384888	-0.366593
303.620087	1250.143188	3183.053955	1242.713013	-0.384403
303.990173	1257.127686	3165.221680	1249.177368	-0.416663
304.360260	1253.412598	3158.014404	1253.784180	0.019510
304.730286	1252.892456	3158.014404	1252.372437	-0.027296
305.100281	1248.137207	3161.506592	1255.047241	0.361145
305.470276	1252.298096	3178.001709	1252.743774	0.023144
305.840179	1251.257813	3183.722656	1241.004028	-0.530607
306.210144	1248.359985	3198.434814	1234.688354	-0.701082
306.579987	1244.347656	3213.592529	1235.134155	-0.467870
306.949890	1243.158813	3239.301514	1243.158813	0.000000
307.319702	1247.022583	3260.031982	1242.861694	-0.206700
307.689484	1243.233032	3288.118408	1242.044312	-0.058131
308.059265	1245.759399	3320.588623	1242.564331	-0.153992
308.429016	1252.818237	3372.303467	1240.855469	-0.564419
308.798737	1257.796509	3427.064453	1246.205444	-0.534331
309.168396	1257.722168	3488.735596	1241.598511	-0.722706
309.538055	1251.852173	3540.078857	1240.112427	-0.513050
309.907684	1251.852295	3559.471680	1236.397339	-0.669736
310.277313	1249.474609	3586.443604	1241.524048	-0.340208
310.646851	1257.796509	3601.898682	1253.115356	-0.199699
311.016388	1265.821167	3624.932617	1259.133911	-0.283465
311.385895	1256.161743	3611.112305	1256.310425	0.006314
311.755371	1246.353882	3606.430908	1250.886353	0.192048
312.124817	1243.679077	3613.638428	1242.118530	-0.065847
312.494232	1255.641724	3633.254150	1248.359985	-0.306263
312.863617	1246.205200	3619.359375	1249.994629	0.159679
313.232971	1244.793457	3592.164795	1257.425049	0.538116
313.602295	1239.146484	3558.654297	1251.629395	0.538171
313.971619	1249.548828	3562.220947	1249.400269	-0.006424
314.340820	1247.468384	3561.626221	1241.672729	-0.250443
314.710083	1249.474609	3606.059570	1241.598511	-0.334217
315.079285	1241.598389	3629.316406	1250.143188	0.357865
315.448486	1236.991577	3669.513916	1253.189697	0.665898
315.817596	1241.821411	3637.341064	1258.093750	0.679282
316.186707	1250.291870	3591.199219	1246.576782	-0.158703
316.555786	1259.133911	3526.184326	1242.044312	-0.753825
316.924866	1256.458984	3476.252686	1237.288940	-0.863596
317.293884	1257.202026	3451.212891	1243.307495	-0.633294
317.662872	1249.028687	3433.157227	1248.805786	-0.010205
318.031830	1245.090698	3449.132080	1245.462280	0.016859
318.400757	1247.542725	3456.116943	1236.843140	-0.484457
318.769684	1255.715942	3482.865967	1235.208374	-0.920799
319.138550	1255.641602	3493.788086	1236.917358	-0.836596
319.507416	1245.833740	3518.753906	1244.942017	-0.039233
319.876190	1241.598511	3527.075439	1244.421997	0.123540
320.244995	1241.598511	3528.338867	1246.279541	0.204703
320.613770	1246.353882	3499.212158	1246.130981	-0.009894
320.982483	1242.638672	3468.376709	1250.291870	0.343850
321.351166	1238.552002	3437.392578	1246.948364	0.381854
321.719818	1240.558228	3422.011719	1245.759399	0.238427
322.088440	1235.802856	3432.711670	1247.839966	0.547911
322.457062	1238.849243	3465.924561	1253.858521	0.673946
322.825623	1238.552002	3528.190186	1253.784058	0.665260
323.194183	1245.610718	3580.053711	1250.514771	0.210074
323.562653	1251.480835	3638.455811	1244.793457	-0.280161
323.931183	1253.338257	3698.269531	1250.143188	-0.130681
324.299591	1255.344482	3768.336670	1248.359985	-0.277935
324.668060	1245.982300	3831.271240	1245.982422	0.000005
325.036407	1247.171143	3864.410156	1237.066040	-0.386098
325.404755	1249.177368	3874.664063	1238.923706	-0.390543
325.773102	1255.641724	3859.060547	1238.403442	-0.662140
326.141388	1257.796509	3856.014404	1243.604614	-0.546216
326.509674	1252.669556	3850.515869	1243.530396	-0.351798
326.877899	1248.805786	3856.979736	1254.898560	0.233603
327.246124	1251.852173	3856.831299	1258.316528	0.248154
327.614288	1251.926514	3846.949219	1254.229980	0.088765
327.982422	1259.431152	3839.518799	1240.632446	-0.728607
328.350525	1258.539429	3811.135010	1233.573730	-0.978051
328.718628	1260.619995	3807.122803	1234.985474	-1.006656
329.086700	1261.734497	3805.785400	1246.428101	-0.601655
329.454712	1256.681885	3833.128662	1248.880127	-0.302811
329.822693	1260.917114	3853.933594	1246.576782	-0.553037
330.190674	1255.195923	3866.044678	1248.285645	-0.264676
330.558563	1261.065796	3880.162109	1248.062866	-0.496466
330.926483	1256.681885	3900.447021	1251.183472	-0.207977
331.294312	1254.229858	3934.329102	1248.805786	-0.202383
331.662231	1247.393921	3986.117920	1250.291870	0.105814
332.029999	1247.468262	4037.832764	1250.737671	0.117168
332.397766	1248.954468	4084.420654	1249.771851	0.028827
332.765503	1246.576782	4132.791504	1245.387817	-0.041195
333.133240	1244.793457	4196.022949	1248.211426	0.115815
333.500916	1252.000854	4252.716309	1240.632446	-0.378857
333.868561	1252.818237	4288.753418	1238.997925	-0.455224
334.236176	1256.161865	4306.511719	1233.870972	-0.730765
334.603790	1247.988403	4319.886230	1241.301270	-0.217687
334.971344	1251.257935	4311.563965	1247.245483	-0.131113
335.338867	1250.737671	4304.579590	1247.394043	-0.109489
335.706360	1249.325928	4300.344238	1243.084473	-0.204570
336.073853	1248.062866	4282.511719	1234.465454	-0.448102
336.441284	1252.297974	4278.350586	1231.790527	-0.677696
336.808655	1254.006958	4264.679199	1224.657471	-0.974848
337.176086	1252.297974	4249.520996	1229.784302	-0.751151
337.543396	1246.428223	4185.323730	1239.592285	-0.232602
337.910706	1241.004028	4125.138184	1250.143188	0.316877
338.277954	1238.849243	4117.410645	1252.149414	0.462042
338.645264	1234.688354	4171.948730	1243.084473	0.285849
339.012421	1247.394165	4273.743652	1239.443726	-0.262707
339.379669	1247.542603	4389.729980	1245.239380	-0.073300
339.746796	1254.527222	4488.775879	1249.474487	-0.156226
340.113953	1250.217651	4554.682129	1256.310425	0.184380
340.481018	1251.777954	4592.799805	1243.456055	-0.249082
340.848114	1248.508667	4604.539551	1236.025879	-0.371951
341.215118	1251.034912	4610.632324	1230.750366	-0.603779
341.582153	1252.966797	4630.990723	1241.152710	-0.349734
341.949066	1255.790161	4656.848633	1255.344482	-0.013104
342.316010	1250.514771	4704.402832	1259.802612	0.268910
342.682922	1252.818237	4718.966309	1252.149414	-0.019296
343.049835	1247.171143	4767.263184	1245.610718	-0.044329
343.416656	1254.378540	4815.707520	1237.883301	-0.463176
343.783478	1253.635498	4911.483887	1245.165039	-0.231569
344.150269	1251.555054	5037.650391	1246.353882	-0.137376
344.516998	1250.143188	5185.884277	1252.149536	0.050978
344.883728	1252.669556	5303.208496	1245.833740	-0.168763
345.250427	1249.251709	5367.405762	1242.564331	-0.162388
345.617065	1247.914185	5371.864258	1240.409546	-0.181977
345.983704	1237.437500	5348.532715	1243.976074	0.159047
346.350281	1247.914185	5320.743652	1242.490112	-0.133177
346.716827	1248.434326	5259.889648	1244.496216	-0.098172
347.083405	1254.155640	5218.874512	1239.666626	-0.365449
347.449860	1259.208130	5146.949219	1241.821289	-0.447222
347.816376	1254.675781	5101.253418	1237.586060	-0.444284
348.182770	1249.920288	5048.424316	1234.168091	-0.414695
348.549194	1248.582886	5031.259766	1233.648071	-0.394821
348.915558	1248.954468	5041.216309	1234.614014	-0.378150
349.281921	1253.932739	5059.123535	1243.456055	-0.275326
349.648193	1252.075195	5089.661621	1241.078247	-0.286559
350.014526	1252.000854	5146.949707	1245.536499	-0.165968
350.380737	1256.904785	5216.125488	1239.295044	-0.444778
350.746948	1250.068970	5291.170898	1243.976196	-0.150770
351.113159	1248.954468	5324.235840	1242.564453	-0.156799
351.479309	1245.462280	5355.442871	1249.920410	0.108471
351.845428	1250.811890	5382.191895	1245.759399	-0.122295
352.211517	1253.858398	5425.584473	1236.620117	-0.413217
352.577576	1252.743774	5474.847656	1242.192871	-0.249897
352.943604	1253.561279	5525.521484	1249.994629	-0.083490
353.309601	1256.904907	5583.478027	1261.585938	0.108193
353.675537	1257.647827	5666.250488	1261.140015	0.079213
354.041473	1259.951172	5782.312500	1257.573608	-0.052573
354.407379	1251.555054	5898.298828	1252.149292	0.012788
354.773254	1250.143188	6032.415527	1246.576660	-0.074578
355.139038	1239.295044	6118.308594	1249.548828	0.210161
355.504913	1241.003906	6242.320313	1251.480835	0.209483
355.870636	1242.935913	6321.080566	1243.976196	0.020485
356.236389	1244.570557	6449.030762	1241.747192	-0.054249
356.602081	1250.143188	6572.744141	1242.490112	-0.143785
356.967804	1246.725342	6718.824219	1244.199219	-0.046164
357.333405	1250.737671	6861.931152	1238.403442	-0.219815
357.699036	1245.908081	7014.474609	1243.010132	-0.050237
358.064606	1249.400269	7168.800781	1244.867676	-0.076572
358.430176	1248.211426	7279.660156	1243.604614	-0.076380
358.795654	1246.428101	7357.009766	1238.031860	-0.137405
359.161163	1241.672729	7392.154785	1246.056641	0.071278
359.526581	1241.301270	7396.761719	1254.527222	0.214865
359.892029	1245.610840	7437.777344	1261.585938	0.257989
360.257416	1249.103027	7552.425781	1264.557983	0.245187
360.622772	1252.000854	7762.330566	1263.369141	0.174619
360.988098	1250.440552	8004.111328	1261.437378	0.162827
361.353394	1245.685181	8265.657227	1257.424927	0.167234
361.718658	1247.171265	8493.840820	1260.991455	0.190711
362.083893	1251.629272	8677.443359	1255.121582	0.047029
362.449097	1254.750000	8766.977539	1253.115356	-0.021760
362.814209	1242.787231	8772.327148	1247.691284	0.065131
363.179382	1234.614136	8602.991211	1244.942017	0.140165
363.544434	1242.341431	8298.722656	1241.672729	-0.009477
363.909546	1250.440552	7880.546875	1246.651123	-0.057155
364.274536	1249.400269	7535.781738	1254.304199	0.078009
364.639587	1245.313599	7254.991699	1250.068970	0.079129
365.004517	1248.805786	7118.497559	1244.050415	-0.081016
365.369507	1257.647827	7013.805176	1235.134155	-0.391123
365.734344	1259.654175	6978.289063	1237.363159	-0.389796
366.099274	1259.728394	6929.620605	1246.428101	-0.234578
366.464081	1257.870728	6888.753906	1244.570557	-0.236200
366.828918	1258.762329	6859.775391	1246.873901	-0.212255
367.193665	1257.202026	6860.295410	1231.121826	-0.465461
367.558411	1255.121460	6872.704590	1239.666626	-0.275115
367.923126	1249.697510	6862.302246	1237.660400	-0.214466
368.287781	1247.765625	6834.810059	1251.703613	0.070484
368.652435	1241.152710	6794.834473	1253.041138	0.214064
369.017059	1247.914185	6768.458496	1250.440552	0.045763
369.381653	1248.137085	6750.104980	1247.022583	-0.020256
369.746185	1256.087402	6746.019043	1239.518066	-0.301813
370.110687	1254.675659	6748.767578	1244.942017	-0.177166
370.475220	1253.635376	6777.002441	1242.118652	-0.208509
370.839661	1248.582886	6830.128906	1246.279663	-0.041265
371.204041	1238.106201	6914.685059	1240.112427	0.035342
371.568451	1241.598511	6980.517090	1241.598511	0.000000
371.932770	1250.440430	7026.361816	1242.935913	-0.129928
372.297150	1260.174194	7032.380859	1251.629272	-0.148036
372.661377	1254.304321	7068.714844	1246.279541	-0.138015
373.025696	1251.852295	7113.445313	1249.697388	-0.036763
373.389862	1245.685181	7134.398438	1241.895630	-0.064353
373.754059	1249.177368	7130.312500	1248.434448	-0.012632
374.118225	1252.223755	7141.605469	1245.982422	-0.105976
374.482361	1247.988525	7184.404297	1244.124878	-0.065084
374.846436	1245.165039	7255.809082	1242.713013	-0.040795
375.210510	1235.728638	7333.901855	1242.415771	0.109658
375.574524	1240.186646	7457.838379	1250.886230	0.172084
375.938538	1242.713013	7593.812500	1250.886230	0.128690
376.302460	1242.044189	7757.352051	1253.784058	0.180189
376.666412	1252.223755	7920.744629	1255.047241	0.042341
377.030304	1257.573608	8070.018066	1252.743774	-0.070897
377.394196	1265.375366	8183.924316	1247.988525	-0.251308
377.757996	1252.966797	8303.922852	1248.211426	-0.067443
378.121796	1249.177246	8369.458008	1249.103149	-0.001041
378.485565	1239.592285	8399.773438	1245.239258	0.078866
378.849304	1244.124878	8298.721680	1244.644897	0.007371
379.212982	1245.833862	8198.264648	1242.118652	-0.053438
379.576630	1247.765747	8023.579590	1243.753296	-0.059217
379.940277	1253.709839	7905.734375	1239.517944	-0.213347
380.303864	1244.347656	7774.144531	1247.616943	0.050067
380.667450	1250.737671	7736.770996	1249.400269	-0.020620
381.030945	1242.638794	7700.660156	1253.041138	0.161076
381.394501	1250.737671	7725.699707	1245.833618	-0.075739
381.757935	1252.892456	7738.257324	1255.270142	0.036662
382.121399	1257.276367	7774.813965	1246.948120	-0.158469
382.484741	1264.558105	7815.457031	1251.480591	-0.199629
382.848145	1264.037964	7856.397949	1241.598511	-0.340386
383.211487	1257.647949	7897.338379	1245.907959	-0.176815
383.574768	1246.725464	7982.712402	1244.421997	-0.034196
383.938019	1241.375610	8085.398926	1241.301270	-0.001086
384.301270	1250.812012	8216.989258	1238.552124	-0.175992
384.664459	1256.533325	8289.286133	1238.626465	-0.254621
385.027649	1263.443359	8342.561523	1246.874023	-0.234059
385.390778	1256.681885	8398.511719	1254.898560	-0.024970
385.753876	1256.979126	8442.348633	1262.403198	0.075488
386.116943	1247.691162	8499.711914	1261.585815	0.191597
386.479980	1249.697388	8494.065430	1263.517700	0.190773
386.842987	1245.685059	8534.708008	1269.090454	0.321105
387.205994	1251.480835	8568.738281	1272.954224	0.293462
387.568909	1252.892456	8640.663086	1282.464966	0.400290
387.931793	1257.647827	8659.313477	1280.681763	0.311199
388.294678	1260.397095	8707.313477	1288.854980	0.382143
388.657471	1265.375366	8742.532227	1301.189209	0.478977
389.020294	1260.471313	8753.231445	1315.232422	0.730854
389.383057	1257.499268	8756.799805	1322.216919	0.862982
389.745819	1250.143188	8751.821289	1316.792725	0.888462
390.108521	1249.325806	8802.272461	1322.662720	0.970971
390.471191	1249.325928	8866.097656	1328.012573	1.033071
390.833801	1249.103027	8975.992188	1336.780151	1.134701
391.196442	1256.830566	9128.981445	1333.362183	0.972182
391.558960	1254.155640	9270.303711	1340.421021	1.076145
391.921509	1256.013184	9439.268555	1352.755371	1.182197
392.284027	1252.669556	9571.082031	1363.826416	1.336275
392.646484	1254.081421	9686.622070	1368.433228	1.356078
393.008911	1247.171265	9718.944336	1360.928589	1.342780
393.371307	1247.765625	9738.411133	1364.495239	1.374803
393.733673	1249.400269	9694.201172	1369.919312	1.427139
394.096008	1255.047241	9649.322266	1380.395996	1.493265
394.458344	1241.524292	9610.833984	1385.002808	1.714341
394.820587	1237.511841	9595.528320	1391.764282	1.845563
395.182831	1240.409546	9619.156250	1397.782837	1.878244
395.545013	1246.948364	9575.168945	1404.395630	1.890527
395.907196	1246.651001	9507.032227	1397.039673	1.820602
396.269287	1245.982422	9394.910156	1398.748657	1.874679
396.631409	1254.304199	9262.725586	1393.696167	1.740567
396.993469	1250.663452	9133.661133	1402.092407	1.920956
397.355530	1247.914185	9022.801758	1405.658813	2.028899
397.717499	1246.799683	8993.229492	1417.547241	2.204210
398.079468	1247.096802	8998.727539	1427.949707	2.333095
398.441376	1240.558228	9001.998047	1435.974243	2.517781
398.803284	1236.843140	9012.325195	1441.175659	2.627908
399.165131	1241.821411	9023.470703	1446.302368	2.627733
399.526978	1243.010254	9025.328125	1442.438599	2.562583
399.888763	1249.548828	9005.563477	1439.392212	2.447692
400.250519	1254.229980	9009.651367	1434.116821	2.319498
400.612244	1264.632324	9052.821289	1445.782227	2.325957
400.973938	1255.790161	9059.434570	1452.320923	2.518448
401.335602	1253.040894	9070.950195	1457.224976	2.611748
401.697205	1247.393921	9093.019531	1459.676880	2.705749
402.058807	1249.251587	9178.168945	1467.850220	2.756979
402.420349	1251.926514	9271.567383	1481.076172	2.857356
402.781860	1254.527222	9386.811523	1485.162720	2.836048
403.143341	1254.527100	9514.315430	1487.763306	2.823755
403.504822	1248.880127	9662.920898	1489.769531	2.862946
403.866241	1245.462280	9802.832031	1500.914917	2.985177
404.227631	1239.666626	9941.035156	1511.614380	3.125345
404.588959	1241.672729	10093.579102	1522.239868	3.169567
404.950287	1243.901855	10219.374023	1526.029297	3.143316
405.311554	1247.319824	10309.280273	1526.475098	3.080517
405.672821	1243.307495	10353.565430	1524.320313	3.084576
406.034027	1245.387939	10343.086914	1513.917969	2.951626
406.395203	1249.177368	10301.998047	1508.196655	2.861200
406.756348	1253.635620	10244.785156	1511.688843	2.870080
407.117493	1257.870850	10200.872070	1520.307983	2.934553
407.478516	1259.579834	10179.621094	1533.682495	3.072886
407.839600	1259.505493	10161.937500	1539.849609	3.149074
408.200592	1253.189697	10170.259766	1543.118774	3.251394
408.561554	1252.743774	10139.720703	1541.484253	3.249029
408.922485	1252.966797	10138.829102	1538.586548	3.214317
409.283417	1245.239258	10117.579102	1541.038574	3.333949
409.644257	1239.963745	10197.082031	1539.775269	3.347187
410.005096	1234.688354	10313.737305	1545.125000	3.419264
410.365906	1240.112427	10458.405273	1548.542969	3.345853
410.726715	1243.456055	10559.903320	1558.202271	3.378393
411.087433	1247.022461	10623.952148	1560.580078	3.343926
411.448120	1245.536499	10687.332031	1563.180664	3.364235
411.808807	1244.942017	10695.430664	1563.849243	3.374505
412.169434	1253.041138	10645.424805	1559.093872	3.258520
412.530029	1256.607544	10589.549805	1557.607910	3.225139
412.890564	1262.031860	10573.648438	1559.985718	3.199808
413.251099	1253.561157	10603.889648	1548.097290	3.150008
413.611572	1253.486938	10631.456055	1550.623535	3.168454
413.972076	1248.285645	10669.945313	1544.679321	3.145875
414.332489	1244.570679	10710.663086	1564.815308	3.383071
414.692871	1246.651001	10818.030273	1569.347778	3.371476
415.053223	1249.474487	10958.760742	1576.332031	3.366443
415.413574	1258.168091	11153.804688	1581.979126	3.272261
415.773834	1255.195923	11317.270508	1588.071899	3.308224
416.134094	1250.663452	11452.128906	1598.846069	3.413064
416.494263	1249.177368	11586.246094	1610.585815	3.496237
416.854462	1247.245483	11848.906250	1610.288574	3.424398
417.214630	1250.366211	12120.780273	1612.740601	3.333584
417.574738	1248.657227	12428.245117	1625.743530	3.372989
417.934784	1250.514771	12700.860352	1646.919922	3.461949
418.294861	1251.703613	13058.925781	1662.671997	3.480652
418.654846	1256.607666	13451.690430	1672.034180	3.406508
419.014832	1248.583008	13847.500000	1692.838867	3.526143
419.374756	1242.415894	14306.468750	1703.910034	3.532550
419.734680	1238.106323	14784.383789	1723.897461	3.586160
420.094543	1250.663452	15287.116211	1738.683716	3.476806
420.454376	1250.886230	15724.312500	1767.141602	3.566919
420.814148	1250.514771	16157.497070	1777.543945	3.535452
421.173920	1245.610840	16589.419922	1788.392212	3.537462
421.533691	1248.359985	17056.857422	1800.800781	3.494581
421.893341	1247.542603	17389.289063	1816.553101	3.525086
422.253021	1249.623169	17652.767578	1820.045288	3.477517
422.612640	1249.326050	17733.312500	1821.902710	3.473533
422.972260	1249.994629	17754.634766	1819.153442	3.448478
423.331757	1238.106079	17713.693359	1822.348633	3.546110
423.691315	1231.344604	17676.691406	1826.360962	3.618144
424.050781	1229.858521	17748.466797	1818.410522	3.562964
424.410248	1242.044189	17767.117188	1814.546753	3.464448
424.769653	1258.167969	17877.755859	1805.481812	3.293185
425.128998	1255.047241	17886.298828	1817.147461	3.379783
425.488373	1257.202026	17846.099609	1809.122681	3.327048
425.847656	1251.703613	17637.904297	1800.206421	3.347346
426.206940	1258.093628	17466.562500	1777.618164	3.205266
426.566193	1249.994751	17163.779297	1768.553345	3.258550
426.925385	1243.233276	16873.703125	1765.358276	3.340431
427.284576	1236.620239	16378.549805	1750.126343	3.391286
427.643677	1240.781128	16017.512695	1742.250122	3.393640
428.002777	1239.443848	15675.348633	1727.984009	3.384202
428.361847	1247.839966	15337.196289	1727.538208	3.404685
428.720856	1246.651001	15033.520508	1725.903687	3.476153
429.079865	1249.846191	14812.024414	1719.067749	3.459780
429.438812	1244.942139	14700.125000	1716.095581	3.501650
429.797760	1242.118530	14597.512695	1713.197754	3.527258
430.156616	1248.211426	14412.202148	1703.687134	3.460012
430.515503	1255.493042	14285.590820	1701.086548	3.419725
430.874268	1254.601440	14228.971680	1695.067993	3.394897
431.233093	1245.982300	14232.834961	1698.857422	3.487181
431.591827	1239.592285	14284.176758	1700.937988	3.536684
431.950562	1241.301270	14301.788086	1703.538574	3.539204
432.309204	1245.462280	14346.592773	1713.346558	3.571327
432.667877	1249.103027	14433.155273	1712.603516	3.515615
433.026459	1246.353882	14524.546875	1721.222656	3.576306
433.385010	1243.158813	14655.765625	1717.210083	3.534371
433.743561	1238.329224	14807.268555	1724.640503	3.584004
434.102051	1241.524048	14964.344727	1733.036743	3.581718
434.460510	1238.032104	15144.528320	1751.166626	3.689891
434.818939	1234.093872	15214.820313	1763.575195	3.787223
435.177338	1238.700684	15275.971680	1764.243774	3.743912
435.535675	1250.068970	15224.776367	1762.832031	3.669222
435.894012	1253.412598	15179.971680	1756.665039	3.613617
436.252289	1249.771851	15190.819336	1758.374023	3.648235
436.610535	1244.942017	15161.692383	1757.556641	3.683436
436.968719	1252.669556	15259.476563	1767.215820	3.673544
437.326935	1250.514771	15346.781250	1764.317993	3.644960
437.685028	1250.068970	15497.319336	1771.005371	3.656400
438.043152	1248.211426	15600.598633	1766.621460	3.612013
438.401215	1249.920288	15773.204102	1772.194336	3.596115
438.759277	1254.973022	15988.608398	1768.924805	3.488289
439.117249	1248.731445	16362.796875	1786.386108	3.557313
439.475250	1247.765503	16671.302734	1796.565552	3.558198
439.833130	1246.874023	17026.320313	1814.918457	3.599901
440.191071	1248.359985	17250.417969	1816.181519	3.548428
440.548889	1252.297974	17511.740234	1826.806641	3.533385
440.906708	1249.028687	17779.673828	1828.589966	3.505981
441.264496	1246.651001	17987.500000	1826.732422	3.465066
441.622223	1245.462280	18110.173828	1821.902710	3.418027
441.979950	1248.657227	18157.802734	1814.100952	3.344012
442.337616	1246.428223	18224.451172	1816.478638	3.357578
442.695251	1253.412598	18169.095703	1815.141235	3.320756
443.052887	1246.576782	18076.216797	1812.243530	3.361134
443.410461	1244.273315	17909.333984	1796.714233	3.314965
443.768005	1233.499390	17798.548828	1787.649048	3.345294
444.125458	1235.654175	17650.462891	1795.599609	3.411221
444.482941	1242.118530	17632.406250	1803.327026	3.424031
444.840393	1245.164917	17682.486328	1817.816040	3.483847
445.197754	1250.663452	17920.552734	1819.004883	3.409389
445.555084	1249.697388	18137.070313	1828.961426	3.430161
445.912415	1245.016357	18469.351563	1836.614746	3.434666
446.269714	1242.713013	18712.693359	1852.812622	3.492274
446.626953	1249.920410	19023.501953	1865.369751	3.462720
446.984161	1252.669556	19312.539063	1870.645386	3.421818
447.341309	1252.223755	19557.443359	1861.134644	3.326433
447.698456	1245.610718	19707.683594	1862.100464	3.339223
448.055542	1252.446655	19799.744141	1859.648438	3.273802
448.412598	1249.474487	19768.164063	1860.540039	3.299724
448.769653	1254.304199	19672.908203	1852.366821	3.247057
449.126617	1257.796509	19370.421875	1841.667358	3.223557
449.483582	1258.316650	19132.207031	1833.122437	3.215896
449.840515	1254.378540	18808.841797	1823.463013	3.241822
450.197388	1249.846069	18603.318359	1811.426147	3.236125
450.554230	1245.239258	18421.576172	1809.642700	3.285936
450.911041	1237.808960	18236.859375	1802.807007	3.323704
451.267822	1231.196167	18040.031250	1805.779175	3.418339
451.624573	1235.505737	17851.822266	1796.342651	3.375218
451.981262	1248.285645	17753.816406	1796.862793	3.323596
452.337921	1254.304199	17645.259766	1793.222046	3.287898
452.694580	1256.533325	17497.771484	1783.191040	3.242719
453.051147	1251.926636	17466.044922	1777.841187	3.243559
453.407715	1247.319824	17354.960938	1771.897095	3.256698
453.764221	1243.307495	17408.310547	1781.927734	3.332015
454.120728	1248.805786	17188.894531	1780.070313	3.332883
454.477142	1253.041016	17163.556641	1781.704712	3.322731
454.833557	1259.653931	16988.126953	1770.039429	3.244978
455.189911	1259.133789	16859.212891	1767.438843	3.258349
455.546265	1254.229858	16671.228516	1755.550293	3.251738
455.902557	1244.942017	16532.283203	1761.643188	3.379928
456.258820	1238.700684	16511.775391	1765.952759	3.452167
456.615051	1239.146484	16564.009766	1767.141602	3.445350
456.971252	1245.090698	16565.939453	1765.284058	3.395330
457.327393	1246.725342	16754.296875	1766.101440	3.349178
457.683502	1248.731567	16978.617188	1782.224976	3.391591
458.039612	1249.103027	17394.712891	1797.902954	3.399066
458.395630	1247.542725	17769.718750	1817.964844	3.452464
458.751648	1247.542603	18155.201172	1837.506348	3.489329
459.107605	1247.394165	18712.250000	1858.385376	3.498404
459.463562	1241.301270	19246.857422	1879.115845	3.542321
459.819458	1245.165039	19820.845703	1895.090820	3.498800
460.175323	1243.901855	20267.923828	1903.338501	3.466337
460.531158	1253.932739	20748.587891	1909.282715	3.361691
460.886932	1252.372437	21057.244141	1913.517944	3.338297
461.242676	1257.350708	21277.775391	1909.802734	3.258932
461.598419	1251.777954	21232.152344	1897.617188	3.232368
461.954102	1253.709839	20936.427734	1876.886719	3.166112
462.309723	1247.542847	20401.892578	1865.592773	3.226682
462.665344	1244.867798	19808.140625	1846.125488	3.238964
463.020905	1238.923462	19317.222656	1828.069946	3.258860
463.376373	1244.496338	18916.580078	1809.494263	3.197121
463.731873	1258.019409	18544.771484	1797.531616	3.120958
464.087341	1260.694336	18246.148438	1796.491333	3.154446
464.442749	1262.403320	18033.048828	1802.435547	3.220104
464.798126	1250.589111	17893.431641	1803.475708	3.322068
465.153503	1249.548950	17944.998047	1795.896851	3.272436
465.508820	1244.793579	17964.392578	1798.348999	3.310817
465.864105	1253.041138	18090.333984	1804.515991	3.275318
466.219330	1253.041138	18295.410156	1826.063843	3.362342
466.574524	1257.945068	18493.722656	1823.760376	3.282795
466.929657	1254.081421	18663.728516	1823.611816	3.271350
467.284790	1254.601440	18808.992188	1828.144165	3.267232
467.639893	1257.127808	18943.257813	1828.144409	3.228612
467.994934	1261.734497	19149.150391	1827.475464	3.162787
468.349945	1261.957397	19241.878906	1822.942993	3.120067
468.704926	1255.195801	19272.193359	1824.206055	3.158186
469.059875	1251.777954	19121.210938	1820.936890	3.185098
469.414764	1244.793457	18904.320313	1812.614746	3.215382
469.769653	1250.663330	18745.015625	1809.122559	3.192226
470.124451	1249.548950	18574.937500	1816.255859	3.270962
470.479248	1256.533325	18413.773438	1811.946167	3.237192
470.834015	1245.685181	18289.093750	1799.909180	3.251838
471.188721	1247.319824	18365.107422	1800.503540	3.231631
471.543365	1252.446655	18446.841797	1809.717163	3.241001
471.898010	1256.458984	18550.044922	1827.698364	3.303186
472.252625	1256.830566	18672.347656	1830.447632	3.293712
472.607178	1254.898560	18913.832031	1831.265015	3.263880
472.961700	1253.932617	19107.687500	1832.750977	3.241998
473.316193	1255.047241	19347.611328	1831.859253	3.188116
473.670654	1248.211304	19475.634766	1840.032593	3.246873
474.025055	1254.155640	19718.902344	1840.626953	3.176168
474.379456	1245.536499	19921.005859	1846.794067	3.219505
474.733795	1246.948364	20101.931641	1844.342163	3.168360
475.088104	1241.598511	20266.660156	1848.577515	3.190418
475.442383	1244.867798	20286.277344	1852.812622	3.192751
475.796570	1240.706909	20351.515625	1855.413086	3.216537
476.150787	1246.279541	20452.494141	1872.948608	3.262845
476.504944	1245.388062	20654.373047	1880.230347	3.270868
476.859070	1249.697510	20895.931641	1898.583008	3.302849
477.213135	1249.028809	21118.914063	1902.298340	3.287737
477.567200	1250.589111	21490.279297	1915.449829	3.284935
477.921173	1256.458984	21875.687500	1921.988647	3.227714
478.275146	1249.697388	22353.380859	1926.446655	3.206783
478.629089	1252.892456	22651.037109	1938.334961	3.203280
478.983002	1250.366089	23037.853516	1952.304077	3.221748
479.336823	1253.932739	23373.185547	1971.474121	3.243968
479.690643	1258.316650	23836.537109	1980.762085	3.199745
480.044403	1259.282593	24353.906250	1998.074585	3.198978
480.398163	1257.350708	25010.296875	2027.126953	3.240761
480.751862	1245.685181	25858.685547	2062.272217	3.317706
481.105499	1240.484009	26884.359375	2098.383057	3.345434
481.459137	1240.261108	28241.943359	2156.859375	3.394597
481.812744	1239.740845	29871.328125	2239.186768	3.490711
482.166290	1240.335327	31862.568359	2342.616455	3.599611
482.519806	1245.982300	34209.863281	2462.392334	3.690130
482.873291	1252.075195	36934.171875	2579.567627	3.720332
483.226715	1258.019409	39970.406250	2689.163818	3.696864
483.580139	1263.889282	42924.535156	2758.265625	3.587022
483.933502	1265.375366	45865.808594	2820.605469	3.487029
484.286804	1265.078247	48557.050781	2868.233643	3.389910
484.640106	1250.589111	51016.468750	2893.422119	3.301123
484.993347	1247.765503	52700.988281	2886.735107	3.185359
485.346558	1237.065918	53596.707031	2863.998291	3.107226
485.699738	1241.821289	53609.343750	2844.307861	3.060077
486.052887	1245.313599	52953.843750	2830.339600	3.065309
486.405975	1245.833618	51785.730469	2803.292969	3.081643
486.759064	1248.062866	50169.269531	2768.148193	3.107211
487.112061	1236.843140	48534.238281	2747.268799	3.193465
487.464996	1248.583008	47176.281250	2724.829346	3.214283
487.817963	1242.564331	46427.386719	2710.934570	3.249698
488.170868	1247.914185	46038.113281	2679.504883	3.196214
488.523743	1244.942017	45920.496094	2663.827148	3.175977
488.876587	1247.096924	45867.886719	2634.477539	3.109270
489.229401	1254.081299	45797.968750	2618.353516	3.062760
489.582153	1250.589111	45386.183594	2595.914063	3.048163
489.934845	1254.452881	44720.730469	2582.465576	3.055271
490.287537	1245.833740	43803.906250	2554.899170	3.075951
490.640198	1247.245483	42968.296875	2546.131348	3.113263
490.992798	1243.604614	42105.050781	2534.317139	3.158754
491.345337	1244.793579	41617.328125	2538.998291	3.205656
491.697876	1246.799683	41264.761719	2531.790771	3.211036
492.050354	1244.867798	41357.117188	2526.366943	3.194782
492.402832	1241.078369	41426.964844	2502.515625	3.139006
492.755219	1242.044312	41455.421875	2464.918701	3.040964
493.107605	1240.632446	41075.437500	2415.209961	2.948621
493.459930	1252.520996	40328.769531	2372.560303	2.866292
493.812225	1250.143311	39148.765625	2318.616455	2.819293
494.164490	1261.214355	37654.093750	2276.040771	2.788530
494.516724	1259.802612	35876.105469	2227.075439	2.794270
494.868896	1264.186401	34045.507813	2189.775391	2.823526
495.221039	1255.121582	32429.275391	2164.141113	2.915940
495.573120	1253.486938	31109.585938	2138.581055	2.964534
495.925201	1251.777954	30311.796875	2135.980225	3.042676
496.277222	1252.669556	29735.726563	2129.292969	3.077701
496.629211	1249.103027	29485.474609	2133.899902	3.133536
496.981140	1249.548828	29292.212891	2128.698486	3.135043
497.333069	1255.195801	29326.837891	2125.280762	3.099516
497.684967	1256.236084	29395.046875	2111.757813	3.040362
498.036804	1248.211426	29465.708984	2107.299561	3.044523
498.388580	1248.137085	29412.212891	2099.126221	3.021541
498.740326	1255.641724	29327.283203	2095.782715	2.992846
499.092072	1256.979126	29143.904297	2084.265625	2.966575
499.443756	1252.297974	28934.593750	2076.983887	2.979110
499.795410	1244.421997	28655.513672	2061.157471	2.979580
500.147003	1251.257813	28331.181641	2049.863525	2.949069
500.498566	1252.149414	27953.353516	2038.197876	2.943869
500.850098	1250.960571	27559.623047	2037.009155	2.987794
501.201599	1247.542603	27232.169922	2032.030884	3.019048
501.553009	1245.685181	26913.408203	2028.166992	3.048505
501.904449	1248.285767	26687.306641	2029.132935	3.069486
502.255859	1254.006958	26453.921875	2018.136108	3.032269
502.607178	1257.647827	26378.728516	2017.987671	3.026700
502.958405	1256.458984	26271.734375	2014.792480	3.031482
503.309692	1249.920410	26215.929688	2022.891602	3.096094
503.660919	1246.205200	26185.244141	2020.885376	3.106295
504.012115	1250.737671	26198.693359	2028.687134	3.118289
504.363251	1258.093750	26270.841797	2029.950317	3.085853
504.714294	1259.876953	26275.744141	2027.646973	3.069132
505.065369	1257.350708	26340.984375	2011.746094	3.007520
505.416443	1250.886353	26320.031250	2002.458374	2.997996
505.767395	1257.647827	26375.164063	2001.194946	2.960273
506.118317	1260.619995	26284.140625	2008.699707	2.989506
506.469238	1260.843018	26316.687500	2017.170288	3.018566
506.820160	1257.202148	26304.578125	2010.334351	3.006831
507.170929	1253.263916	26386.904297	2003.498535	2.984982
507.521729	1254.229858	26438.171875	2006.396484	2.986691
507.872498	1246.353882	26546.134766	2016.724609	3.044970
508.223236	1246.948242	26704.771484	2031.139282	3.080354
508.573883	1241.821411	26892.085938	2032.476685	3.082445
508.924500	1245.759399	27023.599609	2048.228760	3.113020
509.275116	1241.078247	27153.927734	2048.228760	3.114866
509.625702	1242.118530	27268.654297	2047.485718	3.094408
509.976196	1240.632568	27474.843750	2040.501099	3.048952
510.326660	1240.483887	27717.666016	2044.588013	3.036970
510.677124	1236.917480	28019.333984	2059.299805	3.070606
511.027557	1234.093872	28256.435547	2078.841553	3.126108
511.377869	1237.214600	28492.568359	2084.265381	3.107833
511.728180	1244.644897	28605.359375	2085.305908	3.072511
512.078430	1254.081299	28704.255859	2069.107666	2.969112
512.428650	1253.635376	28765.779297	2074.829346	2.984842
512.778931	1252.149414	28867.126953	2069.628174	2.960273
513.129028	1244.867798	28949.306641	2074.754883	2.995502
513.479126	1244.496216	29050.210938	2068.885010	2.964818
513.829285	1244.496216	29047.240234	2072.600098	2.978497
514.179382	1244.050415	29016.697266	2069.405273	2.971827
514.529297	1245.982422	28926.421875	2063.014893	2.951660
514.879272	1247.616943	28935.634766	2061.603271	2.939851
515.229187	1252.669556	28911.115234	2059.745850	2.918010
515.579163	1254.155640	28921.664063	2060.488770	2.914368
515.928955	1248.508667	28926.570313	2072.377197	2.976612
516.278748	1245.387817	29061.875000	2088.500732	3.030983
516.628540	1244.644897	29253.281250	2107.819580	3.081816
516.978333	1250.366211	29613.130859	2115.250000	3.049363
517.327942	1253.486938	30027.958984	2128.550049	3.041109
517.677612	1248.508667	30532.845703	2150.172119	3.078995
518.027222	1247.765625	31013.806641	2162.803467	3.074100
518.376831	1245.239258	31600.648438	2175.212158	3.063615
518.726379	1249.697388	32175.380859	2172.908936	2.985258
519.075867	1248.880249	32661.396484	2180.190430	2.964774
519.425293	1254.155640	33060.773438	2180.115967	2.911219
519.774658	1252.743774	33310.503906	2195.422607	2.940564
520.124084	1256.607544	33521.746094	2191.781494	2.898404
520.473389	1251.629272	33452.199219	2176.995361	2.873757
520.822693	1251.555054	33271.792969	2153.144287	2.815686
521.171997	1248.062866	32959.054688	2138.432373	2.807763
521.521240	1247.914185	32598.759766	2137.912354	2.838833
521.870361	1245.759399	32217.953125	2131.670654	2.860344
522.219482	1244.496216	31853.947266	2120.228271	2.860986
522.568604	1240.409546	31576.501953	2114.655518	2.881867
522.917664	1239.443726	31431.015625	2119.187744	2.913873
523.266724	1242.935913	31401.517578	2140.141357	2.974959
523.615662	1248.062866	31563.720703	2156.190674	2.995574
523.964600	1253.264038	31869.849609	2163.249268	2.972197
524.313538	1249.177368	32311.429688	2170.159424	2.964956
524.662354	1243.158813	32857.925781	2202.109619	3.033237
525.011169	1243.233032	33552.953125	2237.106445	3.076082
525.359985	1244.050415	34472.152344	2275.743896	3.104882
525.708740	1249.846069	35561.503906	2304.499268	3.073746
526.057434	1247.245361	36756.589844	2347.966064	3.099806
526.406067	1254.378418	38085.269531	2400.349365	3.111440
526.754700	1255.567383	39595.105469	2460.534424	3.142884
527.103333	1259.802612	41355.035156	2528.001221	3.162966
527.451782	1255.641846	43322.644531	2613.226807	3.227197
527.800293	1250.440552	45330.828125	2690.501709	3.266898
528.148743	1252.892456	47232.828125	2761.237549	3.280442
528.497131	1251.183472	48956.281250	2788.135498	3.221777
528.845642	1253.932617	50523.105469	2806.785156	3.151773
529.193909	1253.486816	51942.800781	2810.723389	3.072120
529.542175	1255.493042	52999.906250	2802.698486	2.990092
529.890503	1259.059448	53662.167969	2769.559814	2.882463
530.238770	1249.846069	53851.714844	2730.922607	2.815635
530.586914	1248.880005	53627.324219	2692.136230	2.755439
530.934998	1243.753174	52895.589844	2658.551270	2.739105
531.283142	1245.982300	51816.562500	2615.010010	2.707162
531.631226	1242.787231	50270.917969	2581.573730	2.730650
531.979248	1243.901855	48485.050781	2548.731934	2.762063
532.327148	1243.381714	46590.550781	2531.864990	2.841375
532.675110	1244.867798	44991.859375	2518.490723	2.911338
533.023071	1245.610840	43867.656250	2520.571289	2.991317
533.370850	1247.096924	43247.234375	2501.252686	2.986075
533.718689	1244.273438	43077.300781	2497.983154	2.996938
534.066467	1242.787354	43138.746094	2482.825195	2.959803
534.414246	1245.833740	43229.843750	2474.131836	2.925633
534.761963	1254.304321	43293.371094	2455.482178	2.857290
535.109619	1258.762329	43233.855469	2433.488525	2.798627
535.457153	1260.694336	42942.292969	2426.429688	2.796763
535.804749	1255.715942	42382.496094	2401.240967	2.785351
536.152344	1246.948242	41665.917969	2382.293701	2.808942
536.499817	1241.449829	40752.738281	2361.266357	2.834168
536.847229	1243.679077	39753.593750	2344.176514	2.857699
537.194641	1255.418823	38774.281250	2327.532715	2.857533
537.542114	1261.585938	38041.730469	2311.557617	2.854724
537.889404	1254.750000	37556.386719	2307.916748	2.901155
538.236694	1254.973022	37186.800781	2294.765137	2.893791
538.583984	1252.595215	36930.011719	2284.139893	2.891310
538.931213	1253.041138	36756.070313	2290.678467	2.922673
539.278381	1244.942261	36667.207031	2321.811279	3.040091
539.625488	1238.700806	36663.488281	2365.055420	3.179566
539.972595	1244.124878	36829.777344	2410.603027	3.277945
540.319641	1249.697510	37172.609375	2459.568604	3.367965
540.666687	1257.424927	37760.714844	2502.292725	3.410289
541.013611	1253.486938	38645.738281	2546.280029	3.457382
541.360596	1247.245483	39663.832031	2577.858643	3.463642
541.707458	1241.524170	40841.605469	2601.041260	3.433117
542.054260	1242.044312	41896.183594	2602.898682	3.347394
542.401062	1242.341553	42956.035156	2599.777832	3.254174
542.747864	1244.421997	43638.062500	2586.477783	3.165701
543.094666	1248.583130	43995.312500	2566.118896	3.082191
543.441284	1251.035034	43826.421875	2531.122070	3.006636
543.787903	1251.555054	43308.527344	2503.555908	2.976916
544.134460	1243.530396	42398.542969	2467.147705	2.973191
544.481079	1240.038086	41254.953125	2448.051758	3.018909
544.827637	1238.923462	39883.398438	2410.231934	3.030986
545.174072	1243.158813	38380.480469	2389.278320	3.086166
545.520508	1246.428101	36960.406250	2359.037109	3.115332
545.866943	1249.028687	35696.964844	2337.637695	3.160157
546.213318	1245.536499	34708.957031	2318.690674	3.206947
546.559631	1244.793579	33876.617188	2299.743408	3.232887
546.905823	1243.604614	33199.644531	2282.876709	3.252193
547.252136	1246.873901	32585.603516	2250.852295	3.203635
547.598389	1251.703613	32065.187500	2218.233398	3.136710
547.944458	1249.623169	31653.554688	2188.438232	3.087808
548.290588	1253.561157	31188.716797	2153.738770	3.007092
548.636658	1250.291870	30675.431641	2123.497803	2.967551
548.982727	1253.561157	30080.044922	2096.896973	2.925559
549.328735	1252.149414	29527.380859	2075.794922	2.912958
549.674622	1248.657227	28936.083984	2061.083008	2.934277
550.020569	1240.706909	28326.578125	2040.427124	2.952536
550.366455	1246.799683	27579.384766	2023.783203	2.950654
550.712280	1252.743896	26916.458984	1991.981445	2.880478
551.058044	1256.756348	26340.906250	1976.080688	2.867645
551.403748	1249.623169	25926.595703	1969.913696	2.918877
551.749512	1243.233154	25592.904297	1970.879761	2.988322
552.095154	1243.381714	25331.580078	1968.056152	3.008421
552.440735	1243.381714	25246.654297	1968.799194	3.022161
552.786316	1242.861450	25150.876953	1965.975586	3.024568
553.131897	1240.261108	25178.218750	1959.065552	3.002781
553.477417	1237.363159	25132.078125	1941.975952	2.948823
553.822815	1243.233032	25176.585938	1935.065796	2.890664
554.168213	1249.548828	25120.931641	1914.781128	2.786736
554.513672	1251.183472	25067.583984	1903.189819	2.737636
554.859009	1250.291870	24951.375000	1896.725586	2.727444
555.204285	1246.428223	24761.009766	1896.131226	2.762979
555.549500	1250.068970	24572.281250	1891.672974	2.751043
555.894714	1249.920288	24344.990234	1881.121948	2.733058
556.239990	1255.195923	24108.484375	1870.199585	2.691095
556.585022	1256.087524	23870.046875	1866.855835	2.700846
556.930115	1250.440552	23559.609375	1862.917969	2.745407
557.275146	1243.976196	23298.435547	1869.307983	2.835398
557.620178	1232.310669	23029.681641	1859.871460	2.879066
557.965149	1232.533569	22889.322266	1859.648438	2.895696
558.310059	1244.124634	22744.583984	1844.490845	2.792341
558.654968	1257.202026	22648.361328	1842.856079	2.737832
558.999756	1260.991455	22518.107422	1831.784790	2.685187
559.344604	1246.948364	22430.578125	1831.264771	2.758339
559.689331	1239.815308	22321.802734	1829.109985	2.795252
560.033997	1238.180542	22225.802734	1824.651978	2.794368
560.378723	1248.805786	22166.134766	1830.224609	2.779604
560.723389	1253.635376	22123.859375	1826.360840	2.744223
561.067932	1256.979126	22165.318359	1830.967651	2.745261
561.412476	1253.412598	22154.619141	1825.692261	2.738022
561.757019	1251.183594	22163.833984	1820.713867	2.723377
562.101501	1250.588989	22143.101563	1812.763306	2.690793
562.445862	1253.041138	22149.568359	1808.008179	2.655786
562.790222	1254.452759	22159.896484	1809.122681	2.653232
563.134644	1252.892456	22176.837891	1809.196899	2.658698
563.478943	1249.028687	22243.412109	1812.317749	2.683047
563.823181	1246.651001	22248.611328	1823.463257	2.746469
564.167358	1254.973022	22247.201172	1835.202759	2.764022
564.511536	1249.400269	22253.515625	1843.896118	2.830378
564.855774	1243.901855	22285.392578	1841.592773	2.840535
565.199768	1231.047485	22371.361328	1847.611328	2.916531
565.543823	1241.524292	22457.255859	1847.982910	2.858533
565.887817	1250.068970	22623.171875	1856.899292	2.839224
566.231812	1263.889282	22795.257813	1852.441040	2.733462
566.575745	1255.715942	22921.572266	1857.419434	2.777197
566.919617	1250.514771	23052.046875	1855.487671	2.774910
567.263428	1242.861694	23156.664063	1857.047852	2.802737
567.607239	1250.143311	23278.150391	1851.029297	2.727827
567.950989	1252.520874	23348.439453	1845.902466	2.685481
568.294678	1253.041138	23420.587891	1842.335938	2.658367
568.638367	1249.251587	23420.884766	1847.834351	2.699769
568.981995	1245.685059	23372.736328	1842.335938	2.696477
569.325623	1244.570557	23222.718750	1842.038696	2.718464
569.669128	1244.421875	23053.384766	1827.326782	2.672777
570.012573	1251.257813	22916.521484	1829.853149	2.670613
570.356140	1253.561157	22840.656250	1834.905640	2.693018
570.699524	1250.217529	22792.359375	1834.459961	2.712091
571.042908	1243.604492	22778.912109	1838.695190	2.763326
571.386230	1241.152588	22808.187500	1827.846802	2.720329
571.729492	1251.629272	22895.119141	1845.382324	2.743333
572.072815	1257.053345	23034.585938	1845.679565	2.702906
572.416016	1259.653931	23116.248047	1855.636108	2.726784
572.759094	1248.731445	23240.775391	1851.178101	2.739385
573.102234	1250.291870	23286.322266	1850.583618	2.724137
573.445374	1255.641724	23394.509766	1851.698120	2.692353
573.788391	1256.013306	23440.056641	1851.178101	2.682851
574.131409	1254.750122	23522.162109	1848.948853	2.668468
574.474365	1251.926636	23513.615234	1847.314087	2.674494
574.817261	1252.966919	23467.326172	1840.552734	2.645072
575.160156	1256.533325	23306.906250	1837.729126	2.635764
575.502930	1246.948242	23087.265625	1827.178223	2.656692
575.845703	1250.143433	22844.742188	1826.658203	2.669717
576.188477	1248.137085	22602.664063	1823.166016	2.692773
576.531250	1258.167969	22378.119141	1829.556030	2.705442
576.873901	1256.607544	22176.615234	1819.153687	2.689034
577.216431	1248.582886	21942.337891	1811.128906	2.718434
577.559082	1245.685059	21691.417969	1790.324219	2.663828
577.901611	1244.347656	21391.085938	1785.123047	2.684183
578.244080	1256.458984	21067.197266	1773.680298	2.610813
578.586487	1250.886230	20776.750000	1773.977539	2.678966
578.928955	1303.269653	20502.126953	1809.048340	2.634421
579.271301	1303.269653	20200.753906	1808.676758	2.674468
579.613647	1300.594849	19866.466797	1795.673828	2.666608
579.955872	1248.582886	19501.341797	1742.621582	2.706652
580.298157	1242.118530	19241.357422	1735.859985	2.743124
580.640320	1253.858521	18965.173828	1737.791992	2.732341
580.982483	1255.567383	18751.927734	1736.603149	2.749348
581.324524	1251.035034	18575.607422	1728.281250	2.754736
581.666626	1251.480713	18457.761719	1722.336914	2.736537
582.008728	1260.025513	18354.035156	1719.364868	2.687136
582.350647	1257.573608	18216.425781	1727.909668	2.773396
582.692566	1257.053345	18091.894531	1725.680664	2.783675
583.034424	1243.456055	17984.082031	1719.067749	2.841063
583.376343	1244.050537	17902.052734	1706.584961	2.776650
583.718201	1237.660522	17858.212891	1706.882202	2.823141
584.059937	1241.524292	17791.564453	1705.247437	2.801946
584.401611	1243.530273	17717.111328	1711.265991	2.839308
584.743347	1247.914185	17643.998047	1704.207153	2.782939
585.085022	1254.304321	17558.326172	1711.191772	2.802299
585.426514	1253.635620	17496.654297	1699.972046	2.747866
585.768127	1243.753296	17433.869141	1703.464233	2.839454
586.109619	1240.929810	17399.466797	1701.978149	2.853280
586.451172	1247.691284	17350.353516	1712.009155	2.883485
586.792542	1250.217651	17313.203125	1715.724121	2.898007
587.133850	1244.198975	17274.935547	1717.804688	2.954360
587.475220	1243.530151	17224.857422	1710.597168	2.922580
587.816589	1253.486816	17202.640625	1696.182617	2.775669
588.157776	1259.133911	17218.244141	1696.108276	2.738087
588.498962	1255.938843	17278.429688	1695.067993	2.740705
588.840210	1249.697632	17313.947266	1706.807739	2.845512
589.181335	1254.229858	17339.060547	1702.869629	2.789210
589.522400	1257.944946	17363.728516	1710.597046	2.810494
589.863403	1256.236206	17402.216797	1713.346313	2.831108
590.204407	1254.229980	17370.119141	1713.494995	2.849765
590.545410	1250.812012	17412.101563	1708.814087	2.833945
590.886353	1246.873901	17415.443359	1704.355835	2.829452
591.227112	1236.768799	17439.294922	1702.869751	2.876718
591.567932	1239.146484	17353.919922	1698.708862	2.851808
591.908752	1247.022461	17288.609375	1690.386841	2.763844
592.249512	1256.979126	17287.419922	1693.061646	2.720340
592.590149	1258.539551	17259.853516	1696.628296	2.737830
592.930786	1258.687988	17212.892578	1703.538574	2.788297
593.271423	1258.390869	17140.521484	1697.445801	2.764459
593.612000	1251.034912	17051.136719	1699.823364	2.840415
593.952576	1243.976074	17035.087891	1695.216431	2.857559
594.292969	1237.511841	16995.630859	1698.114258	2.922953
594.633484	1241.449829	17059.085938	1703.018188	2.918062
594.973877	1247.542603	17109.537109	1710.745728	2.920208
595.314209	1250.440552	17224.187500	1714.832397	2.907219
595.654480	1252.372437	17356.744141	1718.621948	2.895174
595.994812	1255.567383	17517.685547	1724.417480	2.883081
596.335022	1260.397095	17687.095703	1734.819946	2.888120
596.675171	1261.808716	17830.275391	1742.473145	2.901080
597.015320	1259.431152	17930.509766	1746.856934	2.923781
597.355408	1256.087524	17987.423828	1738.832153	2.885273
597.695496	1252.669556	18054.074219	1738.906616	2.894026
598.035461	1250.886353	18076.216797	1733.185181	2.866504
598.375366	1253.189819	18092.564453	1734.076782	2.855729
598.715271	1256.607666	18106.904297	1717.284546	2.733939
599.055176	1258.019409	17998.943359	1712.529175	2.714962
599.395081	1253.412598	17894.845703	1697.148438	2.666452
599.734802	1255.047241	17651.353516	1690.015259	2.652841
600.074524	1253.338379	17419.455078	1678.795532	2.631783
600.414246	1254.452759	17069.044922	1680.356079	2.693104
600.753906	1249.326050	16732.304688	1686.746094	2.825167
601.093506	1249.474609	16408.419922	1685.482910	2.876244
601.433044	1250.440552	16114.625977	1674.411743	2.852300
601.772583	1247.839844	15919.062500	1658.362427	2.798148
602.112122	1251.332153	15816.375000	1658.065308	2.792530
602.451538	1251.777954	15806.417969	1668.318970	2.861912
602.790894	1256.681885	15866.676758	1675.972168	2.869887
603.130310	1255.418823	15994.476563	1679.167114	2.875003
603.469604	1256.384644	16177.039063	1681.544922	2.849475
603.808838	1247.914185	16380.182617	1690.015503	2.921580
604.148010	1244.124878	16591.869141	1695.290894	2.939624
604.487305	1243.530273	16835.064453	1698.411621	2.917489
604.826416	1245.685181	17013.541016	1695.513794	2.852820
605.165527	1246.576782	17193.947266	1700.863647	2.848663
605.504456	1246.130981	17353.623047	1704.058594	2.842948
605.843445	1249.697632	17438.998047	1712.380493	2.857955
606.182434	1246.502563	17485.734375	1709.259766	2.849625
606.521423	1249.994751	17449.771484	1711.191772	2.846935
606.860229	1248.582886	17424.285156	1694.399048	2.756085
607.199036	1256.384644	17283.705078	1686.894531	2.686100
607.537903	1246.130859	17099.955078	1675.229126	2.706592
607.876648	1252.297974	16838.185547	1683.105103	2.764085
608.215271	1248.434326	16589.791016	1684.962891	2.845437
608.553955	1252.000854	16349.124023	1688.752319	2.892945
608.892578	1248.583008	16094.786133	1687.266235	2.954851
609.231140	1248.211426	15898.702148	1694.176392	3.044028
609.569641	1251.629272	15731.668945	1711.414551	3.175304
609.908081	1252.446655	15675.497070	1731.253418	3.319733
610.246521	1252.966675	15643.843750	1746.113892	3.426805
610.584961	1244.942017	15620.586914	1754.584473	3.545180
610.923340	1242.267090	15610.706055	1760.825806	3.609012
611.261597	1235.654175	15577.937500	1758.894043	3.648233
611.599854	1242.341553	15530.012695	1756.219116	3.596650
611.938110	1248.137085	15474.582031	1747.302734	3.508717
612.276245	1255.121582	15357.183594	1736.305786	3.412155
612.614319	1254.229858	15157.308594	1727.092285	3.401134
612.952393	1247.765503	14886.995117	1713.866577	3.417356
613.290466	1246.279419	14622.700195	1706.436157	3.440059
613.628479	1246.428101	14380.698242	1692.318726	3.394864
613.966370	1247.542725	14128.811523	1681.321899	3.367519
614.304260	1243.753296	13898.769531	1664.529419	3.324975
614.642151	1245.016479	13689.606445	1639.563843	3.170433
614.979980	1243.084595	13524.877930	1624.331665	3.104165
615.317749	1240.855347	13373.226563	1609.768555	3.040735
615.655396	1237.511719	13248.027344	1609.694214	3.098805
615.993164	1244.421875	13170.752930	1600.629272	2.986731
616.330811	1248.211426	13104.846680	1604.344360	3.003659
616.668396	1248.434204	13054.839844	1600.480591	2.981825
617.005859	1243.976074	13009.440430	1593.942017	2.974519
617.343445	1244.867676	12989.082031	1583.093750	2.879938
617.680908	1241.524048	12968.276367	1573.583008	2.831636
618.018311	1242.861694	12975.707031	1579.007202	2.864995
618.355652	1247.617065	12986.778320	1585.545776	2.878644
618.692993	1258.985352	13008.102539	1592.604492	2.839525
619.030273	1257.722168	12996.661133	1585.025757	2.788187
619.367554	1258.019409	12979.050781	1575.291992	2.706866
619.704712	1259.654053	13008.176758	1570.165039	2.642979
620.041870	1260.248535	12985.515625	1574.771851	2.682441
620.379028	1256.979126	12949.180664	1575.366211	2.723072
620.716064	1250.068970	12858.457031	1569.793579	2.754255
621.053040	1244.644897	12827.250000	1565.409790	2.769367
621.389954	1243.901978	12780.364258	1558.722534	2.728918
621.726929	1240.781250	12737.789063	1559.985718	2.776413
622.063843	1248.359985	12687.487305	1557.385132	2.701475
622.400635	1243.530273	12640.081055	1558.128052	2.760465
622.737427	1245.239258	12601.815430	1556.716187	2.742701
623.074219	1244.496216	12544.231445	1555.898926	2.755841
623.410889	1253.858398	12499.351563	1556.270386	2.689184
623.747559	1252.818237	12459.823242	1560.282837	2.743504
624.084167	1250.217529	12447.042969	1565.112671	2.812361
624.420715	1250.663452	12447.265625	1570.090820	2.852895
624.757324	1256.756348	12460.492188	1573.211548	2.824551
625.093750	1260.694336	12471.414063	1573.434448	2.789652
625.430176	1255.567505	12504.182617	1573.657227	2.827812
625.766602	1248.062866	12538.881836	1572.542969	2.873840
626.102905	1245.685181	12616.379883	1578.412720	2.926185
626.439209	1245.685181	12672.328125	1583.985352	2.960626
626.775452	1250.440552	12753.690430	1585.248535	2.910551
627.111694	1249.623169	12791.510742	1583.688110	2.894370
627.447876	1255.493042	12829.628906	1583.093750	2.830455
627.783997	1247.691284	12867.151367	1581.087524	2.869292
628.120056	1249.623169	12915.374023	1575.663574	2.794851
628.456055	1240.706909	12953.862305	1562.363281	2.746112
628.792053	1251.406372	12974.666992	1561.917480	2.648675
629.128052	1250.737671	12939.893555	1557.385132	2.623350
629.463928	1261.214355	12881.342773	1561.843140	2.587138
629.799744	1252.520874	12799.906250	1556.567749	2.633036
630.135559	1254.898560	12701.010742	1553.001099	2.604400
630.471375	1246.056641	12589.629883	1543.861816	2.625321
630.807068	1258.093628	12414.945313	1542.747437	2.551381
631.142700	1247.393921	12281.942383	1537.100220	2.625448
631.478333	1249.325806	12125.906250	1546.388184	2.731211
631.813965	1241.301270	12022.922852	1539.552368	2.766292
632.149475	1247.468384	11892.893555	1539.032227	2.738865
632.484924	1247.022583	11825.426758	1531.973511	2.693704
632.820435	1251.183594	11726.901367	1528.629883	2.648470
633.155884	1253.858398	11642.270508	1526.177734	2.621376
633.491150	1255.493042	11554.890625	1526.103516	2.627440
633.826477	1249.697388	11503.621094	1533.013672	2.763004
634.161804	1248.062744	11473.083008	1532.122070	2.778081
634.497009	1240.038086	11438.085938	1524.097290	2.785427
634.832153	1242.415894	11379.089844	1516.295776	2.701871
635.167297	1246.799683	11311.473633	1509.682739	2.611938
635.502380	1260.397095	11239.104492	1503.812866	2.439352
635.837463	1264.483765	11141.768555	1500.023315	2.384659
636.172424	1261.734497	11082.399414	1499.874878	2.424891
636.507324	1259.505493	10998.882813	1501.806641	2.487851
636.842224	1266.341309	10970.202148	1505.818970	2.467860
637.177124	1267.233032	10884.085938	1505.893188	2.481687
637.511963	1262.551880	10785.336914	1499.206055	2.485136
637.846741	1247.245605	10673.139648	1495.044922	2.628921
638.181396	1247.988525	10544.893555	1488.432007	2.586274
638.516113	1247.171265	10464.348633	1493.930542	2.677167
638.850769	1249.623169	10379.124023	1480.778931	2.531965
639.185303	1242.192871	10310.691406	1485.831543	2.686649
639.519836	1242.044312	10218.778320	1478.326782	2.632165
639.854370	1243.233032	10134.890625	1483.230835	2.699135
640.188843	1249.697388	10037.777344	1480.407349	2.625260
640.523254	1250.812012	9964.812500	1484.048218	2.676569
640.857605	1251.926636	9863.166992	1486.203125	2.720589
641.191895	1252.000977	9792.356445	1483.379517	2.709238
641.526184	1248.880249	9723.180664	1473.051392	2.645305
641.860413	1248.359985	9665.446289	1470.153687	2.635041
642.194580	1246.799683	9607.713867	1462.574707	2.580759
642.528748	1243.753296	9537.868164	1468.741821	2.712628
642.862793	1245.610962	9454.278320	1473.051392	2.770735
643.196838	1240.706909	9392.309570	1474.017456	2.862143
643.530823	1243.381836	9333.833008	1475.503540	2.869082
643.864746	1239.072266	9319.641602	1467.478638	2.826612
644.198669	1240.929688	9282.861328	1467.924438	2.822640
644.532532	1245.610840	9260.570313	1458.339478	2.654145
644.866333	1246.651123	9192.805664	1455.144409	2.623826
645.200073	1245.462280	9140.572266	1457.670776	2.687847
645.533813	1244.570557	9088.114258	1462.500488	2.778463
645.867554	1245.536499	9081.948242	1460.048462	2.737375
646.201172	1248.211304	9074.516602	1460.494263	2.712429
646.534729	1252.075073	9089.081055	1465.992676	2.729583
646.868225	1256.607544	9099.780273	1465.472656	2.663018
647.201782	1256.384644	9086.851563	1459.825562	2.598069
647.535217	1253.932739	9045.911133	1455.293091	2.584201
647.868591	1246.056641	9045.835938	1454.104126	2.667351
648.201965	1246.428223	9069.092773	1457.447876	2.697542
648.535278	1249.994751	9103.643555	1456.779297	2.632974
648.868591	1255.121460	9107.433594	1470.228027	2.739404
649.201782	1252.149414	9077.563477	1474.240234	2.838071
649.534912	1251.480835	9035.656250	1468.667603	2.790106
649.868103	1255.418701	8984.016602	1454.252930	2.572708
650.201172	1256.458984	8973.019531	1453.212524	2.549757
650.534180	1250.068970	8960.684570	1463.614868	2.769505
650.867188	1246.056641	8948.351563	1468.147461	2.883437
651.200134	1248.880127	8924.871094	1458.859741	2.735538
651.533020	1252.372437	8878.729492	1446.748413	2.548740
651.865845	1252.223633	8820.772461	1449.645996	2.608457
652.198608	1248.211426	8789.342773	1455.441772	2.748001
652.531433	1248.805786	8790.829102	1457.299316	2.764424
652.864136	1245.908081	8770.247070	1453.286987	2.756108
653.196777	1458.488159	8958.975586	1672.851440	2.857991
653.529358	1463.317749	8901.762695	1686.523071	3.000699
653.861938	1463.763550	8857.850586	1687.637695	3.027746
654.194519	1261.362915	8554.249023	1463.912231	2.777355
654.526978	1258.836548	8490.942383	1450.909302	2.655834
654.859375	1255.344360	8434.622070	1443.033203	2.614314
655.191833	1252.372192	8414.708008	1449.497437	2.752248
655.524170	1249.400269	8378.002930	1451.206421	2.830936
655.856445	1249.994507	8347.019531	1456.927734	2.915774
656.188660	1255.195801	8313.805664	1466.735718	2.996906
656.520874	1252.595215	8279.180664	1470.005005	3.094103
656.853088	1258.911011	8270.487305	1470.153687	3.012770
657.185181	1244.347656	8239.428711	1451.726563	2.964639
657.517212	1245.016357	8229.249023	1439.243652	2.780940
657.849243	1241.821411	8231.923828	1440.358276	2.840257
658.181274	1245.833862	8279.775391	1451.280640	2.920792
658.513123	1248.880249	8345.978516	1465.026733	3.045562
658.844971	1248.508667	8402.820313	1465.398071	3.031590
659.176819	1247.022461	8482.696289	1460.494141	2.950267
659.508667	1247.542603	8561.829102	1460.494263	2.911448
659.840393	1246.279419	8652.849609	1462.649048	2.921320
660.172058	1250.514771	8682.570313	1469.930664	2.952291
660.503662	1249.920288	8709.765625	1471.193970	2.966197
660.835266	1249.177368	8714.817383	1466.587280	2.912140
661.166931	1251.703613	8682.867188	1458.562500	2.783668
661.498413	1250.737671	8664.886719	1448.828735	2.671798
661.829773	1254.824341	8600.985352	1455.813110	2.735970
662.161194	1253.561157	8547.859375	1452.098022	2.721809
662.492615	1256.310425	8449.037109	1456.779175	2.787104
662.823975	1257.127808	8322.871094	1449.571777	2.723620
663.155212	1253.635498	8183.775879	1444.370483	2.752253
663.486450	1249.697510	8025.882813	1434.339478	2.724866
663.817627	1249.177368	7884.039063	1428.989868	2.710117
664.148743	1250.737671	7781.501465	1431.144531	2.762416
664.479858	1252.818237	7686.617188	1429.658569	2.748615
664.810913	1254.378662	7616.623535	1424.977539	2.681426
665.141907	1252.966919	7544.326660	1422.079712	2.688016
665.472778	1247.542725	7471.138184	1421.113892	2.788921
665.803711	1246.502441	7408.873047	1426.760742	2.925145
666.134583	1245.610840	7356.861328	1428.841309	2.998248
666.465454	1256.533325	7313.171387	1434.859863	2.944315
666.796143	1252.818359	7280.998047	1425.794922	2.869466
667.126831	1256.013306	7262.273438	1418.513306	2.705510
667.457458	1244.570679	7254.621094	1415.392578	2.842271
667.788147	1247.022583	7238.050781	1420.445190	2.894705
668.118774	1248.359985	7197.333496	1421.559692	2.911422
668.449219	1249.697388	7180.243652	1418.884766	2.852813
668.779663	1260.768555	7149.036621	1423.268555	2.759725
669.110107	1259.728271	7140.640137	1424.457397	2.801081
669.440552	1260.322754	7125.928223	1417.473022	2.679182
669.770874	1245.685181	7118.349121	1411.900391	2.830320
670.101135	1241.524170	7086.993652	1420.667969	3.064661
670.431396	1242.118530	7055.191895	1434.934204	3.316932
670.761597	1244.867798	7011.799316	1435.825806	3.311258
671.091797	1247.022583	6994.783691	1429.658569	3.177515
671.421875	1246.873901	6950.201660	1421.262329	3.057661
671.751892	1252.892456	6940.320313	1424.457397	3.016565
672.081909	1252.966797	6893.509277	1424.085938	3.033736
672.411865	1247.097046	6868.469238	1411.900269	2.931726
672.741821	1237.586182	6818.017090	1409.002563	3.071741
673.071716	1246.651245	6789.856934	1405.956055	2.873875
673.401550	1256.459106	6763.999512	1409.374023	2.776465
673.731262	1263.294922	6737.101563	1406.476196	2.615753
674.060974	1253.932739	6698.018066	1405.287476	2.780168
674.390625	1247.542603	6644.445801	1411.008789	3.028888
674.720276	1239.072144	6602.687500	1409.299805	3.173748
675.049927	1240.186646	6572.967285	1399.863281	2.994247
675.379395	1241.598511	6553.425781	1399.417358	2.971084
675.708923	1243.827515	6530.168457	1393.324585	2.827988
676.038330	1243.456055	6491.457031	1395.925171	2.905280
676.367737	1247.245483	6462.701660	1394.810547	2.829380
676.697083	1249.251709	6426.145020	1400.383423	2.919351
677.026428	1250.217651	6398.132813	1399.566040	2.901143
677.355652	1243.158813	6368.486328	1389.906738	2.863191
677.684875	1239.666504	6371.161621	1375.194702	2.641105
678.013977	1238.254883	6349.539063	1375.343262	2.682073
678.343079	1245.462280	6362.393066	1384.333984	2.713965
678.672180	1247.839966	6347.532715	1396.296753	2.911093
679.001221	1245.239258	6382.975098	1402.092407	3.052963
679.330139	1242.638794	6395.903809	1397.039673	2.996176
679.659058	1245.685181	6430.751953	1400.234863	2.980669
679.987976	1252.595337	6471.618652	1397.708496	2.780466
680.316772	1252.520874	6501.785156	1409.002563	2.981021
680.645630	1251.926636	6517.314453	1403.504272	2.878756
680.974304	1244.793457	6544.360840	1398.971680	2.909261
681.302979	1251.555054	6579.580078	1393.101563	2.656641
681.631653	1251.406372	6608.781250	1397.411255	2.725306
681.960266	1249.920410	6611.679688	1398.600098	2.772965
682.288757	1245.090698	6624.087402	1400.234741	2.884256
682.617249	1242.861694	6618.960938	1397.856934	2.883043
682.945679	1240.706909	6603.654297	1402.761108	3.021738
683.274109	1244.793457	6558.775391	1395.107788	2.828657
683.602478	1249.474609	6510.924316	1391.169800	2.693083
683.930725	1253.635498	6467.754395	1381.213257	2.446775
684.259033	1252.595337	6404.894531	1374.897583	2.373741
684.587280	1245.685181	6348.943848	1376.383789	2.561081
684.915344	1253.264038	6287.867676	1390.129517	2.718496
685.243469	1251.555054	6231.174316	1399.714722	2.975321
685.571533	1259.876831	6182.878418	1404.841431	2.944638
685.899536	1249.548828	6133.095215	1397.931519	3.038421
686.227539	1252.223755	6094.085938	1392.581665	2.898841
686.555420	1242.713013	6070.755371	1382.773804	2.900985
686.883301	1249.326050	6042.892090	1377.275269	2.669187
687.211121	1242.490112	6033.232422	1379.504272	2.859978
687.538940	1245.536499	6004.699707	1382.550781	2.878958
687.866638	1245.016235	5994.148438	1380.618774	2.855312
688.194336	1245.759399	5986.941406	1382.253540	2.878905
688.521973	1245.462158	5990.953613	1383.145142	2.901343
688.849609	1244.867798	6003.957031	1381.956421	2.880564
689.177063	1245.536499	5997.344238	1374.303101	2.709845
689.504578	1258.688110	5969.109375	1372.817017	2.422902
689.832031	1261.140137	5925.790527	1368.284546	2.296944
690.159485	1264.558105	5871.104004	1365.758301	2.196878
690.486816	1254.453003	5815.376953	1357.956421	2.269352
690.814087	1253.115356	5751.104980	1361.894531	2.418395
691.141296	1250.812012	5672.121094	1359.888306	2.467059
691.468506	1248.582886	5587.044434	1359.071167	2.546716
691.795715	1251.629395	5504.717285	1358.253784	2.506988
692.122803	1251.183716	5432.569336	1360.557251	2.615725
692.449829	1253.635620	5387.690430	1361.968872	2.620508
692.776855	1245.759521	5324.161621	1352.012207	2.605253
693.103821	1247.394165	5275.121582	1345.176392	2.427727
693.430664	1247.171265	5210.775879	1341.758423	2.386392
693.757568	1255.121582	5180.236816	1344.582031	2.279180
694.084351	1252.000854	5140.633789	1346.365356	2.426676
694.411133	1254.378418	5124.361816	1350.823364	2.492128
694.737854	1251.629272	5071.012207	1352.012329	2.628253
695.064575	1254.750122	5048.424316	1362.043335	2.828214
695.391174	1244.719238	5013.650391	1357.287964	2.986755
695.717773	1247.319702	5008.895020	1357.436401	2.927409
696.044250	1246.502441	5003.916992	1348.371460	2.711147
696.370789	1253.932617	5004.733887	1346.959595	2.480190
696.697205	1254.304199	5005.031250	1355.058716	2.686266
697.023621	1252.595215	5041.216797	1356.024536	2.729999
697.349915	1250.886353	5094.194824	1365.609741	2.985016
697.676208	1243.381714	5171.915527	1360.408569	2.978894
698.002380	1247.765747	5228.607910	1365.238159	2.950944
698.328674	1246.799683	5302.316895	1359.442627	2.777524
698.654724	1245.016479	5375.281738	1367.541626	2.966520
698.980896	1245.536499	5455.231934	1369.696289	2.949377
699.306946	1249.400269	5521.286621	1373.262817	2.899482
699.632935	1254.527222	5565.868652	1371.554077	2.714396
699.958862	1250.514893	5600.270996	1372.371216	2.801452
700.284729	1249.400391	5614.536621	1375.194824	2.881799
700.610596	1255.418823	5602.127441	1381.064819	2.890601
700.936340	1253.561157	5558.066406	1387.008911	3.100188
701.262146	1253.338257	5480.123047	1380.990356	3.020076
701.587830	1242.564331	5397.498047	1361.300293	2.857710
701.913513	1248.211426	5278.019531	1351.789429	2.570296
702.239075	1250.589111	5157.500488	1352.086548	2.597894
702.564697	1255.047241	5042.257324	1357.659424	2.709440
702.890137	1251.183472	4926.492676	1355.207397	2.830345
703.215698	1249.771851	4824.475586	1351.046387	2.833089
703.541016	1250.291748	4727.584961	1351.640747	2.914595
703.866455	1249.845947	4661.381348	1347.182617	2.853163
704.191711	1247.171143	4599.041504	1339.083618	2.742125
704.517029	1241.226929	4539.970703	1335.442871	2.856116
704.842163	1237.437500	4479.265625	1333.659546	2.968142
705.167419	1244.347656	4438.844727	1341.981323	3.056308
705.492493	1247.542603	4413.358887	1333.287964	2.708476
705.817566	1254.378540	4396.937988	1333.808105	2.527544
706.142578	1250.588989	4377.990723	1332.099121	2.606321
706.467590	1249.474609	4350.424316	1341.461304	2.966404
706.792480	1243.604614	4330.214355	1340.643921	3.143880
707.117371	1245.610840	4318.623047	1343.393188	3.181971
707.442200	1254.155640	4311.267090	1345.473755	2.987072
707.766907	1258.911133	4303.762207	1349.337402	2.969809
708.091675	1252.892578	4294.474609	1344.804932	3.021860
708.416321	1240.558228	4288.381348	1341.609863	3.315535
708.741028	1243.158813	4301.979004	1340.792603	3.191877
709.065552	1245.907959	4314.610840	1342.501587	3.147702
709.390137	1253.709839	4340.839355	1352.681030	3.205930
709.714600	1257.870728	4362.907227	1353.275391	3.072578
710.039063	1252.743774	4372.269531	1351.046387	3.151204
710.363403	1250.068848	4387.426758	1339.975220	2.865672
710.687744	1233.722412	4412.838379	1338.340576	3.290794
711.012085	1237.363281	4458.980469	1346.291016	3.381151
711.336304	1243.901855	4506.162598	1345.993774	3.129484
711.660461	1254.750000	4517.011230	1350.674805	2.940439
711.984619	1259.505371	4529.419922	1343.318848	2.563170
712.308716	1254.081421	4519.165527	1345.027832	2.785423
712.632751	1255.641724	4551.487305	1336.780273	2.461843
712.956726	1253.338257	4535.437988	1342.427368	2.714394
713.280701	1253.486816	4538.707520	1343.541870	2.741218
713.604553	1252.892456	4506.312012	1348.148560	2.927876
713.928467	1253.189819	4490.262207	1350.897827	3.018407
714.252258	1250.663452	4431.265625	1344.359009	2.945843
714.575989	1247.097046	4352.727051	1342.501465	3.071983
714.899719	1253.115356	4310.375000	1336.705933	2.734167
715.223267	1262.403198	4280.431152	1342.650146	2.658920
715.546936	1263.666382	4279.687988	1337.151733	2.436500
715.870422	1252.892456	4241.050293	1328.309692	2.523871
716.193970	1243.455933	4210.512207	1325.783569	2.774724
716.517395	1244.273315	4176.555664	1329.275757	2.898849
716.840820	1244.719238	4148.320313	1333.510864	3.057983
717.164124	1249.771729	4116.667969	1333.139526	2.907946
717.487488	1247.171265	4082.860107	1331.727661	2.981864
717.810730	1251.035034	4047.640625	1326.675171	2.704712
718.133972	1246.279541	4015.616455	1322.439941	2.750131
718.457092	1245.982300	3979.505127	1312.854858	2.446387
718.780212	1243.901855	3950.526611	1315.455444	2.643646
719.103210	1244.496216	3899.109375	1316.644165	2.717833
719.426208	1247.022583	3849.326904	1323.331421	2.932357
719.749207	1251.926514	3800.955811	1321.548096	2.731298
720.072083	1254.155640	3772.720703	1320.062134	2.616827
720.394958	1253.189697	3741.290283	1315.380981	2.499549
720.717773	1248.359985	3702.653076	1311.963013	2.591501
721.040527	1249.251709	3657.253906	1315.752563	2.761661
721.363281	1249.028809	3615.273193	1322.737061	3.114989
721.685913	1255.418823	3583.100342	1329.572876	3.185747
722.008545	1262.403198	3568.462891	1316.792847	2.358553
722.331055	1262.626099	3558.283203	1310.031250	2.064993
722.653503	1257.722168	3544.537109	1299.851807	1.842285
722.976013	1254.452759	3540.896240	1306.761963	2.287798
723.298401	1248.434448	3519.125244	1309.659790	2.696331
723.620789	1249.697632	3501.292969	1311.145874	2.729098
723.943115	1247.914185	3476.550049	1311.888794	2.870573
724.265381	1255.270142	3466.742188	1314.043579	2.657661
724.587585	1251.406372	3463.250000	1314.340820	2.845339
724.909790	1253.709839	3457.231445	1308.768188	2.498653
725.231873	1255.121582	3451.361328	1308.248047	2.418974
725.553894	1265.152344	3452.624268	1318.576050	2.442258
725.875916	1311.442993	3494.159424	1390.649780	3.628817
726.197937	1310.997192	3493.490967	1388.717773	3.561091
726.519775	1303.046753	3492.302002	1383.516602	3.675672
726.841675	1248.805786	3451.361328	1309.511108	2.756131
727.163513	1242.118652	3461.243408	1306.316162	2.892920
727.485291	1246.874023	3475.955811	1305.573120	2.633331
727.806946	1248.805786	3496.983398	1318.130249	3.083585
728.128662	1252.223755	3522.320313	1323.703003	3.148731
728.450256	1248.954468	3535.769531	1325.783325	3.359645
728.771790	1253.264038	3546.543213	1326.675171	3.201142
729.093323	1256.533325	3549.292236	1325.263306	2.997698
729.414795	1248.583008	3565.341797	1323.034302	3.213597
729.736145	1247.691284	3574.035156	1315.901245	2.932067
730.057495	1246.948242	3568.165283	1318.650391	3.088989
730.378845	1257.796387	3561.106445	1316.347046	2.542022
730.700134	1260.917236	3554.270508	1314.563599	2.339211
731.021301	1259.877075	3561.255127	1307.802124	2.082450
731.342468	1258.539551	3555.459717	1319.616333	2.659073
731.663574	1250.068970	3555.979736	1321.176636	3.083713
731.984680	1249.028687	3574.258057	1326.600708	3.336102
732.305664	1243.456055	3581.391357	1317.312988	3.159067
732.626648	1247.914185	3606.282471	1319.319092	3.027725
732.947571	1248.434204	3593.428467	1319.690674	3.038663
733.268433	1249.103027	3598.480469	1320.359375	3.032989
733.589233	1246.576782	3587.186523	1310.848511	2.745939
733.909973	1246.428223	3599.000732	1308.990967	2.659333
734.230713	1252.372437	3577.007080	1309.585449	2.461161
734.551331	1252.075195	3540.301758	1313.671997	2.691901
734.871948	1250.291870	3482.271484	1307.802246	2.576653
735.192505	1242.267212	3444.971436	1302.600952	2.739076
735.513062	1232.161987	3411.609375	1306.910522	3.429702
735.833435	1228.075317	3372.823486	1301.709351	3.433225
736.153931	1226.292114	3337.826904	1296.062256	3.304239
736.474304	1243.381714	3291.164795	1296.210938	2.579825
736.794617	1255.418823	3271.177002	1304.607178	2.440191
737.114807	1262.328979	3256.688232	1307.133423	2.246558
737.434998	1263.369141	3250.818359	1302.972534	1.992674
737.755188	1249.177246	3238.781250	1302.898193	2.700082
738.075256	1249.326050	3240.193115	1299.034546	2.496826
738.395325	1239.295044	3240.044678	1299.926147	3.030419
738.715271	1246.279541	3252.750244	1299.777466	2.666270
739.035278	1238.626343	3260.403564	1310.031372	3.531795
739.355164	1242.935913	3266.198975	1310.477051	3.338228
739.675049	1239.740967	3271.400146	1310.774292	3.496321
739.994873	1241.449829	3270.062744	1309.288208	3.344077
740.314636	1239.369385	3274.000977	1311.517212	3.545990
740.634277	1244.793457	3253.716064	1307.727905	3.132746
740.953979	1246.130859	3225.258545	1304.012817	2.924620
741.273499	1247.616821	3200.218018	1304.904419	2.933912
741.593140	1254.601440	3191.153076	1308.248169	2.770219
741.912598	1261.214355	3167.079102	1311.666016	2.647179
742.232117	1253.784058	3124.578125	1306.762085	2.831847
742.551453	1249.548828	3077.916016	1304.458618	3.003215
742.870850	1246.056519	3047.897461	1300.372070	3.014448
743.190063	1251.406372	3027.538330	1299.480347	2.706667
743.509338	1246.353882	2996.554688	1294.501953	2.751003
743.828552	1247.468384	2980.950928	1295.988159	2.798977
744.147705	1246.502563	2970.771484	1294.799194	2.800992
744.466797	1245.313599	2957.397217	1298.365845	3.098695
744.785828	1246.428101	2930.647705	1302.526733	3.330838
745.104858	1246.948242	2903.675781	1303.938354	3.439921
745.423706	1243.455933	2890.301514	1300.148926	3.442520
745.742615	1245.387817	2878.115967	1295.913696	3.094568
746.061401	1250.663452	2873.137451	1291.827148	2.537094
746.380249	1259.431030	2863.180908	1297.102661	2.348972
746.698975	1257.276245	2848.023438	1292.644409	2.223368
747.017639	1262.774780	2837.620850	1289.152222	1.674922
747.336304	1260.099731	2833.534180	1285.734253	1.629208
747.654907	1262.403198	2838.958252	1281.944824	1.239514
747.973389	1254.526978	2846.908936	1291.455688	2.319086
748.291931	1257.573608	2837.992432	1292.495850	2.209683
748.610352	1249.177368	2840.518799	1299.405884	3.156363
748.928711	1256.458984	2831.676758	1296.433960	2.537743
749.247070	1254.378540	2836.580811	1294.279053	2.521834
749.565308	1259.653931	2826.326904	1291.084106	2.006173
749.883545	1256.681885	2808.197266	1293.387573	2.365796
750.201782	1253.709839	2804.704834	1285.065552	2.021652
750.519836	1252.297974	2799.875244	1281.499023	1.886888
750.837952	1245.313599	2797.646240	1277.412354	2.067775
751.155884	1257.499146	2767.405029	1285.660034	1.865076
751.473877	1259.802612	2748.977783	1289.746704	2.010784
751.791809	1256.682007	2744.222412	1290.415405	2.267730
752.109619	1251.109253	2748.680420	1288.260620	2.480775
752.427490	1251.777954	2744.222412	1286.031616	2.295138
752.745300	1256.607666	2737.683594	1283.728149	1.831134
753.062988	1247.171143	2726.166748	1292.347168	3.054507
753.380615	1240.038086	2722.377197	1295.690796	3.754385
753.698303	1239.072266	2707.591064	1289.077881	3.405174
754.015808	1240.632446	2713.535400	1284.025391	2.946083
754.333374	1245.090698	2703.727539	1286.105835	2.811881
754.650757	1241.598511	2705.362061	1297.325562	3.807107
754.968262	1247.171265	2707.071045	1294.056152	3.211514
755.285583	1248.880127	2706.030762	1290.712646	2.870844
755.602905	1246.130981	2702.909912	1283.653809	2.575739
755.920105	1237.511719	2677.944336	1283.059448	3.162087
756.237305	1238.180420	2677.498291	1283.802368	3.169692
756.554443	1242.861450	2664.421387	1282.390625	2.780690
756.871582	1251.703735	2671.034180	1286.997437	2.486645
757.188599	1248.211548	2661.077881	1281.647583	2.366539
757.505615	1247.988525	2667.022217	1287.963257	2.817039
757.822510	1247.691284	2677.424316	1287.591919	2.790775
758.139465	1250.366211	2689.015381	1283.431030	2.298324
758.456238	1252.743774	2697.634521	1282.836426	2.082694
758.773010	1248.434326	2704.098877	1282.613647	2.348022
759.089783	1245.462280	2720.593994	1289.152222	2.961766
759.406433	1247.245483	2732.111084	1291.752808	2.997397
759.723145	1250.440552	2739.392578	1297.102661	3.133889
760.039673	1256.384644	2730.996826	1298.514282	2.856998
760.356201	1255.418823	2733.374268	1295.616577	2.719822
760.672668	1253.115356	2735.305908	1290.563965	2.526572
760.989136	1255.047241	2743.850830	1287.740479	2.195940
761.305481	1251.703735	2741.399170	1284.173950	2.179655
761.621826	1254.527222	2743.999268	1280.013062	1.711065
761.938049	1252.298096	2747.714600	1287.369019	2.345228
762.254333	1257.722168	2760.494873	1285.808594	1.868974
762.570496	1255.641724	2789.027100	1293.461792	2.466443
762.886597	1253.041138	2840.072998	1290.415405	2.354979
763.202637	1255.344360	2914.969971	1302.526733	2.842953
763.518677	1260.545532	3008.888672	1305.870361	2.592445
763.834656	1260.694214	3112.541016	1314.266479	2.892910
764.150574	1259.876831	3223.623779	1315.158203	2.815097
764.466370	1263.740723	3296.663330	1315.529663	2.547512
764.782288	1258.613770	3342.285156	1311.665894	2.546089
765.097961	1254.601440	3348.823486	1310.179810	2.653891
765.413696	1244.198975	3317.022217	1310.848511	3.215399
765.729309	1249.846069	3264.861572	1314.192261	3.193335
766.044861	1252.966797	3178.521729	1310.625610	2.994400
766.360474	1249.177368	3089.804443	1302.749634	2.910544
766.675903	1243.084473	2985.334717	1290.266724	2.708121
766.991394	1243.455933	2884.282959	1285.808594	2.581178
767.306763	1245.982422	2797.645752	1287.591797	2.681598
767.622131	1248.137085	2723.194824	1288.334839	2.725165
767.937378	1247.617065	2653.796143	1289.003540	2.943187
768.252625	1250.217529	2600.000977	1285.065552	2.581749
768.567810	1247.839966	2556.831055	1285.957153	2.911952
768.882996	1244.496216	2528.075928	1276.223511	2.471782
769.197998	1246.874023	2503.481689	1276.446411	2.353351
769.513062	1250.737671	2474.726318	1276.520874	2.106490
769.828064	1253.041016	2457.562256	1283.282349	2.510652
770.142944	1249.251587	2421.599854	1288.334839	3.333758
770.457825	1247.542603	2404.584717	1285.585571	3.287950
770.772705	1242.267212	2381.253662	1288.780640	4.083756
771.087402	1244.942139	2356.585205	1279.567139	3.114759
771.402100	1242.490112	2336.003174	1278.526978	3.295513
771.716736	1246.651001	2316.833252	1277.412476	2.874415
772.031372	1251.778076	2311.037598	1284.396851	3.079394
772.345947	1257.647949	2287.186279	1283.059326	2.468230
772.660461	1255.790405	2265.787354	1280.235840	2.420347
772.974854	1251.777954	2255.087646	1277.932495	2.606826
773.289246	1251.406372	2255.979248	1270.576538	1.908290
773.603638	1252.372192	2261.254639	1274.886230	2.231582
773.917908	1251.703613	2251.000732	1266.192627	1.449921
774.232178	1256.607666	2226.481201	1277.189453	2.122110
774.546265	1255.493042	2214.741211	1274.737427	2.006195
774.860474	1254.378540	2200.995117	1278.378296	2.535320
775.174561	1248.137085	2198.914795	1281.276123	3.485466
775.488586	1255.047241	2184.277100	1280.235962	2.710709
775.802551	1251.257690	2181.304932	1281.053223	3.203658
776.116516	1254.006958	2168.004883	1280.235840	2.869687
776.430359	1242.267212	2153.664307	1283.653809	4.541006
776.744202	1243.827515	2143.410400	1287.963257	4.906245
777.057922	1241.004028	2133.453857	1277.040894	4.037971
777.371704	1247.394165	2133.156738	1269.759155	2.524942
777.685303	1249.028687	2127.064209	1270.650757	2.462551
777.998962	1255.567383	2129.961670	1280.161499	2.812703
778.312500	1253.709839	2122.085693	1281.424683	3.191572
778.626038	1256.013184	2122.457275	1276.000610	2.306834
778.939453	1247.171143	2122.903076	1277.635376	3.478717
779.252869	1250.143188	2119.856689	1274.291748	2.776611
779.566223	1247.691284	2113.169189	1269.462036	2.515460
779.879578	1253.412598	2106.259277	1260.619995	0.845099
780.192749	1253.709839	2103.658691	1269.907837	1.905761
780.505920	1248.954468	2100.315186	1265.821167	1.981146
780.819031	1244.942017	2096.525635	1267.233032	2.617596
781.132141	1255.938843	2093.033447	1269.387817	1.606625
781.445190	1259.133911	2088.500732	1276.595093	2.105363
781.758118	1262.254517	2081.962158	1278.155396	1.939823
782.071045	1251.257813	2066.209961	1261.957397	1.312910
782.383911	1254.601563	2059.299805	1254.527100	-0.009254
782.696838	1249.771851	2051.052246	1250.514771	0.092717
783.009583	1257.350708	2050.978027	1251.629395	-0.720907
783.322266	1258.390869	2038.718140	1260.991455	0.333269
783.634888	1261.808716	2024.674805	1262.106079	0.038980
783.947510	1250.366089	2007.510864	1265.449585	1.992155
784.260132	1243.158691	2000.823730	1263.963623	2.745927
784.572571	1241.375488	1997.108765	1268.050293	3.529659
784.885010	1243.901733	1995.845337	1273.400146	3.922956
785.197449	1248.954468	1975.709351	1275.406250	3.639712
785.509766	1247.319824	1967.833374	1278.452759	4.320937
785.822083	1245.685181	1970.656860	1282.762207	5.114273
786.134277	1244.942139	1983.957031	1284.768433	5.389106
786.446533	1247.171265	1982.916626	1282.984985	4.867679
786.758606	1247.245605	1968.130493	1274.811890	3.823951
787.070740	1248.434448	1968.278931	1277.338135	4.015268
787.382690	1245.759399	1971.845703	1277.115112	4.318455
787.694641	1247.319702	1993.764771	1285.511353	5.116472
788.006653	1246.799683	2007.956665	1279.864380	4.344005
788.318481	1252.520874	2029.801758	1281.870483	3.775934
788.630310	1256.533325	2035.151733	1275.926270	2.490687
788.942017	1254.601440	2046.222656	1278.229736	2.984798
789.253784	1250.291870	2047.931641	1272.285522	2.757341
789.565430	1254.155640	2061.083008	1273.622925	2.412520
789.877014	1258.167969	2068.290283	1263.220581	0.623685
790.188538	1261.288696	2059.522705	1264.483765	0.400267
790.500061	1256.161743	2036.563110	1264.483765	1.066377
790.811462	1254.750122	2019.919434	1270.279419	2.029524
791.122925	1255.270142	1999.783569	1273.920166	2.504995
791.434204	1249.474487	1987.820679	1270.205078	2.807706
791.745483	1252.818237	1958.842407	1262.923340	1.431269
792.056702	1248.211304	1950.817871	1255.493164	1.036407
792.367920	1255.121460	1935.288696	1256.533325	0.207576
792.678955	1251.034912	1928.304199	1263.220581	1.799235
792.990112	1249.251587	1915.152710	1260.545654	1.696058
793.301086	1242.415894	1906.087524	1262.551758	3.034010
793.612122	1245.685059	1894.347656	1261.585938	2.451333
793.922974	1243.604614	1892.787476	1264.112183	3.158982
794.233826	1245.090698	1897.617188	1257.722046	1.935760
794.544556	1231.196045	1898.137329	1259.505371	4.244650
794.855286	1236.694458	1901.035156	1256.310303	2.952678
795.166016	1240.038086	1888.849487	1256.310425	2.508023
795.476624	1256.161743	1891.152954	1254.750122	-0.222306
795.787292	1260.619995	1897.097168	1257.127808	-0.548674
796.097778	1260.991577	1921.394043	1257.425049	-0.540054
796.408264	1255.715942	1933.951172	1254.675903	-0.153345
796.718689	1247.988647	1939.969727	1258.688110	1.546207
797.029053	1248.508667	1938.557983	1261.957520	1.948970
797.339355	1246.576782	1939.895508	1260.322754	1.982634
797.649658	1255.418823	1936.626099	1261.214355	0.850774
797.959839	1255.418823	1936.106079	1257.276367	0.272892
798.270020	1256.830566	1930.533325	1259.728394	0.430134
798.580078	1253.189575	1930.013306	1257.945068	0.702619
798.890137	1251.332153	1914.855469	1258.613770	1.097417
799.200195	1251.109131	1898.880371	1264.409302	2.053220
799.510071	1250.143188	1884.614136	1262.774780	1.990886
799.820007	1249.325806	1877.778320	1269.164795	3.156800
800.129883	1249.177368	1873.171509	1265.300903	2.583924
800.439575	1256.756226	1867.152954	1267.678711	1.789408
800.749329	1260.619995	1864.775391	1261.214355	0.098379
801.058960	1261.065796	1866.187134	1259.282593	-0.294685
801.368591	1250.663452	1857.493652	1264.929565	2.350923
801.678162	1246.428101	1843.896362	1263.889282	2.922529
801.987671	1249.103027	1829.333008	1270.725098	3.726465
802.297119	1256.236206	1825.543579	1269.610718	2.349260
802.606506	1248.508667	1825.543579	1269.833496	3.695587
802.915894	1248.137207	1828.144165	1269.090454	3.612586
803.225159	1242.341553	1823.834839	1265.226807	3.935601
803.534424	1251.257813	1819.525024	1266.861450	2.745828
803.843628	1246.279541	1818.336304	1258.836792	2.195106
804.152771	1250.737671	1809.271118	1252.966797	0.399103
804.461792	1249.177368	1800.057617	1267.232910	3.277580
804.770874	1252.000732	1801.395142	1265.821167	2.515576
805.079773	1251.109253	1815.884277	1277.858276	4.736227
805.388733	1253.189697	1834.757202	1263.294922	1.737584
805.697571	1257.276489	1840.255493	1259.282593	0.344112
806.006470	1250.068970	1843.747681	1257.796387	1.301616
806.315125	1250.886353	1840.255493	1257.573486	1.134626
806.623901	1242.861572	1834.905762	1266.935669	4.066267
806.932495	1243.901978	1830.076050	1257.127686	2.256277
807.241150	1242.564453	1823.091675	1260.545532	3.097371
807.549622	1240.112427	1815.884277	1258.242188	3.148775
807.858154	1247.468384	1809.345337	1262.849121	2.737385
808.166565	1245.982300	1812.689087	1258.985352	2.294494
808.474915	1260.545654	1814.695313	1254.750000	-1.045864
808.783264	1251.926514	1810.980103	1254.750000	0.505048
809.091492	1256.384644	1796.268188	1248.508545	-1.458851
809.399719	1242.787231	1783.562622	1258.390747	2.885397
809.707825	1252.966797	1775.909302	1261.362915	1.605553
810.015930	1254.081421	1776.132324	1270.056519	3.060065
810.323975	1256.756226	1770.559570	1261.288696	0.882141
810.632080	1250.366211	1765.581421	1266.638428	3.158334
810.939880	1242.861572	1756.962280	1269.907715	5.260865
811.247864	1243.084473	1761.420410	1269.833374	5.160534
811.555664	1247.096802	1754.881714	1257.350586	2.019316
811.863464	1250.440430	1745.742310	1256.979126	1.320144
812.171143	1253.115356	1744.627808	1261.140015	1.632646
812.478882	1255.641602	1736.083008	1266.712891	2.304399
812.786438	1259.208130	1734.671387	1268.198853	1.890939
813.094055	1258.613770	1722.114258	1261.214355	0.561075
813.401489	1250.737671	1722.337036	1260.694214	2.111229
813.708984	1246.502441	1724.194702	1255.641602	1.913190
814.016357	1252.297974	1714.238159	1271.616699	4.182084
814.323730	1250.663452	1721.594116	1279.344116	6.090209
814.630981	1253.635376	1724.789063	1282.910767	6.213554
814.938232	1249.697510	1728.578491	1273.028442	4.871969
815.245361	1253.264038	1727.686890	1268.867676	3.288973
815.552490	1253.932617	1724.640259	1265.152466	2.383613
815.859619	1253.189697	1728.132690	1264.780884	2.440543
816.166565	1260.545776	1721.073853	1258.539429	-0.435662
816.473572	1260.471436	1715.872925	1255.938843	-0.995296
816.780457	1256.384766	1716.838867	1263.146362	1.468463
817.087341	1249.623169	1714.238159	1270.427856	4.477834
817.394043	1249.177368	1722.857056	1273.845825	5.207835
817.700806	1251.035034	1730.213013	1269.684937	3.892062
818.007507	1249.846191	1747.302734	1267.010010	3.450315
818.314209	1245.759399	1753.841431	1267.975952	4.372631
818.620667	1246.056641	1756.813599	1264.929443	3.695065
818.927246	1245.016479	1757.185059	1262.551758	3.423732
819.233704	1243.307495	1775.463501	1265.821045	4.230629
819.540161	1244.199097	1806.224976	1260.248413	2.855619
819.846497	1245.759399	1844.565063	1262.551758	2.804309
820.152832	1253.784180	1871.239746	1256.310425	0.409138
820.458984	1254.601440	1910.694336	1262.923340	1.268403
820.765259	1255.715942	1963.300781	1262.031738	0.892585
821.071350	1246.502441	2046.073853	1266.712769	2.527645
821.377502	1240.632568	2175.955078	1267.975952	2.923418
821.683472	1238.775024	2388.014893	1273.771484	3.045183
821.989441	1239.666626	2734.117188	1295.765259	3.753797
822.295349	1244.124634	3183.351563	1322.439819	4.038475
822.601196	1243.530273	3715.061768	1350.452026	4.326134
822.907043	1244.421997	4212.519043	1361.523071	3.945325
823.212769	1248.582886	4589.679199	1370.959473	3.662768
823.518494	1249.177246	4752.030273	1368.730469	3.413024
823.824097	1253.041016	4707.745605	1361.225708	3.131518
824.129700	1244.347656	4516.193359	1349.114502	3.202072
824.435242	1247.839966	4263.192871	1335.962891	2.922475
824.740723	1244.719116	3975.046875	1322.514038	2.849289
825.046082	1251.257813	3684.746338	1307.207642	2.299161
825.351501	1249.251587	3358.631592	1303.566895	2.574942
825.656799	1251.555054	3056.516846	1295.244995	2.420547
825.962036	1255.195801	2796.085693	1296.210938	2.661783
826.267212	1258.613892	2628.458740	1286.403076	2.028637
826.572449	1262.551880	2552.298584	1287.963379	1.970271
826.877502	1257.127686	2555.344971	1282.316406	1.940255
827.182495	1260.694214	2630.464844	1294.501953	2.468131
827.487488	1252.075195	2733.299805	1302.452271	3.401042
827.792419	1253.412598	2821.274170	1316.644165	4.032981
828.097290	1250.886353	2862.809570	1314.415161	3.941181
828.402100	1254.081299	2853.521729	1311.443115	3.586368
828.706848	1254.006958	2794.896729	1302.601074	3.153640
829.011597	1246.502441	2682.031006	1298.514282	3.623184
829.316223	1244.942139	2548.508789	1287.220337	3.243271
829.620789	1252.372437	2417.438965	1283.356567	2.659430
829.925354	1256.458984	2306.727783	1272.954224	1.570573
830.229797	1253.115356	2193.044678	1275.406250	2.371550
830.534302	1243.530396	2086.048584	1267.753052	2.875031
830.838562	1244.496338	1987.374878	1264.483643	2.690521
831.142944	1248.880127	1916.787476	1262.180298	1.991320
831.447144	1252.818237	1853.630005	1266.044067	2.201327
831.751404	1251.257813	1823.166016	1267.381592	2.819295
832.055542	1252.075195	1796.491211	1268.496094	3.016241
832.359619	1248.731567	1792.033081	1266.712769	3.309617
832.663635	1248.954468	1794.930786	1269.016235	3.674476
832.967651	1243.901855	1817.890259	1267.530151	4.116511
833.271545	1245.982422	1860.094238	1272.582764	4.331514
833.575439	1246.130981	1928.527222	1274.143066	4.104959
833.879211	1248.583008	2017.393188	1273.920288	3.295648
834.183044	1246.353882	2106.407959	1274.886108	3.317492
834.486694	1244.570557	2175.137939	1271.913940	2.938356
834.790344	1252.892456	2224.994873	1276.372192	2.415356
835.093933	1260.025513	2238.443604	1273.771484	1.404918
835.397522	1262.105957	2214.889648	1278.675659	1.739083
835.700928	1255.270142	2152.401123	1269.684937	1.606766
836.004395	1253.858521	2099.423584	1275.257690	2.530754
836.307739	1246.948242	2043.250610	1274.514526	3.461786
836.611023	1244.273315	1986.631836	1281.053223	4.954467
836.914307	1238.329102	1922.211426	1273.771484	5.182527
837.217529	1245.536499	1853.778687	1269.016235	3.860261
837.520691	1254.081299	1792.404663	1268.198853	2.622504
837.823730	1255.121582	1734.374023	1267.084351	2.496131
838.126831	1250.663452	1701.681030	1270.353638	4.365725
838.429749	1246.205200	1680.876099	1266.118286	4.581187
838.732727	1245.313599	1660.368652	1257.202026	2.864301
839.035522	1247.691284	1629.310059	1251.183472	0.915098
839.338379	1254.006958	1612.294800	1251.035034	-0.829479
839.641113	1251.332153	1618.090332	1264.706665	3.646684
839.943848	1255.270264	1641.718628	1267.604370	3.191657
840.246460	1246.948242	1659.105469	1273.548706	6.453960
840.549072	1253.338379	1675.377808	1266.935669	3.221806
840.851563	1251.480713	1686.523071	1269.610474	4.167355
841.154053	1254.229980	1690.163940	1264.112183	2.266903
841.456482	1247.022583	1677.903931	1269.313354	5.173297
841.758850	1247.616943	1670.771118	1260.545532	3.055290
842.061157	1241.524048	1656.653442	1263.072021	5.190664
842.363403	1241.152710	1649.446167	1257.647949	4.040045
842.665588	1231.196045	1625.892212	1255.344604	6.118266
842.967712	1240.409546	1608.208130	1251.926636	3.131358
843.269775	1248.359985	1583.242310	1250.514771	0.643445
843.571777	1255.715942	1570.165039	1256.830566	0.354469
843.873840	1250.886353	1555.081665	1259.579712	2.857822
844.175659	1252.446655	1537.249023	1258.465210	2.113239
844.477600	1254.452881	1526.252319	1252.075195	-0.874794
844.779297	1259.579712	1515.998413	1248.137085	-4.462478
845.081116	1252.297974	1515.032593	1246.799683	-2.092717
845.382751	1254.452759	1505.224609	1252.223755	-0.888857
845.684387	1250.217651	1501.435059	1250.589233	0.147913
845.985962	1252.595215	1491.775757	1245.090820	-3.137544
846.287537	1253.115356	1493.336304	1250.737793	-0.989740
846.588989	1254.155640	1486.203125	1249.177368	-2.145368
846.890381	1251.257935	1481.521973	1254.601440	1.452031
847.191711	1249.623169	1471.045288	1246.576782	-1.375828
847.493042	1249.177368	1474.091675	1248.211304	-0.429526
847.794250	1249.920288	1478.549805	1255.195801	2.307450
848.095459	1254.229980	1478.252563	1260.025635	2.587085
848.396606	1254.378540	1469.484985	1258.539673	1.934453
848.697693	1263.443481	1468.518921	1255.121582	-4.057970
848.998657	1259.876953	1469.262085	1261.437378	0.745241
849.299622	1266.712769	1465.695435	1270.279297	1.792381
849.600464	1256.756226	1455.590210	1262.031738	2.653225
849.901367	1256.979248	1449.571777	1249.697388	-3.780967
850.202087	1248.360107	1449.869019	1239.518066	-4.387916
850.502808	1250.143188	1450.017578	1244.199097	-2.973914
850.803467	1246.651001	1453.138306	1248.657349	0.971657
851.104065	1249.028687	1459.602661	1250.143188	0.529269
851.404663	1251.703613	1464.878052	1254.304199	1.219933
851.705139	1250.217651	1456.036133	1247.245483	-1.444072
852.005615	1244.124878	1449.943237	1252.595337	4.115502
852.306030	1241.449829	1441.175659	1250.663452	4.613135
852.606384	1239.666626	1443.627563	1253.412476	6.739452
852.906616	1240.261108	1442.067383	1252.372192	6.001342
853.206909	1244.496216	1446.451172	1244.050415	-0.220743
853.506958	1248.359985	1445.336548	1244.719116	-1.848377
853.807129	1253.561157	1450.166138	1242.415894	-5.668861
854.107178	1254.304199	1444.147827	1256.013306	0.900271
854.407166	1252.892456	1444.816406	1262.923462	5.226552
854.707092	1258.167969	1446.822632	1263.294922	2.717639
855.007019	1257.945068	1453.063965	1257.424927	-0.266577
855.306763	1264.037964	1443.776001	1253.338257	-5.952945
855.606567	1251.629272	1432.407837	1252.669556	0.575446
855.906250	1250.291870	1427.801147	1256.830566	3.683580
856.205933	1245.759399	1438.649292	1257.499268	6.086306
856.505493	1248.657349	1448.605835	1260.545654	5.945684
856.805054	1240.409668	1442.290039	1258.465210	8.943684
857.104492	1239.518066	1436.494507	1258.688110	9.732151
857.403931	1238.254883	1426.760742	1258.242310	10.603080
857.703308	1238.254883	1439.243652	1255.790161	8.724506
858.002563	1240.484009	1444.667603	1252.149414	5.713194
858.301819	1248.137085	1446.525391	1255.047241	3.483147
858.601013	1258.539429	1443.776001	1258.613770	0.040133
858.900208	1256.607544	1437.980469	1261.808716	2.867667
859.199219	1257.647827	1439.169312	1260.619995	1.637364
859.498291	1244.570679	1439.317871	1258.390869	7.096478
859.797302	1247.765747	1445.187866	1258.316528	5.344275
860.096191	1242.118652	1438.352173	1263.071899	10.677711
860.395020	1249.251587	1430.030151	1261.363159	6.699673
860.693787	1247.319824	1424.160278	1259.059692	6.638678
860.992554	1247.765625	1427.875366	1249.697388	1.072548
861.291260	1246.948242	1433.819702	1244.496216	-1.312146
861.589844	1248.062866	1435.900024	1249.548828	0.791090
861.888428	1246.874023	1436.643188	1248.285767	0.743927
862.186890	1252.075195	1429.658691	1253.486938	0.794974
862.485413	1247.914185	1427.206665	1249.474609	0.870324
862.783813	1249.474487	1420.667969	1246.799683	-1.562445
863.082153	1244.273315	1428.841309	1241.226929	-1.650550
863.380371	1245.759399	1432.705078	1239.517944	-3.338646
863.678589	1247.839844	1439.986694	1248.954468	0.580090
863.976746	1254.378540	1432.259277	1253.784058	-0.334203
864.274902	1252.446655	1428.618530	1260.768677	4.723808
864.572937	1252.149414	1419.702148	1258.465210	3.769438
864.870911	1244.867798	1425.720703	1264.112305	10.640972
865.168884	1242.267212	1416.804199	1256.087524	7.918272
865.466736	1240.038208	1431.070435	1254.527100	7.584527
865.764587	1241.226929	1427.503906	1252.966797	6.302372
866.062317	1244.570679	1441.398438	1248.805786	2.151682
866.360107	1242.192871	1433.150879	1245.165039	1.556451
866.657715	1241.895630	1424.977539	1241.747070	-0.081144
866.955322	1241.895630	1413.832153	1252.075195	5.920537
867.252808	1247.394165	1412.048950	1256.607544	5.595573
867.550293	1249.920410	1420.222290	1253.041138	1.832468
867.847717	1254.081299	1424.457520	1248.657227	-3.183585
868.145081	1248.954468	1434.414063	1252.892456	2.123367
868.442383	1245.462158	1432.407837	1257.127808	6.240128
868.739624	1247.096802	1434.711304	1250.589111	1.861428
869.036804	1247.245605	1421.113892	1245.833618	-0.812102
869.333984	1254.229980	1423.194336	1251.257813	-1.759050
869.631042	1246.279541	1416.581421	1253.412598	4.188478
869.928101	1248.954346	1421.188110	1249.251587	0.172580
870.224976	1247.022461	1418.215942	1243.827637	-1.866207
870.521851	1248.954468	1432.705078	1252.892456	2.143116
870.818726	1239.517944	1433.671021	1260.174194	10.639156
871.115479	1238.700684	1439.169556	1266.787109	14.010367
871.412231	1246.725342	1431.293335	1261.362915	7.930721
871.708862	1257.647827	1433.002319	1255.493042	-1.228817
872.005493	1250.960571	1427.652466	1253.412720	1.387810
872.302063	1239.443726	1430.550171	1249.177490	5.093373
872.598572	1239.517944	1431.590454	1254.452881	7.775676
872.895020	1239.963745	1440.432617	1253.412598	6.708699
873.191406	1245.239258	1437.980469	1259.431152	7.363186
873.487671	1241.152588	1442.884644	1257.945190	8.324211
873.783997	1243.381714	1446.525391	1256.682007	6.547235
874.080200	1243.233032	1454.327148	1255.195923	5.667089
874.376343	1247.839966	1453.732788	1250.589111	1.335231
874.672424	1246.874023	1453.286987	1250.589233	1.799892
874.968445	1255.418823	1453.212524	1250.960693	-2.253929
875.264465	1258.316528	1452.320923	1253.858398	-2.297953
875.560364	1261.883179	1448.382935	1249.400269	-6.693258
875.856201	1255.344360	1447.714355	1247.691406	-3.978247
876.152039	1249.994507	1448.160156	1248.880127	-0.562348
876.447754	1249.623169	1445.782349	1255.121460	2.802974
876.743469	1252.372314	1445.113647	1261.140015	4.548946
877.039063	1248.731445	1446.302612	1253.561157	2.444543
877.334595	1248.062866	1445.262329	1248.359985	0.150669
877.630127	1245.164917	1446.302368	1243.381714	-0.886559
877.925537	1249.920288	1445.113647	1248.805786	-0.570973
878.221008	1247.022583	1453.212524	1252.223633	2.522456
878.516296	1247.542603	1452.246704	1249.697388	1.052634
878.811646	1244.719116	1463.391968	1253.784058	4.145435
879.106812	1253.189819	1472.754272	1254.824341	0.744438
879.401978	1245.833618	1486.425781	1249.697388	1.605942
879.697083	1249.400269	1500.171875	1254.898560	2.192549
879.992126	1249.920288	1517.410156	1254.155640	1.583369
880.287109	1252.892578	1547.279785	1266.489868	4.618845
880.582031	1251.555176	1596.319702	1265.003906	3.900845
880.876892	1249.548950	1696.851196	1264.037842	3.239172
881.171753	1246.502563	1865.443970	1267.158447	3.337292
881.466492	1246.279541	2104.475830	1270.947876	2.874440
881.761230	1237.511841	2368.324951	1284.991211	4.198693
882.055786	1241.895630	2630.241943	1298.662964	4.088845
882.350403	1236.545898	2832.494141	1302.675293	4.143580
882.644958	1234.093872	2941.570313	1306.910522	4.264577
882.939453	1238.923584	2960.443359	1294.650513	3.237077
883.233826	1243.010254	2910.957764	1289.746582	2.802026
883.528137	1249.623047	2845.199463	1282.687866	2.072280
883.822449	1248.805786	2756.333740	1284.768433	2.385538
884.116577	1253.263916	2648.520508	1285.808594	2.332523
884.410828	1256.904785	2509.722900	1276.223511	1.542022
884.704956	1248.657104	2343.804932	1269.610474	1.913291
884.999023	1246.651001	2170.382324	1268.867554	2.405088
885.292969	1248.359985	2013.603882	1275.109009	3.495490
885.586914	1256.310303	1884.762817	1276.297729	3.180420
885.880798	1256.235962	1794.187866	1263.294800	1.312169
886.174622	1251.480713	1726.052246	1256.013184	0.955066
886.468384	1249.846069	1678.498413	1249.623169	-0.052000
886.762085	1245.387939	1639.638062	1256.458984	2.808127
887.055664	1241.375610	1606.424805	1255.195801	3.785843
887.349304	1236.025757	1582.425171	1259.059570	6.649496
887.642822	1238.477783	1552.555298	1252.966797	4.613197
887.936340	1240.558228	1536.877563	1254.006958	4.538594
888.229736	1253.412598	1520.679565	1247.319702	-2.279704
888.523071	1255.047241	1512.952026	1250.440430	-1.786245
888.816284	1263.963745	1508.419556	1252.818237	-4.559314
889.109619	1254.081421	1496.531128	1253.486938	-0.245198
889.402710	1255.715942	1490.438354	1250.886353	-2.057575
889.695862	1248.731567	1474.166016	1242.787476	-2.636727
889.988892	1245.090698	1469.856445	1244.421997	-0.297510
890.281921	1234.242554	1466.289917	1247.171143	5.571530
>>>>>End Processed Spectral Data<<<<<
