Jaz Data File
++++++++++++++++++++++++++++++++++++
Date: Fri Jun 04 14:22:51 2021
User: jaz
Dark Spectrum Present: Yes
Reference Spectrum Present: Yes
Processed Spectrum Present: Yes
Spectrometers: JAZA3586
Integration Time (usec): 40000 (JAZA3586)
Spectra Averaged: 10 (JAZA3586)
Boxcar Smoothing: 1 (JAZA3586)
Correct for Electrical Dark: No (JAZA3586)
Strobe/Lamp Enabled: Yes (JAZA3586)
Correct for Detector Non-linearity: No (JAZA3586)
Correct for Stray Light: No (JAZA3586)
Number of Pixels in Processed Spectrum: 2048
>>>>>Begin Processed Spectral Data<<<<<
W	D	R	S	P
191.335022	0.000000	0.000000	0.000000	0.000000
191.713211	254.189621	258.499176	251.217484	-68.966225
192.091385	508.230621	516.626831	504.664063	-42.478203
192.469528	772.674011	771.187988	761.528564	750.018494
192.847641	780.624451	773.416992	769.553284	153.607086
193.225739	795.039124	782.630554	783.745117	91.017799
193.603790	801.949280	798.754211	797.416809	141.858337
193.981842	807.819153	804.549988	810.716980	-88.641197
194.359863	808.413574	812.797546	814.654968	142.368469
194.737854	806.258789	820.896484	815.323730	61.928749
195.115829	811.162781	827.509460	815.398010	25.908806
195.493774	812.871765	818.444519	811.237122	-29.332779
195.871704	817.181335	813.614807	809.008057	229.166245
196.249603	820.153381	815.992493	807.521973	303.574768
196.627457	824.983093	823.794250	813.911926	931.255798
197.005310	818.815979	818.593079	818.221619	266.648407
197.383133	816.735535	817.850098	817.107117	33.338810
197.760910	822.456848	816.438293	811.905823	175.308289
198.138687	826.989258	822.902649	803.509705	574.548584
198.516449	818.518799	814.060608	802.023621	369.997131
198.894180	807.596252	813.763428	803.881165	-60.239700
199.271866	813.614807	808.562195	803.286682	204.411591
199.649536	817.032715	814.357727	805.218567	441.652405
200.027191	817.404236	811.608582	808.487854	153.845993
200.404816	811.534363	816.958435	814.060608	46.574696
200.782410	810.419861	827.806641	814.283508	22.221754
201.159988	807.819275	844.153259	803.138184	-12.883507
201.537537	806.630371	848.760010	808.339294	4.056345
201.915070	810.865540	847.496887	808.264954	-7.099346
202.292557	810.568420	843.112976	811.311340	2.282778
202.670029	807.596191	847.050964	802.840820	-12.052714
203.047485	800.537415	843.930237	798.828552	-3.938122
203.424911	802.172180	836.722961	799.051453	-9.032292
203.802292	804.772766	831.670410	797.714050	-26.242878
204.179688	805.441406	834.716797	797.119568	-28.426054
204.557037	805.218506	839.100586	797.119568	-23.903309
204.934357	798.754211	847.794006	796.525146	-4.545421
205.311661	803.509583	841.924133	794.667542	-23.017427
205.688934	802.395081	844.524719	792.810059	-22.751257
206.066177	807.967773	831.596008	795.262024	-53.773586
206.443390	800.314636	834.493835	795.484924	-14.130559
206.820587	793.998840	842.518555	800.240417	12.864002
207.197769	793.107239	846.159424	794.816223	3.221327
207.574921	797.714050	843.484436	791.249695	-14.123446
207.952042	804.326965	831.447449	782.407715	-80.821754
208.329147	802.097961	832.116150	789.169189	-43.069794
208.706223	808.116516	848.388428	805.590149	-6.273273
209.083267	798.011230	843.038757	810.939941	28.712904
209.460297	794.964844	843.187317	803.212402	17.103144
209.837280	780.624329	834.791016	796.302246	28.943836
210.214264	779.584167	848.685730	790.952454	16.451561
210.591217	777.503662	850.543274	791.101074	18.616489
210.968124	777.577942	847.422546	787.014404	13.510653
211.345016	786.419983	840.586731	791.844055	10.013657
211.721893	785.379700	841.181152	795.113464	17.443569
212.098724	797.193909	851.211975	789.243469	-14.718112
212.475555	795.930725	853.292480	793.330139	-4.533658
212.852356	800.240295	847.571106	796.376648	-8.163071
213.229126	792.438538	840.809570	801.132019	17.972494
213.605865	793.478760	844.153137	797.342468	7.624580
213.982590	793.032959	851.657776	795.336365	3.929063
214.359283	793.701660	847.496826	797.936951	7.872994
214.735931	791.844055	837.242981	793.404480	3.437140
215.112579	788.946289	830.778748	795.484863	15.630384
215.489197	784.711121	830.481506	796.079346	24.837513
215.865799	783.819397	833.082092	800.166016	33.182549
216.242355	790.432373	835.979919	796.153625	12.561055
216.618896	796.450867	840.586731	791.323975	-11.616158
216.995407	792.810059	842.444336	787.162903	-11.377532
217.371902	790.729553	842.370056	791.844055	2.158193
217.748367	795.113464	843.484558	791.621155	-7.219828
218.124802	799.868713	843.335938	794.964844	-11.281764
218.501236	800.463196	849.205872	790.135071	-21.189081
218.877609	794.147461	847.571106	789.392090	-8.901248
219.253983	792.884277	853.886902	784.265137	-14.129130
219.630295	790.358093	855.224304	788.351868	-3.092867
220.006592	796.970947	859.979675	789.837891	-11.320744
220.382889	796.822449	855.224304	793.553040	-5.598125
220.759140	797.862610	848.239807	784.933899	-25.663815
221.135391	791.101074	843.112976	783.224915	-15.142995
221.511581	789.689270	848.537109	784.933899	-8.080791
221.887772	783.224915	852.475098	789.689270	9.334785
222.263931	780.401550	861.168518	793.255859	15.915305
222.640060	781.441711	861.614441	792.289978	13.531118
223.016159	783.150696	864.215027	789.689270	8.065907
223.392212	780.178528	858.642273	787.980286	9.943137
223.768265	773.862854	863.100403	779.807129	6.661181
224.144302	776.389160	862.134460	782.036133	6.585752
224.520294	784.933899	861.391418	784.562439	-0.485838
224.896286	794.593323	863.174744	796.748047	3.141848
225.272217	799.274414	869.638977	803.955505	6.652626
225.648148	803.361023	874.691589	801.800598	-2.187596
226.024048	798.902832	879.447021	802.617981	4.612560
226.399902	792.289856	886.208496	797.491150	5.538085
226.775772	786.791504	895.199158	800.091614	12.268608
227.151581	784.933899	897.279602	795.187683	9.126993
227.527374	786.568665	909.613831	799.571533	10.567557
227.903137	788.797668	932.647705	796.896667	5.630168
228.278870	790.283691	952.486511	798.531311	5.084757
228.654572	791.101074	975.891907	796.525146	2.935250
229.030273	794.518982	997.439697	796.525146	0.988645
229.405930	796.228027	1022.925598	798.159851	0.852159
229.781555	795.113464	1032.361938	801.354797	2.630716
230.157181	788.277588	1032.510620	805.144287	6.905986
230.532761	787.385925	1028.869751	799.497253	5.015378
230.908325	795.187683	1018.095886	796.822449	0.733381
231.283859	798.457031	1006.876160	792.810059	-2.709431
231.659332	802.023621	993.798828	791.769775	-5.346805
232.034821	798.902832	981.687500	788.797668	-5.528452
232.410263	799.571533	970.393555	785.974182	-7.959952
232.785690	791.918457	961.328613	792.661438	0.438569
233.161087	788.500488	956.350281	791.175354	1.593607
233.536469	780.698730	952.709473	798.085510	10.107962
233.911804	781.664734	962.517395	800.017395	10.147852
234.287140	785.156921	978.195313	799.794495	7.582726
234.662430	790.209473	987.631836	792.810059	1.317270
235.037704	793.478760	994.393372	789.837952	-1.812117
235.412933	790.283752	994.541992	786.642883	-1.782483
235.788162	789.837891	1000.634766	781.664612	-3.877325
236.163345	785.602722	998.925781	772.674011	-6.060625
236.538513	790.506653	998.331360	777.355164	-6.328165
236.913635	783.670837	1002.566650	790.655273	3.190758
237.288742	792.661438	1010.442688	801.206238	3.923570
237.663834	789.912292	1017.872986	793.998840	1.792655
238.038879	792.661438	1014.157776	788.054688	-2.079831
238.413910	793.478760	1016.981262	783.968079	-4.255291
238.788910	794.147461	1023.891418	791.621277	-1.099565
239.163879	799.200134	1040.758179	797.639648	-0.646009
239.538834	796.005066	1051.383423	800.240295	1.658414
239.913757	801.057617	1072.782715	800.611816	-0.164063
240.288651	797.416809	1088.534790	802.395081	1.710053
240.663528	789.912292	1113.946411	804.178406	4.402658
241.038361	790.209473	1148.348511	799.423035	2.572622
241.413177	795.336365	1202.886719	798.159851	0.692795
241.787979	801.354797	1269.833618	802.246399	0.190318
242.162735	793.998840	1326.898071	808.264954	2.677075
242.537476	785.379700	1375.269165	812.574524	4.610156
242.912170	787.831787	1403.578491	819.633301	5.164707
243.286865	792.958679	1411.008789	824.017273	5.025255
243.661514	802.840881	1390.055298	819.633362	2.859685
244.036148	804.401306	1359.145386	813.168945	1.580484
244.410751	797.565430	1324.594604	816.809814	3.651484
244.785339	795.113464	1318.947632	813.689148	3.546100
245.159882	790.655273	1326.526489	811.385742	3.868554
245.534378	794.964844	1368.135864	808.116394	2.294525
245.908890	794.370422	1433.522461	812.648926	2.859805
246.283356	796.228027	1546.685547	811.162842	1.990095
246.657791	790.655273	1671.439819	813.317627	2.572973
247.032196	780.104309	1786.460327	812.648865	3.233901
247.406586	780.847351	1854.224487	816.289734	3.301950
247.780960	786.494324	1884.762817	809.973938	2.137876
248.155289	789.094910	1863.214844	813.912048	2.310463
248.529602	787.683167	1786.088867	813.986328	2.634516
248.903870	785.528320	1686.968872	821.045105	3.940003
249.278122	793.998840	1594.536499	814.060547	2.506029
249.652344	793.701660	1526.772339	811.905762	2.483267
250.026550	791.101074	1469.856445	811.534363	3.010406
250.400711	790.283691	1430.253052	813.614807	3.645661
250.774857	797.193848	1416.730103	818.370117	3.418084
251.148987	800.314636	1439.466797	815.026550	2.301786
251.523071	794.741882	1464.952515	814.654968	2.971168
251.897125	790.506653	1506.859009	813.317566	3.184315
252.271164	788.203308	1516.890015	813.020325	3.405718
252.645187	787.831726	1535.242798	808.859375	2.813398
253.019165	788.054626	1518.821899	803.955383	2.175899
253.393112	793.181458	1501.286499	812.648743	2.749209
253.767044	796.376526	1464.803833	820.227722	3.568256
254.140930	793.998840	1436.642944	818.295837	3.780786
254.514801	794.741882	1418.215820	810.419739	2.514597
254.888657	799.125793	1410.191406	801.800598	0.437728
255.262466	803.435303	1402.538086	805.887390	0.409293
255.636276	802.469421	1404.767212	811.311340	1.468031
256.010010	797.193848	1419.033325	818.370117	3.405424
256.383759	794.296082	1455.664673	824.091492	4.505114
256.757446	788.649109	1505.967651	822.902649	4.775220
257.131134	792.661438	1556.642090	822.976990	3.968105
257.504791	787.014404	1627.898438	820.079163	3.932142
257.878418	789.540710	1710.820190	807.596375	1.959846
258.252014	783.522217	1819.747681	813.094727	2.853868
258.625580	782.259033	1943.164673	810.791260	2.457756
258.999115	776.760559	2099.274658	825.280273	3.668748
259.372650	779.361267	2286.368896	830.704346	3.406955
259.746124	777.800842	2457.859619	846.753723	4.104195
260.119598	786.345703	2567.307617	852.549316	3.717295
260.493042	785.751282	2581.499756	857.899170	4.017705
260.866425	802.840881	2511.208984	847.571106	2.618301
261.239838	804.178406	2382.145264	843.781738	2.509770
261.613159	808.190735	2232.276855	837.466003	2.055723
261.986511	803.063782	2116.364502	830.927429	2.121650
262.359802	800.686218	2029.355957	828.326660	2.249624
262.733063	801.503479	1969.319336	819.410339	1.533363
263.106293	797.491150	1930.904907	824.240051	2.360030
263.479523	793.330139	1908.316772	819.261780	2.325736
263.852692	798.011230	1913.666504	822.011047	2.151186
264.225861	795.187744	1891.970093	827.806641	2.974054
264.598969	795.410645	1888.775024	831.967590	3.343528
264.972076	795.187744	1894.645020	836.425781	3.750763
265.345154	792.958679	1943.387695	831.521790	3.352064
265.718201	794.147461	1994.285034	828.401062	2.854140
266.091217	788.649109	2052.241211	827.360840	3.063626
266.464203	795.410645	2117.627686	832.562012	2.809778
266.837158	802.320740	2175.137939	831.744629	2.143322
267.210114	802.989502	2221.131348	829.812805	1.891440
267.583038	796.971008	2232.648193	828.326660	2.184032
267.955902	789.689270	2247.731689	833.676453	3.016866
268.328766	793.255859	2259.322998	836.054199	2.919262
268.701569	793.701660	2281.910645	831.075867	2.511355
269.074371	788.500488	2299.891846	831.373108	2.836632
269.447144	785.082581	2326.121094	832.933533	3.105111
269.819885	782.556335	2375.606689	843.855957	3.847940
270.192596	780.921631	2488.472656	843.484436	3.663891
270.565277	776.017578	2635.814697	850.097473	3.983225
270.937927	781.367371	2794.897217	850.766113	3.446621
271.310577	784.339539	2921.508789	865.106628	3.779162
271.683136	787.014465	3005.322266	867.038513	3.607436
272.055725	781.738953	3035.117432	867.038391	3.785402
272.428284	786.568604	3011.043701	861.688660	3.376979
272.800812	789.094910	2948.703369	862.803223	3.413041
273.173279	797.639709	2868.828125	859.013733	2.963227
273.545776	805.590088	2817.781982	862.505920	2.828549
273.918152	803.361023	2766.810547	865.700989	3.175023
274.290558	804.029724	2730.699219	866.072510	3.220209
274.662964	791.101074	2703.207275	860.871338	3.648870
275.035278	793.850281	2721.634521	851.434875	2.987087
275.407593	792.884338	2763.763916	856.933289	3.249765
275.779907	792.809998	2820.605469	856.190247	3.125574
276.152161	782.184753	2866.822021	855.818665	3.532217
276.524384	773.268372	2917.942139	857.230469	3.914912
276.896606	775.348877	2942.164795	854.332703	3.645156
277.268799	779.658386	2960.814697	856.859070	3.539438
277.640930	787.534485	2968.170898	851.806396	2.947392
278.013031	791.026672	2972.331787	863.397644	3.317783
278.385162	798.605652	2976.343994	866.815491	3.132141
278.757233	791.621155	2979.836182	873.279968	3.731755
279.129272	793.255859	3000.938232	873.502747	3.634893
279.501282	787.311584	3041.135986	873.131287	3.807737
279.873230	786.791504	3120.120117	870.753601	3.598383
280.245178	786.048523	3222.509033	870.530762	3.467417
280.617126	790.358093	3351.647217	873.428467	3.243303
280.988983	794.073181	3467.410889	876.251953	3.074014
281.360870	800.166016	3585.700928	873.205566	2.622102
281.732697	798.902832	3684.077393	881.750427	2.871493
282.104492	803.881165	3740.324463	890.963867	2.965584
282.476288	792.735779	3760.534912	894.158875	3.417452
282.848053	788.054688	3738.466797	884.648193	3.273899
283.219757	783.670715	3739.804443	877.366516	3.169538
283.591461	786.865906	3716.993408	883.087891	3.283884
283.963135	792.512878	3734.380615	883.533691	3.093981
284.334747	793.032959	3773.835205	887.248840	3.160756
284.706360	793.701660	3871.617432	883.905273	2.930672
285.077942	791.992676	3994.514404	896.462341	3.262106
285.449524	804.326904	4092.445313	902.852356	2.996408
285.821014	807.521973	4124.172363	903.595398	2.896700
286.192535	808.413574	4145.943359	899.954529	2.742776
286.563995	800.983398	4137.770020	898.542725	2.923751
286.935425	794.444763	4136.952637	897.279602	3.076577
287.306824	796.822449	4048.086182	895.199219	3.025801
287.678223	795.856445	3962.489502	888.363342	2.921301
288.049561	796.079407	3906.093994	893.490234	3.132166
288.420898	789.466492	3900.298584	894.976257	3.391690
288.792145	780.475769	3922.069092	898.022705	3.741634
289.163452	777.800842	3988.867188	899.805908	3.799519
289.534668	782.036133	4109.832031	899.360168	3.525578
289.905914	786.122742	4240.456055	898.096985	3.241559
290.277039	792.512756	4353.841797	899.731689	3.010644
290.648193	795.262024	4399.835449	902.555176	2.976584
291.019318	792.661438	4422.572266	906.195984	3.127750
291.390381	790.655273	4354.288086	909.836731	3.344381
291.761475	789.317871	4281.843262	908.276428	3.406090
292.132507	793.775940	4230.351074	912.363098	3.450737
292.503510	789.986511	4210.958496	903.892639	3.329642
292.874481	788.500488	4251.676270	908.870911	3.475724
293.245422	790.060791	4333.260254	913.180481	3.474817
293.616364	797.119568	4481.419922	920.685059	3.353839
293.987213	802.915222	4625.418457	930.270081	3.331714
294.358093	803.138123	4747.126953	932.053406	3.268652
294.728943	799.200012	4871.286621	941.192627	3.486974
295.099731	794.296082	4997.675293	936.957336	3.393966
295.470490	793.627258	5099.395996	940.746826	3.416802
295.841248	790.878113	5193.760254	944.387634	3.486569
296.211975	786.865906	5309.077637	950.851990	3.626236
296.582642	776.612061	5440.816406	951.446350	3.748427
296.953308	783.373718	5522.771973	947.434021	3.461627
297.323883	784.116699	5518.239746	943.198730	3.360327
297.694519	791.323975	5426.104980	942.158508	3.254405
298.065063	789.986572	5297.784180	935.842773	3.235642
298.435608	793.553040	5109.946777	930.790222	3.179441
298.806122	795.559265	4894.691895	925.068848	3.159439
299.176575	799.200134	4679.214355	921.279358	3.146360
299.547028	798.902893	4542.793945	928.263855	3.455254
299.917450	794.147461	4493.679688	927.223633	3.597108
300.287872	789.912292	4486.473145	927.223633	3.714570
300.658234	785.454041	4490.039551	922.096741	3.688475
301.028564	790.358093	4465.816406	917.192810	3.450855
301.398865	785.379700	4427.327637	922.022461	3.751914
301.769135	783.150635	4367.067871	916.375427	3.717295
302.139374	784.413818	4322.932129	914.369324	3.672597
302.509583	784.785339	4274.932617	905.898743	3.470152
302.879791	796.227844	4222.103516	896.611023	2.930146
303.249939	790.283691	4163.404297	903.521179	3.357054
303.620087	794.667542	4114.661621	899.434509	3.155637
303.990173	785.454102	4098.835449	906.790466	3.662010
304.360260	787.385986	4096.680176	896.759583	3.305043
304.730286	783.745117	4080.928467	898.468506	3.479436
305.100281	790.357971	4057.300049	898.691406	3.316050
305.470276	790.803772	4050.092773	902.629456	3.430984
305.840179	791.918457	4085.163818	912.065918	3.648300
306.210144	783.373596	4117.634277	907.607727	3.725987
306.579987	787.385925	4157.979980	910.431152	3.650550
306.949890	787.311707	4197.955078	907.682068	3.529257
307.319702	792.066956	4272.852051	913.923523	3.500836
307.689484	788.574890	4363.947266	916.524109	3.578626
308.059265	786.717285	4456.157227	919.942078	3.630657
308.429016	788.426208	4552.898926	909.836853	3.225170
308.798737	787.014465	4624.898926	908.202148	3.157669
309.168396	793.107239	4692.885254	913.031799	3.075164
309.538055	795.856445	4719.337402	924.400146	3.276267
309.907684	806.110291	4732.637207	924.771667	3.022044
310.277313	810.271179	4748.909668	913.997742	2.633564
310.646851	809.825378	4753.962402	914.072021	2.643079
311.016388	802.766602	4740.811035	919.198975	2.956604
311.385895	798.011230	4683.671875	919.570557	3.128408
311.755371	795.484863	4622.669434	919.273376	3.234454
312.124817	800.611816	4568.725098	912.214539	2.961767
312.494232	803.361023	4514.410156	913.403320	2.965261
312.863617	800.388977	4481.791504	917.489929	3.180879
313.232971	803.881165	4484.317871	917.489929	3.086828
313.602295	799.868835	4552.750488	918.976013	3.173753
313.971619	805.292969	4637.901855	915.781006	2.882841
314.340820	795.113464	4676.538574	916.003906	3.114589
314.710083	796.896667	4663.981934	913.329041	3.010856
315.079285	791.992676	4597.109375	914.443604	3.218060
315.448486	795.930725	4525.332520	916.375488	3.229600
315.817596	792.958679	4393.816895	913.849121	3.357268
316.186707	793.924561	4273.520996	907.830627	3.273542
316.555786	793.701660	4167.268066	899.880188	3.147367
316.924866	794.444763	4118.896973	892.895813	2.961422
317.293884	795.707825	4106.859863	884.425293	2.679353
317.662872	789.466492	4114.067383	894.084656	3.146789
318.031830	781.738953	4150.921387	902.555176	3.585921
318.400757	779.063965	4180.865723	911.545715	3.894458
318.769684	778.915344	4228.642090	905.601563	3.672355
319.138550	787.980408	4240.976074	896.165100	3.133068
319.507416	786.494324	4222.994629	893.713135	3.120000
319.876190	792.215637	4173.138184	889.775085	2.885587
320.244995	793.627380	4100.841309	887.546082	2.839813
320.613770	796.822327	4049.126709	887.248779	2.780381
320.982483	795.930847	4028.916016	890.443787	2.923395
321.351166	783.819519	4049.646484	901.663513	3.608397
321.719818	785.528381	4095.937500	906.047363	3.640607
322.088440	783.299316	4196.766113	899.731628	3.410969
322.457062	796.005066	4347.377930	901.217712	2.962591
322.825623	794.073181	4517.531250	909.985352	3.113025
323.194183	793.701660	4642.954102	924.028625	3.385773
323.562653	787.534607	4741.404785	929.601379	3.593107
323.931183	789.169250	4776.327637	924.474426	3.393524
324.299591	794.370422	4770.754883	923.285645	3.242021
324.668060	796.005066	4713.764648	918.158691	3.117946
325.036407	799.125732	4631.734863	918.455994	3.113552
325.404755	795.633545	4552.824707	911.991516	3.096941
325.773102	797.862610	4467.600098	912.585999	3.126201
326.141388	791.249695	4400.504395	913.477600	3.386514
326.509674	791.398254	4316.096680	916.375427	3.545755
326.877899	793.255859	4243.725586	911.842957	3.436839
327.246124	795.484924	4201.373047	902.778076	3.150225
327.614288	795.336365	4155.528320	898.542786	3.071444
327.982422	787.608826	4145.200684	903.223877	3.443392
328.350525	784.413818	4133.015137	903.223816	3.548048
328.718628	788.500488	4172.692871	908.796570	3.554647
329.086700	793.701660	4214.450684	902.034973	3.166947
329.454712	796.748047	4258.140625	910.877014	3.297198
329.822693	794.519043	4301.830566	904.338379	3.131154
330.190674	787.014404	4348.789551	910.579834	3.469209
330.558563	780.401550	4395.080566	906.716064	3.494488
330.926483	771.485168	4448.503906	913.329102	3.857580
331.294312	774.382996	4518.051270	916.821289	3.804779
331.662231	785.082520	4620.886230	919.644836	3.508060
332.029999	790.729492	4715.622559	922.245422	3.350816
332.397766	795.410583	4809.466309	920.239258	3.109789
332.765503	786.940125	4869.949219	923.062744	3.333880
333.133240	787.534485	4906.356934	928.412598	3.420349
333.500916	787.683105	4891.273438	932.573486	3.530820
333.868561	796.599426	4868.982910	932.201965	3.329808
334.236176	795.262024	4839.707520	929.824219	3.327086
334.603790	797.045349	4816.302246	926.109070	3.211134
334.971344	794.147461	4785.317871	921.205078	3.183468
335.338867	799.794495	4754.185059	911.174133	2.816607
335.706360	804.772766	4748.538574	910.431213	2.679126
336.073853	800.091736	4746.012207	916.895691	2.960119
336.441284	793.107239	4775.956055	930.567383	3.451302
336.808655	780.698730	4795.869141	932.127625	3.771419
337.176086	783.893738	4840.524902	929.972900	3.600997
337.543396	790.432373	4853.899902	927.446594	3.371855
337.910706	789.540710	4877.602051	929.527100	3.424273
338.277954	793.701660	4866.456543	923.805725	3.194498
338.645264	789.986572	4830.865723	920.313477	3.225212
339.012421	796.153625	4766.445313	918.158691	3.072950
339.379669	792.735657	4678.099121	913.923401	3.119084
339.746796	798.828552	4606.545410	911.917297	2.969988
340.113953	794.147461	4551.338379	912.734619	3.156272
340.481018	796.227966	4571.697754	916.524109	3.186256
340.848114	789.689270	4595.548828	913.403320	3.250620
341.215118	795.113464	4650.755859	906.938965	2.900308
341.582153	787.608826	4749.132813	913.106140	3.167905
341.949066	787.460266	4890.382324	923.805664	3.323129
342.316010	779.509827	5080.226074	938.666260	3.700696
342.682922	785.008301	5253.648438	946.839539	3.621487
343.049835	783.150696	5506.648438	949.960266	3.531484
343.416656	780.401550	5769.829590	959.322327	3.585998
343.783478	779.435547	6029.442871	973.439941	3.695317
344.150269	779.881348	6219.583496	984.511047	3.761781
344.516998	786.419983	6304.734375	990.381042	3.696075
344.883728	789.020691	6260.300781	984.956848	3.581176
345.250427	788.797668	6172.252441	970.616394	3.377362
345.617065	785.082520	6023.052734	959.396729	3.327896
345.983704	783.968018	5913.976563	956.573242	3.364619
346.350281	785.825500	5774.064453	955.458740	3.400664
346.716827	793.478699	5640.542969	955.161438	3.335684
347.083405	789.392090	5516.531250	952.635254	3.453318
347.449860	791.918457	5425.138672	956.796082	3.558597
347.816376	796.525208	5408.346191	950.406067	3.336662
348.182770	797.565430	5411.244141	948.028503	3.261239
348.549194	795.856445	5454.785645	945.427917	3.210426
348.915558	791.918396	5512.146973	946.170898	3.267903
349.281921	792.364258	5587.713379	945.799316	3.199664
349.648193	791.101074	5616.171387	945.947998	3.209216
350.014526	790.655273	5640.170410	954.418457	3.376898
350.380737	794.073181	5653.100098	961.328613	3.442159
350.746948	803.509583	5691.143066	971.359436	3.434175
351.113159	805.812988	5739.291016	974.108643	3.411298
351.479309	805.738708	5818.274902	972.696960	3.330814
351.845428	797.416809	5930.769043	974.182922	3.443483
352.211517	795.484924	6044.377441	969.501892	3.315308
352.577576	793.330139	6161.033203	970.690735	3.304218
352.943604	792.364258	6279.322754	977.377991	3.371881
353.309601	789.466492	6407.717285	989.415039	3.558911
353.675537	788.277588	6563.010254	998.851501	3.646471
354.041473	785.528320	6712.656250	995.507813	3.542685
354.407379	790.803894	6824.705566	996.176575	3.403646
354.773254	796.896667	6941.731934	1000.486145	3.313180
355.139038	799.274414	7091.600098	1007.396301	3.307551
355.504913	792.364258	7337.244629	1014.455078	3.393352
355.870636	786.197083	7589.502441	1023.371399	3.486163
356.236389	783.224915	7860.633301	1031.173218	3.503377
356.602081	791.844055	8119.652344	1041.501221	3.406983
356.967804	798.011230	8311.055664	1042.690063	3.256720
357.333405	805.070007	8427.414063	1047.965698	3.186627
357.699036	797.788269	8450.522461	1049.451660	3.288542
358.064606	791.249695	8441.160156	1048.188599	3.358718
358.430176	791.323975	8383.724609	1035.185547	3.211917
358.795654	797.862610	8361.136719	1036.745972	3.158465
359.161163	803.881104	8471.996094	1049.674683	3.205398
359.526581	800.760437	8786.817383	1069.364868	3.363417
359.892029	798.605652	9283.233398	1093.959106	3.481042
360.257416	792.587097	9814.051758	1108.225098	3.498744
360.622772	794.296082	10289.366211	1129.327148	3.528474
360.988098	788.797668	10623.059570	1131.036011	3.480061
361.353394	792.141296	10833.335938	1132.967896	3.394284
361.718658	789.243469	10734.142578	1128.955566	3.415943
362.083893	793.701660	10417.835938	1113.500610	3.322885
362.449097	793.924622	9852.318359	1093.661743	3.308944
362.814209	796.005066	9243.183594	1069.439087	3.236986
363.179382	792.958679	8607.672852	1043.730225	3.208966
363.544434	787.980286	8123.590332	1029.315552	3.289914
363.909546	782.556213	7814.343262	1018.467346	3.354924
364.274536	782.036133	7644.561035	1020.547852	3.475568
364.639587	780.624329	7508.513184	1015.569519	3.492109
365.004517	788.426208	7427.671875	1011.260010	3.356312
365.369507	781.218811	7368.601074	1005.092834	3.398528
365.734344	783.076355	7374.619141	1007.024719	3.397511
366.099274	780.029968	7334.941406	1015.941101	3.598998
366.464081	788.351868	7298.979004	1015.718262	3.492235
366.828918	790.580994	7218.435059	1002.863831	3.302546
367.193665	790.432373	7162.039551	995.582214	3.219750
367.558411	795.262024	7091.080078	997.068176	3.205400
367.923126	792.364258	7013.953613	1004.944275	3.416812
368.287781	791.175476	6942.994629	1003.086731	3.444692
368.652435	788.649109	6911.193359	994.244690	3.358009
369.017059	791.918457	6929.769043	989.712219	3.222525
369.381653	792.587097	6966.028809	989.340759	3.187098
369.746185	789.837891	7009.867188	998.479980	3.354359
370.110687	790.729553	7073.099121	1008.659424	3.468912
370.475220	792.512878	7162.485840	1009.922546	3.413039
370.839661	790.283691	7224.305176	1011.260010	3.434498
371.204041	790.580994	7290.210938	1010.739929	3.387254
371.568451	791.695496	7302.471191	1015.346680	3.435093
371.932770	791.026794	7311.091309	1013.637695	3.414244
372.297150	793.924561	7240.503418	1010.145508	3.354042
372.661377	793.998840	7225.345215	1007.322021	3.316929
373.025696	797.565430	7241.171875	1005.018616	3.219520
373.389862	790.580994	7301.802246	1008.287903	3.343565
373.754059	790.432373	7363.399902	1011.631531	3.365286
374.118225	791.844055	7463.485840	1018.393127	3.395702
374.482361	794.147461	7624.350098	1021.142273	3.323398
374.846436	791.918396	7830.466309	1026.566406	3.333756
375.210510	791.844055	8088.965332	1042.244263	3.431493
375.574524	799.645813	8373.916992	1058.145020	3.412859
375.938538	800.611816	8667.114258	1076.497803	3.507098
376.302460	808.264954	8930.369141	1074.491699	3.277805
376.666412	800.611816	9112.411133	1076.200562	3.315633
377.030304	793.330139	9166.355469	1071.668213	3.324224
377.394196	786.717224	9073.848633	1079.024048	3.527237
377.757996	786.717224	8901.391602	1075.160400	3.554587
378.121796	791.918396	8637.170898	1059.779663	3.414310
378.485565	787.683105	8357.496094	1042.169922	3.361864
378.849304	786.642883	8080.420410	1030.950195	3.349531
379.212982	792.810059	7923.122559	1025.154663	3.258547
379.576630	797.936951	7840.273926	1023.297058	3.200076
379.940277	805.292908	7815.753906	1020.102051	3.064123
380.303864	807.521973	7803.049316	1023.817200	3.091908
380.667450	803.732483	7809.662109	1027.086426	3.188070
381.030945	799.794495	7799.928223	1027.681030	3.255460
381.394501	789.615051	7846.515625	1031.470337	3.427217
381.757935	793.553040	7882.701660	1032.361938	3.368654
382.121399	796.525208	7976.768066	1032.064819	3.280385
382.484741	797.936951	8084.283691	1029.984375	3.184688
382.848145	799.868835	8216.766602	1031.321899	3.120618
383.211487	794.964844	8340.554688	1038.975098	3.233813
383.574768	798.085632	8442.794922	1037.117310	3.126760
383.938019	795.187744	8502.014648	1042.987305	3.215325
384.301270	795.484863	8551.500000	1049.377319	3.273491
384.664459	798.308411	8558.707031	1063.197632	3.413346
385.027649	795.113464	8592.069336	1060.745605	3.406870
385.390778	794.147461	8669.938477	1059.110962	3.364278
385.753876	792.289856	8757.319336	1062.974731	3.398417
386.116943	794.147461	8860.450195	1073.228516	3.459839
386.479980	792.884277	8885.044922	1076.869263	3.509384
386.842987	790.878174	8928.214844	1071.519531	3.448811
387.205994	792.587097	8927.545898	1071.891113	3.433379
387.568909	790.655273	8929.106445	1061.488647	3.327825
387.931793	792.958679	8852.872070	1059.556763	3.307704
388.294678	796.450867	8820.921875	1052.349487	3.188978
388.657471	797.045227	8804.500977	1061.711548	3.305249
389.020294	795.039063	8865.280273	1067.655884	3.378051
389.383057	789.317810	8988.995117	1066.615479	3.381812
389.745819	792.958679	9171.036133	1062.900391	3.222001
390.108521	793.850342	9386.068359	1070.182129	3.216071
390.471191	789.020569	9624.877930	1082.664917	3.323326
390.833801	784.339539	9859.674805	1100.051880	3.478796
391.196442	778.915466	10041.790039	1101.612183	3.483764
391.558960	786.940125	10119.288086	1105.401611	3.412448
391.921509	787.385925	10079.833008	1094.850586	3.308759
392.284027	796.005066	10005.456055	1102.503784	3.328089
392.646484	793.850281	9938.583008	1104.584351	3.397957
393.008911	797.639648	9924.911133	1117.810181	3.507845
393.371307	795.336243	9962.508789	1115.729736	3.495009
393.733673	800.091614	9949.059570	1108.076416	3.366334
394.096008	801.652039	9896.007813	1098.788574	3.267263
394.458344	796.822327	9786.188477	1086.082886	3.217808
394.820587	797.045227	9613.434570	1073.525757	3.135983
395.182831	798.308411	9408.433594	1062.974731	3.073896
395.545013	802.766602	9164.125977	1056.510376	3.034719
395.907196	797.268250	8978.517578	1055.692993	3.158744
396.269287	789.317810	8843.659180	1058.962402	3.347817
396.631409	791.621155	8792.315430	1069.810547	3.477066
396.993469	789.243469	8751.002930	1074.417358	3.581795
397.355530	791.026672	8757.317383	1069.736206	3.498611
397.717499	786.717224	8779.609375	1056.733276	3.378202
398.079468	788.351868	8823.374023	1053.909790	3.305006
398.441376	790.060852	8815.423828	1062.677490	3.396939
398.803284	789.540710	8791.200195	1065.946777	3.454359
399.165131	788.797668	8777.528320	1067.432983	3.487855
399.526978	791.472595	8772.550781	1061.042847	3.377617
399.888763	790.432373	8767.572266	1063.271851	3.420267
400.250519	791.918396	8765.492188	1060.299805	3.365886
400.612244	788.797668	8769.875977	1064.312134	3.452096
400.973938	791.769775	8815.646484	1065.649536	3.413310
401.335602	797.045349	8884.004883	1078.801147	3.484076
401.697205	797.193848	9031.644531	1080.584473	3.441524
402.058807	795.113464	9193.178711	1083.036499	3.428445
402.420349	780.995911	9435.777344	1090.466797	3.575722
402.781860	779.138367	9649.842773	1096.039429	3.572445
403.143341	782.853455	9839.612305	1114.689453	3.663960
403.504822	784.859619	9996.092773	1116.324097	3.598481
403.866241	787.088684	10170.408203	1133.488037	3.691650
404.227631	784.785339	10316.264648	1131.704712	3.639722
404.588959	791.472595	10366.938477	1139.209351	3.631539
404.950287	793.181458	10313.811523	1131.704712	3.555681
405.311554	797.045349	10223.311523	1130.218750	3.534521
405.672821	797.119629	10116.910156	1128.063843	3.550983
406.034027	799.348633	9975.214844	1128.509644	3.587247
406.395203	799.794617	9822.077148	1122.714111	3.579133
406.756348	791.249695	9674.214844	1113.797729	3.631085
407.117493	789.243469	9620.790039	1122.788452	3.776745
407.478516	788.797668	9599.688477	1126.652222	3.834511
407.839600	803.138000	9660.988281	1132.224976	3.715201
408.200592	806.110168	9765.160156	1127.989624	3.592786
408.561554	801.800598	9886.050781	1147.085449	3.800918
408.922485	786.940125	10024.253906	1156.967651	4.005792
409.283417	789.392090	10123.968750	1165.512573	4.029326
409.644257	793.032959	10246.790039	1162.094604	3.903862
410.005096	800.091736	10339.372070	1166.032593	3.836148
410.365906	788.946289	10343.533203	1168.707520	3.974648
410.726715	782.481934	10323.471680	1172.051147	4.083111
411.087433	780.921570	10225.244141	1180.001587	4.225608
411.448120	786.865784	10197.231445	1179.630005	4.173740
411.808807	785.899902	10141.133789	1178.366821	4.195158
412.169434	790.506653	10086.149414	1177.995239	4.168497
412.530029	784.636719	10128.352539	1182.156250	4.254405
412.890564	788.649109	10192.772461	1187.951782	4.246038
413.251099	786.568604	10326.443359	1201.326294	4.347622
413.611572	789.392090	10449.637695	1213.140503	4.386518
413.972076	793.032898	10584.719727	1222.131226	4.382272
414.332489	793.181580	10718.984375	1221.908203	4.319314
414.692871	797.788330	10903.403320	1225.251831	4.229960
415.053223	800.537537	11057.656250	1225.771973	4.145749
415.413574	804.401184	11311.401367	1236.322998	4.110801
415.773834	797.639648	11485.195313	1252.000854	4.251311
416.134094	791.249695	11770.739258	1278.229614	4.435360
416.494263	796.748108	12007.914063	1299.480225	4.484209
416.854462	801.800720	12371.997070	1316.569946	4.449097
417.214630	799.868835	12754.805664	1332.322144	4.453836
417.574738	790.729553	13166.739258	1348.445801	4.506430
417.934784	790.432312	13595.762695	1376.012085	4.572938
418.294861	789.837891	14109.268555	1408.036621	4.641330
418.654846	788.426208	14677.610352	1430.475952	4.622660
419.014832	790.952454	15264.825195	1453.361206	4.576582
419.374756	786.122803	15889.637695	1482.562134	4.611108
419.734680	788.723389	16549.447266	1521.050903	4.646535
420.094543	787.014404	17125.515625	1548.171509	4.658671
420.454376	798.679932	17469.312500	1559.391235	4.563182
420.814148	796.748047	17644.072266	1566.970093	4.571777
421.173920	797.045227	17772.392578	1580.790405	4.616961
421.533691	790.580872	17883.773438	1583.168091	4.636858
421.893341	791.546875	17930.287109	1576.777954	4.581615
422.253021	792.884460	17890.535156	1559.837036	4.485719
422.612640	791.695496	17822.027344	1560.728638	4.515667
422.972260	788.872009	17830.201172	1570.165161	4.584696
423.331757	786.642883	17898.187500	1585.322876	4.667492
423.691315	783.002136	18080.824219	1603.081055	4.740937
424.050781	782.333313	18137.742188	1600.926392	4.716646
424.410248	775.943298	18038.619141	1594.759277	4.743274
424.769653	794.741882	17754.560547	1572.319824	4.584825
425.128998	803.138123	17402.439453	1560.431274	4.562199
425.488373	801.949280	16938.865234	1537.249023	4.556631
425.847656	788.723389	16504.269531	1526.475098	4.694407
426.206940	782.779114	16101.250977	1516.443970	4.789413
426.566193	788.872009	15763.694336	1505.521606	4.785697
426.925385	789.614990	15356.366211	1493.038940	4.828969
427.284576	787.757507	14952.976563	1468.964844	4.809014
427.643677	797.416748	14605.463867	1454.773071	4.760675
428.002777	794.741943	14373.415039	1444.222046	4.783090
428.361847	803.583923	14155.561523	1431.962036	4.706255
428.720856	792.066956	13972.106445	1424.085938	4.795274
429.079865	801.652039	13833.903320	1411.157227	4.676899
429.438812	793.627380	13812.801758	1415.466919	4.776336
429.797760	796.302246	13802.324219	1409.968384	4.718323
430.156616	788.797668	13676.901367	1402.612671	4.762648
430.515503	790.209473	13562.028320	1390.426880	4.699545
430.874268	793.701660	13508.605469	1387.900513	4.673247
431.233093	796.673767	13637.000000	1397.411255	4.678522
431.591827	794.816162	13787.389648	1409.522461	4.731213
431.950562	789.763672	13915.710938	1419.850708	4.800317
432.309204	785.156921	14027.016602	1422.376953	4.812164
432.667877	784.339539	14153.554688	1438.574829	4.893596
433.026459	798.679993	14264.859375	1444.444946	4.795458
433.385010	797.714050	14357.366211	1444.073364	4.766784
433.743561	803.583923	14416.734375	1430.253052	4.603410
434.102051	793.627380	14466.293945	1431.367676	4.664344
434.460510	793.775940	14511.766602	1434.414063	4.670058
434.818939	786.122803	14477.959961	1437.609009	4.758209
435.177338	779.435547	14465.848633	1445.633789	4.867589
435.535675	780.252930	14420.894531	1448.382813	4.898083
435.894012	785.156799	14409.303711	1447.193970	4.859293
436.252289	792.067078	14556.273438	1450.314819	4.782315
436.610535	801.800720	14608.062500	1453.212524	4.718235
436.968719	801.949280	14878.747070	1478.475586	4.805967
437.326935	793.775940	15055.515625	1478.104004	4.798349
437.685028	779.138367	15353.840820	1493.113159	4.898726
438.043152	780.029968	15548.289063	1490.735474	4.812385
438.401215	780.921570	15822.094727	1518.598999	4.904387
438.759277	788.872009	16157.719727	1536.951782	4.867507
439.117249	789.837891	16648.787109	1561.620239	4.866541
439.475250	789.763611	17088.734375	1574.697632	4.815850
439.833130	792.141296	17518.648438	1588.740723	4.762497
440.191071	793.998840	17697.273438	1591.415649	4.717528
440.548889	804.104004	17777.222656	1584.282593	4.596554
440.906708	803.361023	17735.613281	1577.298218	4.570787
441.264496	803.212402	17564.345703	1582.053345	4.646708
441.622223	790.729553	17307.554688	1579.155640	4.773473
441.979950	788.649109	17008.337891	1572.542847	4.832976
442.337616	788.500488	16772.947266	1562.066040	4.839489
442.695251	791.769775	16519.126953	1558.053833	4.872300
443.052887	791.546875	16381.668945	1560.431519	4.931870
443.410461	790.432312	16429.296875	1561.694702	4.931704
443.768005	798.308411	16669.220703	1566.152832	4.838061
444.125458	803.806824	16954.767578	1569.793579	4.742670
444.482941	805.144287	17296.113281	1578.635620	4.690393
444.840393	801.206238	17714.736328	1601.595093	4.732240
445.197754	799.423035	18132.318359	1621.879883	4.745063
445.555084	792.141296	18482.058594	1642.758789	4.808487
445.912415	792.810059	18773.250000	1652.492554	4.781209
446.269714	786.642883	18933.373047	1653.309937	4.775886
446.626953	783.522156	18965.250000	1652.046753	4.776909
446.984161	776.463379	18825.412109	1650.263306	4.841279
447.341309	777.800964	18604.212891	1646.845581	4.875040
447.698456	787.608826	18347.275391	1638.151978	4.843732
448.055542	793.627441	18128.082031	1623.291626	4.786214
448.412598	792.289978	17840.232422	1611.477417	4.805198
448.769653	785.528320	17509.214844	1586.363159	4.788626
449.126617	785.305481	17107.236328	1561.620117	4.756267
449.483582	785.677002	16816.638672	1542.227173	4.719306
449.840515	791.472656	16549.074219	1540.443970	4.753079
450.197388	790.878174	16312.270508	1530.264648	4.763661
450.554230	795.336243	16178.081055	1524.023071	4.737040
450.911041	792.438538	16097.758789	1507.527954	4.672163
451.267822	791.101074	16192.346680	1525.732056	4.769945
451.624573	787.980286	16184.543945	1528.406860	4.809038
451.981262	788.203308	16204.085938	1537.026001	4.857475
452.337921	795.856445	16021.524414	1511.317383	4.699045
452.694580	788.500427	15759.237305	1501.360718	4.761691
453.051147	795.113464	15515.523438	1493.484741	4.744238
453.407715	787.757507	15193.567383	1484.048340	4.833403
453.764221	799.794495	15083.303711	1477.138184	4.742138
454.120728	793.330139	14795.083008	1459.677124	4.759026
454.477142	797.714050	14752.433594	1455.590332	4.714364
454.833557	798.382751	14650.416992	1449.051758	4.697281
455.189911	795.856445	14652.942383	1462.872070	4.813535
455.546265	799.422913	14692.768555	1467.998901	4.812203
455.902557	796.153625	14717.140625	1472.308228	4.857088
456.258820	799.348633	14896.061523	1474.389038	4.788637
456.615051	791.769836	15114.362305	1490.363892	4.877567
456.971252	793.181580	15405.851563	1514.363892	4.935322
457.327393	795.262024	15893.723633	1544.902344	4.965011
457.683502	798.382751	16505.011719	1568.233276	4.901437
458.039612	801.429199	17371.158203	1603.378540	4.839846
458.395630	793.107239	18223.111328	1637.632202	4.845237
458.751648	786.197083	18970.302734	1679.835938	4.914395
459.107605	777.354980	19673.578125	1712.529175	4.949001
459.463562	783.224915	19990.775391	1716.392944	4.858339
459.819458	793.998840	19995.455078	1708.888306	4.764688
460.175323	800.908997	19547.560547	1679.538696	4.686862
460.531158	797.788269	18935.380859	1655.316040	4.727903
460.886932	793.255859	18247.335938	1621.136719	4.743194
461.242676	784.339539	17574.599609	1595.650757	4.832035
461.598419	788.277588	16994.962891	1560.505737	4.764874
461.954102	785.825623	16456.642578	1529.744507	4.747161
462.309723	793.330139	16003.320313	1501.583862	4.656504
462.665344	800.760437	15698.753906	1486.797485	4.604896
463.020905	810.345459	15495.385742	1491.404175	4.637772
463.376373	810.494080	15449.541992	1493.856079	4.668077
463.731873	803.732483	15421.530273	1502.995483	4.783641
464.087341	793.107239	15449.171875	1509.236938	4.886235
464.442749	795.633545	15524.291992	1515.626953	4.888384
464.798126	796.005066	15624.823242	1526.995117	4.929523
465.153503	792.884338	15824.770508	1529.298462	4.899014
465.508820	787.014404	16032.149414	1533.088013	4.893847
465.864105	788.203308	16202.824219	1540.964233	4.883421
466.219330	793.255859	16465.558594	1549.137329	4.823040
466.574524	795.930725	16508.060547	1560.580078	4.866618
466.929657	797.342468	16438.658203	1543.119019	4.767991
467.284790	800.388916	16225.039063	1543.193359	4.815697
467.639893	798.977112	16025.983398	1518.153320	4.723031
467.994934	796.227966	15830.790039	1520.382324	4.816597
468.349945	797.936951	15607.286133	1496.159546	4.714742
468.704926	797.119629	15450.656250	1492.221558	4.743578
469.059875	798.085510	15294.917969	1480.258789	4.705671
469.414764	792.067078	15247.512695	1488.729126	4.819375
469.769653	789.615051	15213.110352	1491.329956	4.865082
470.124451	786.197083	15274.410156	1494.004883	4.885405
470.479248	780.921570	15272.403320	1487.168945	4.873535
470.834015	784.636719	15319.585938	1488.952148	4.845668
471.188721	789.689270	15533.132813	1492.444458	4.766561
471.543365	796.599426	15840.299805	1508.791016	4.734152
471.898010	794.147461	16075.245117	1518.599121	4.740835
472.252625	788.946289	16315.985352	1540.072388	4.837536
472.607178	787.608887	16540.900391	1539.998169	4.776077
472.961700	789.689270	16636.007813	1541.187012	4.742412
473.316193	789.094910	16692.923828	1537.546265	4.706108
473.670654	790.432373	16609.554688	1550.697754	4.805990
474.025055	788.872070	16664.986328	1562.437500	4.872511
474.379456	794.741943	16694.929688	1561.991821	4.825414
474.733795	800.388855	16834.693359	1563.626465	4.760029
475.088104	805.961609	17098.693359	1577.521118	4.735606
475.442383	799.125732	17368.333984	1599.291870	4.829236
475.796570	797.936951	17636.568359	1619.502075	4.879049
476.150787	792.884277	17993.591797	1637.186157	4.908530
476.504944	792.958679	18348.685547	1659.031250	4.933277
476.859070	788.054626	18687.208984	1667.576050	4.913760
477.213135	789.689270	18925.349609	1673.594360	4.873851
477.567200	792.587097	19201.162109	1684.145508	4.843169
477.921173	788.574768	19456.689453	1691.278442	4.835537
478.275146	785.899902	19708.351563	1698.708862	4.823946
478.629089	792.141296	19961.128906	1708.516968	4.780511
478.983002	799.348633	20382.869141	1729.841675	4.751409
479.336823	806.927551	20902.320313	1761.866211	4.752028
479.690643	797.936951	21522.082031	1785.197144	4.763816
480.044403	793.255859	22258.718750	1823.388672	4.799025
480.398163	788.203308	23285.583984	1880.081665	4.853358
480.751862	789.540771	24681.728516	1960.625854	4.901540
481.105499	792.289856	26583.505859	2064.129639	4.931291
481.459137	795.039063	29332.853516	2205.973389	4.944087
481.812744	795.856445	33042.644531	2402.504150	4.982349
482.166290	791.101074	37643.320313	2650.675537	5.046031
482.519806	789.912292	42571.445313	2899.812500	5.049839
482.873291	783.299316	47115.128906	3108.751709	5.019125
483.226715	785.379822	50464.394531	3243.387939	4.947779
483.580139	780.327209	51982.261719	3303.350342	4.927594
483.933502	783.522156	51798.511719	3261.815186	4.857970
484.286804	789.020508	50108.863281	3147.091797	4.781182
484.640106	787.980286	47482.562500	2973.743408	4.680978
484.993347	793.330139	44534.824219	2830.710938	4.657776
485.346558	797.491150	42054.746094	2729.287354	4.682319
485.699738	803.955505	40741.515625	2696.817139	4.739552
486.052887	800.166016	40596.480469	2708.928467	4.796330
486.405975	793.775940	41356.300781	2751.058350	4.825347
486.759064	792.958679	42298.902344	2808.940186	4.857091
487.112061	796.302307	42929.585938	2834.351563	4.837148
487.464996	796.450928	42871.628906	2816.147461	4.800209
487.817963	796.525208	41983.937500	2744.296875	4.729046
488.170868	801.280579	40385.460938	2641.907471	4.649906
488.523743	802.617981	38420.527344	2543.382080	4.627488
488.876587	804.252625	36543.566406	2456.968018	4.624362
489.229401	797.565430	35260.656250	2403.767334	4.660644
489.582153	787.237305	34810.003906	2388.386475	4.706111
489.934845	785.008240	35222.910156	2428.212646	4.771500
490.287537	792.066956	36160.386719	2490.775635	4.802910
490.640198	802.172180	37354.281250	2550.589600	4.783356
490.992798	797.193848	38128.667969	2576.595703	4.766492
491.345337	788.500488	38209.730469	2568.868164	4.757641
491.697876	785.231140	37273.070313	2521.685791	4.758996
492.050354	789.614990	35642.644531	2427.247070	4.698679
492.402832	788.574768	33370.613281	2304.201904	4.651726
492.755219	798.085510	30888.087891	2173.057373	4.569531
493.107605	792.289978	28486.697266	2058.111084	4.570674
493.459930	789.317810	26577.710938	1981.059204	4.621232
493.812225	783.299316	25162.689453	1926.892578	4.690820
494.164490	790.580994	24263.107422	1897.840210	4.717257
494.516724	793.701721	23747.224609	1878.149902	4.724539
494.868896	788.946289	23569.492188	1884.168457	4.807708
495.221039	785.379700	23709.330078	1885.431641	4.798702
495.573120	791.621155	23935.062500	1901.109497	4.793964
495.925201	791.175293	24227.000000	1905.716187	4.755714
496.277222	792.661377	24387.119141	1922.954468	4.790503
496.629211	784.636719	24452.802734	1916.192749	4.780920
496.981140	789.169189	24351.750000	1907.796509	4.747474
497.333069	788.277527	24134.337891	1895.610962	4.743128
497.684967	793.998840	23824.423828	1887.363403	4.747478
498.036804	788.351868	23407.212891	1871.834106	4.790171
498.388580	795.633545	22975.884766	1839.140991	4.704669
498.740326	792.141296	22533.189453	1808.899780	4.676676
499.092072	800.166016	22130.320313	1780.293091	4.595030
499.443756	789.689270	21742.462891	1769.816528	4.677793
499.795410	792.884338	21373.251953	1765.878418	4.727778
500.147003	789.020691	21076.634766	1762.534790	4.798564
500.498566	798.531433	20809.964844	1753.172485	4.770478
500.850098	799.645813	20630.150391	1740.021118	4.742064
501.201599	797.119568	20463.935547	1723.600220	4.710883
501.553009	797.491028	20357.236328	1720.033691	4.716537
501.904449	794.964844	20312.654297	1720.479492	4.741927
502.255859	795.707825	20416.380859	1732.665039	4.775357
502.607178	792.958679	20534.373047	1747.079956	4.833095
502.958405	791.323975	20642.484375	1744.702148	4.802632
503.309692	800.760437	20629.779297	1743.439087	4.754035
503.660919	796.525208	20686.695313	1723.823242	4.662092
504.012115	797.491028	20708.388672	1727.389648	4.670300
504.363251	787.831726	20715.001953	1723.377319	4.694824
504.714294	786.122803	20625.468750	1724.789063	4.731337
505.065369	780.847229	20554.138672	1723.377319	4.766683
505.416443	776.314758	20432.802734	1714.237915	4.771570
505.767395	783.373596	20377.966797	1705.767578	4.707390
506.118317	789.392090	20309.982422	1696.851196	4.648728
506.469238	797.639648	20432.505859	1707.402344	4.633404
506.820160	795.633484	20569.072266	1724.566040	4.697880
507.170929	798.679932	20790.794922	1731.996460	4.668423
507.521729	794.964844	20995.498047	1750.349121	4.729500
507.872498	793.330078	21235.125000	1766.473022	4.760555
508.223236	795.707825	21518.515625	1785.122925	4.774522
508.573883	792.958679	21727.158203	1784.156860	4.734828
508.924500	789.689270	21911.873047	1790.026855	4.735957
509.275116	784.488098	22025.333984	1792.850464	4.747280
509.625702	790.432312	22217.255859	1802.955566	4.725494
509.976196	793.107239	22361.626953	1800.429199	4.670334
510.326660	801.503418	22581.337891	1812.912109	4.643785
510.677124	801.503479	22719.099609	1824.651855	4.668160
511.027557	802.097839	22918.896484	1840.403931	4.694649
511.377869	792.958679	23040.603516	1844.787720	4.727822
511.728180	791.918457	23117.062500	1848.948853	4.734708
512.078430	787.385925	23126.945313	1847.908813	4.747287
512.428650	787.608887	23030.275391	1842.261719	4.741576
512.778931	787.683105	22883.751953	1824.874878	4.694011
513.129028	790.655273	22692.646484	1810.757324	4.657577
513.479126	793.032898	22562.169922	1795.005249	4.602720
513.829285	788.797668	22453.539063	1787.128906	4.608092
514.179382	791.621155	22399.296875	1784.528320	4.595160
514.529297	785.899902	22325.664063	1786.906250	4.647249
514.879272	792.364258	22431.619141	1800.800781	4.660219
515.229187	790.060852	22547.455078	1816.107056	4.715850
515.579163	792.289856	22865.919922	1849.171875	4.787985
515.928955	786.865906	23245.976563	1874.211914	4.841447
516.278748	789.615051	23841.810547	1897.914429	4.807782
516.628540	790.729553	24612.849609	1923.548828	4.755326
516.978333	794.370361	25478.031250	1955.053223	4.702231
517.327942	785.231140	26366.396484	2010.185669	4.788502
517.677612	779.212646	27089.212891	2038.197876	4.785197
518.027222	777.132141	27580.279297	2070.222412	4.824398
518.376831	780.029968	27763.287109	2056.699219	4.731338
518.726379	787.980286	27648.931641	2045.628296	4.682068
519.075867	790.358093	27181.642578	2009.517212	4.619552
519.425293	800.091614	26588.484375	1976.675293	4.562455
519.774658	800.983337	25897.248047	1949.777710	4.577551
520.124084	797.491028	25328.458984	1930.756226	4.619732
520.473389	796.079285	24804.328125	1918.124634	4.673583
520.822693	792.661377	24403.166016	1898.583374	4.684025
521.171997	789.689270	24197.052734	1896.131226	4.726897
521.521240	783.596436	24092.359375	1891.821655	4.754543
521.870361	785.899841	24171.492188	1897.022827	4.751315
522.219482	786.865784	24352.718750	1895.610962	4.704880
522.568604	783.522217	24658.919922	1917.158813	4.748137
522.917664	791.992676	25019.880859	1936.997681	4.725979
523.266724	799.125793	25513.845703	1957.282227	4.686100
523.615662	811.980164	26249.070313	1990.867188	4.634520
523.964600	804.921387	27226.150391	2045.033813	4.693621
524.313538	801.949219	28397.162109	2114.209717	4.755392
524.662354	794.593262	29640.396484	2163.769775	4.746536
525.011169	797.936951	30912.162109	2229.973389	4.755349
525.359985	792.884338	32137.486328	2270.022217	4.712575
525.708740	791.769836	33415.792969	2331.842285	4.720670
526.057434	789.169189	34806.664063	2400.944092	4.738076
526.406067	791.621155	36602.859375	2507.716797	4.792059
526.754700	793.404480	38985.449219	2644.210938	4.846052
527.103333	794.221863	42096.054688	2796.903076	4.848892
527.451782	794.221741	45507.074219	2963.638428	4.851886
527.800293	789.615051	48449.160156	3111.723633	4.872284
528.148743	785.899902	50321.292969	3197.023193	4.867476
528.497131	793.404480	50704.027344	3196.428955	4.814655
528.845642	797.045227	49642.390625	3104.962158	4.724948
529.193909	797.565430	47371.699219	2966.016357	4.655912
529.542175	797.936951	44232.781250	2800.098389	4.609574
529.890503	801.057617	40904.539063	2630.613525	4.562088
530.238770	803.063904	37781.816406	2494.342285	4.573649
530.586914	802.320801	35554.371094	2393.364990	4.578274
530.934998	801.280518	34190.839844	2344.250977	4.621117
531.283142	798.011230	33936.800781	2323.743408	4.604067
531.631226	795.856445	34296.425781	2349.303711	4.637077
531.979248	795.782166	35308.429688	2406.516602	4.667084
532.327148	795.707825	36432.035156	2463.358154	4.679636
532.675110	790.209412	37362.828125	2509.128662	4.700017
533.023071	790.283691	37677.574219	2516.855713	4.680669
533.370850	795.187744	37141.851563	2489.066650	4.660342
533.718689	795.782166	36110.605469	2418.925049	4.596208
534.066467	793.032959	34645.500000	2348.709229	4.595459
534.414246	789.169189	33205.960938	2277.824219	4.592235
534.761963	796.896667	31984.796875	2237.031982	4.617609
535.109619	797.713928	31261.087891	2210.505859	4.637674
535.457153	798.977234	30937.052734	2204.710205	4.664309
535.804749	789.392090	30897.375000	2211.323242	4.722771
536.152344	786.568604	30823.369141	2197.428711	4.697105
536.499817	785.528320	30579.359375	2173.577393	4.658847
536.847229	790.580872	30037.468750	2133.825439	4.592778
537.194641	792.141296	29333.970703	2097.268555	4.572682
537.542114	794.816162	28559.884766	2064.055420	4.571353
537.889404	800.611816	27831.570313	2029.950195	4.547890
538.236694	802.172180	27370.521484	2018.507446	4.578136
538.583984	799.051453	27407.005859	2030.693359	4.628848
538.931213	790.952454	28007.224609	2073.268799	4.711580
539.278381	785.528320	29218.281250	2138.135254	4.757214
539.625488	780.178528	30887.865234	2229.007568	4.812157
539.972595	785.305481	33144.582031	2331.619141	4.778579
540.319641	796.079346	35394.027344	2429.401611	4.720864
540.666687	805.144287	37369.437500	2501.624023	4.639717
541.013611	807.670593	38583.027344	2551.555420	4.616462
541.360596	801.800598	38931.285156	2551.852539	4.589760
541.707458	799.645813	38431.968750	2537.586670	4.618213
542.054260	798.159851	37300.339844	2461.872070	4.557843
542.401062	794.370361	35850.171875	2376.721191	4.513806
542.747864	791.621155	34117.207031	2268.684814	4.432221
543.094666	791.175354	32305.414063	2198.765869	4.466523
543.441284	797.714050	30511.298828	2128.995850	4.480381
543.787903	803.509583	29075.623047	2073.120117	4.490682
544.134460	798.457031	27851.929688	2016.278687	4.501535
544.481079	800.240295	27040.023438	1986.780396	4.521913
544.827637	800.686218	26407.335938	1965.975708	4.550730
545.174072	803.955505	26010.632813	1958.248047	4.579312
545.520508	812.426025	25838.697266	1949.926392	4.545225
545.866943	806.704590	25783.787109	1951.560913	4.583627
546.213318	807.150391	25806.226563	1949.034668	4.567706
546.559631	800.537537	25575.740234	1949.257446	4.636571
546.905823	807.299011	25186.318359	1907.573730	4.513203
547.252136	802.097839	24524.953125	1870.942505	4.505548
547.598389	796.599426	23764.611328	1820.193726	4.456608
547.944458	793.998840	22882.041016	1792.701782	4.521464
548.290588	793.478760	21942.634766	1751.983887	4.532120
548.636658	791.546875	21072.029297	1717.878906	4.567604
548.982727	786.122742	20333.832031	1677.829712	4.561696
549.328735	786.271423	19776.337891	1648.182983	4.538750
549.674622	790.283691	19332.529297	1628.269897	4.519335
550.020569	786.865784	19028.927734	1614.375366	4.536272
550.366455	785.082520	18834.849609	1615.638306	4.601476
550.712280	780.550110	18732.013672	1611.328735	4.627916
551.058044	786.865906	18749.326172	1622.177124	4.650316
551.403748	793.998840	18874.525391	1627.303833	4.608853
551.749512	795.262024	19040.888672	1640.307007	4.631493
552.095154	795.187683	19169.283203	1653.309937	4.670283
552.440735	796.302246	19198.189453	1664.306641	4.716931
552.786316	794.296143	19168.320313	1649.668945	4.655337
553.131897	797.268250	19017.929688	1636.814575	4.607661
553.477417	798.159851	18811.146484	1613.334839	4.525485
553.822815	799.497314	18492.537109	1604.492798	4.549787
554.168213	802.469421	18172.216797	1588.220703	4.523677
554.513672	794.221863	17880.578125	1569.645020	4.538260
554.859009	795.856445	17625.720703	1559.539917	4.537669
555.204285	791.472595	17413.511719	1550.103149	4.564004
555.549500	796.748047	17224.335938	1545.050781	4.555159
555.894714	795.262024	17057.080078	1537.694824	4.565497
556.239990	793.404480	16914.939453	1525.063354	4.538394
556.585022	792.884338	16801.033203	1527.069458	4.586321
556.930115	796.227966	16728.216797	1516.815796	4.522899
557.275146	792.735779	16646.482422	1516.518555	4.565373
557.620178	790.209473	16567.423828	1507.305054	4.545134
557.965149	785.602600	16473.728516	1508.493774	4.607887
558.310059	786.197083	16396.306641	1504.109985	4.599025
558.654968	788.203308	16291.987305	1497.645630	4.575930
558.999756	789.466492	16290.797852	1492.890259	4.537828
559.344604	791.026794	16347.713867	1494.970703	4.525024
559.689331	783.522217	16430.263672	1489.026733	4.508955
560.033997	790.209473	16436.505859	1489.249512	4.467767
560.378723	794.593262	16491.861328	1490.958496	4.436219
560.723389	792.735657	16508.802734	1502.252441	4.514595
561.067932	779.807129	16582.212891	1512.357544	4.635689
561.412476	777.280762	16535.552734	1514.438110	4.677907
561.757019	782.927795	16526.484375	1512.506226	4.634140
562.101501	794.221863	16453.892578	1507.676392	4.555999
562.445862	791.546875	16392.517578	1504.109985	4.567428
562.790222	792.215637	16322.672852	1505.521851	4.592950
563.134644	792.810059	16277.200195	1510.574341	4.635406
563.478943	796.227966	16327.354492	1519.044922	4.653989
563.823181	798.605652	16412.431641	1522.982910	4.639332
564.167358	791.769836	16606.361328	1524.394653	4.632587
564.511536	796.971008	16879.275391	1534.871460	4.588275
564.855774	790.803894	17206.949219	1554.933105	4.654742
565.199768	792.141357	17553.646484	1577.223999	4.683843
565.543823	784.636719	17826.634766	1587.403320	4.710519
565.887817	791.546875	18060.687500	1592.307251	4.636944
566.231812	788.277527	18136.031250	1594.982300	4.650197
566.575745	790.432312	18073.392578	1581.236206	4.575627
566.919617	789.614990	17851.005859	1565.929810	4.550126
567.263428	791.472595	17559.294922	1543.193237	4.483114
567.607239	789.317810	17319.517578	1539.923828	4.540816
567.950989	789.020569	17151.445313	1533.162231	4.547869
568.294678	788.500488	17047.123047	1533.236450	4.580560
568.638367	794.667664	16960.412109	1526.029297	4.524145
568.981995	792.289978	16892.052734	1513.546509	4.479920
569.325623	800.091797	16915.087891	1519.267700	4.462774
569.669128	791.546875	16981.587891	1530.487427	4.564167
570.012573	787.014404	17172.029297	1553.892944	4.680365
570.356140	790.432373	17399.095703	1567.935913	4.681313
570.699524	792.587097	17658.859375	1576.035034	4.645057
571.042908	803.212402	17916.541016	1589.260864	4.593194
571.386230	795.707825	18143.685547	1587.254517	4.562760
571.729492	796.896667	18298.531250	1586.288696	4.510390
572.072815	794.370422	18320.970703	1580.641602	4.486159
572.416016	795.559265	18224.527344	1578.858398	4.494237
572.759094	791.398254	18087.066406	1578.412720	4.550356
573.102234	792.512878	17938.906250	1568.456055	4.525402
573.445374	791.992676	17768.232422	1554.561523	4.491977
573.788391	789.466492	17610.488281	1545.570923	4.494997
574.131409	792.661438	17462.775391	1535.391479	4.455459
574.474365	783.373596	17393.896484	1531.824829	4.505886
574.817261	783.596497	17321.078125	1520.828125	4.457943
575.160156	775.051697	17226.267578	1516.444214	4.506612
575.502930	787.311707	17007.742188	1502.921021	4.411777
575.845703	792.066956	16764.031250	1497.719849	4.418072
576.188477	797.268250	16447.947266	1495.862305	4.463666
576.531250	794.221741	16175.106445	1487.986328	4.510563
576.873901	798.679993	15806.121094	1471.639648	4.484173
577.216431	793.404480	15494.867188	1446.451172	4.442052
577.559082	786.197083	15136.727539	1438.054810	4.542395
577.901611	782.036133	14875.703125	1435.528687	4.636782
578.244080	784.562439	14590.973633	1424.085938	4.632076
578.586487	794.816162	14388.424805	1408.779663	4.516560
578.928955	843.038635	14207.348633	1397.708496	4.150382
579.271301	849.651611	14046.334961	1390.501099	4.098374
579.613647	845.862122	13830.485352	1380.173218	4.114953
579.955872	793.850281	13622.214844	1365.981079	4.459889
580.298157	784.859619	13490.252930	1362.563354	4.546917
580.640320	780.921631	13442.402344	1366.872925	4.627826
580.982483	793.701660	13405.102539	1375.046265	4.609675
581.324524	799.497253	13344.545898	1374.971802	4.587265
581.666626	803.732605	13259.765625	1377.869751	4.609310
582.008728	789.837891	13228.039063	1361.523071	4.596205
582.350647	780.772949	13179.519531	1351.269287	4.601242
582.692566	783.373596	13139.543945	1340.198120	4.506449
583.034424	789.912292	13052.239258	1346.513916	4.539119
583.376343	794.444641	12991.756836	1344.359131	4.508489
583.718201	786.642883	12979.496094	1338.637817	4.527201
584.059937	780.698730	12963.448242	1328.606934	4.497410
584.401611	772.748291	12923.843750	1326.749268	4.559268
584.743347	777.132141	12892.265625	1325.040405	4.522511
585.085022	783.447937	12815.213867	1326.303589	4.511854
585.426514	799.051453	12794.333008	1324.668945	4.381869
585.768127	789.986511	12751.981445	1322.959839	4.455555
586.109619	791.101074	12747.449219	1317.089966	4.399244
586.451172	786.717285	12715.796875	1323.628540	4.500861
586.792542	799.348694	12738.682617	1317.089966	4.336433
587.133850	794.221863	12811.200195	1319.987793	4.375192
587.475220	794.296143	12912.178711	1323.851685	4.370034
587.816589	785.825684	12971.323242	1346.736816	4.603104
588.157776	787.757507	13050.159180	1349.783203	4.583325
588.498962	787.460266	13084.411133	1343.096069	4.518484
588.840210	789.614990	13143.706055	1336.483032	4.426615
589.181335	794.296082	13179.890625	1346.662598	4.459750
589.522400	791.398254	13231.604492	1353.349731	4.517220
589.863403	798.382751	13244.385742	1347.479858	4.411835
590.204407	797.491150	13204.335938	1344.730591	4.410787
590.545410	790.135071	13169.711914	1343.096069	4.466720
590.886353	793.924500	13055.359375	1329.944458	4.371593
591.227112	798.457031	12936.624023	1313.003418	4.239078
591.567932	803.509583	12839.733398	1304.755859	4.164481
591.908752	789.912170	12769.221680	1308.842407	4.331888
592.249512	784.042297	12792.551758	1313.597778	4.409835
592.590149	783.596436	12769.889648	1316.495605	4.445905
592.930786	786.791504	12840.997070	1324.817505	4.463388
593.271423	782.704834	12891.820313	1335.814087	4.567710
593.612000	784.339539	12971.917969	1343.541870	4.588297
593.952576	775.274597	13119.706055	1350.600464	4.660610
594.292969	771.485168	13231.010742	1349.114380	4.636045
594.633484	773.268372	13435.640625	1360.557129	4.638062
594.973877	782.630554	13611.589844	1365.015259	4.539610
595.314209	786.791504	13883.018555	1385.151367	4.568949
595.654480	788.203308	14181.120117	1396.519531	4.542074
595.994812	787.014404	14499.209961	1411.826050	4.556613
596.335022	789.912170	14751.541992	1424.383179	4.544391
596.675171	790.135071	14814.625977	1429.955933	4.562168
597.015320	795.782227	14711.418945	1425.423462	4.524703
597.355408	797.342529	14443.186523	1407.590820	4.472045
597.695496	792.810059	14122.273438	1375.120483	4.368597
598.035461	793.330139	13729.286133	1350.303345	4.305621
598.375366	792.364258	13331.468750	1336.557373	4.339968
598.715271	798.382751	12954.085938	1327.269531	4.350935
599.055176	794.221741	12605.828125	1324.148804	4.486495
599.395081	789.020569	12367.985352	1310.105591	4.500273
599.734802	783.968018	12155.776367	1303.121216	4.565265
600.074524	785.528320	12021.065430	1299.183105	4.571698
600.414246	792.289856	11927.593750	1290.118286	4.470722
600.753906	802.395081	11933.090820	1291.009888	4.389796
601.093506	802.543640	11989.413086	1292.421509	4.379044
601.433044	803.063782	12093.659180	1302.229370	4.421074
601.772583	799.794434	12284.915039	1313.374878	4.471703
602.112122	808.636536	12534.348633	1327.269653	4.423042
602.451538	807.224792	12868.860352	1339.603882	4.413822
602.790894	793.627380	13213.252930	1360.705688	4.565985
603.130310	783.002014	13644.877930	1372.074097	4.579986
603.469604	782.927734	14017.059570	1400.977905	4.670123
603.808838	789.020569	14360.338867	1404.915894	4.538213
604.148010	782.036133	14573.883789	1416.804199	4.602488
604.487305	777.577942	14688.237305	1403.801270	4.501751
604.826416	780.847351	14636.893555	1404.247070	4.499117
605.165527	782.036133	14424.386719	1399.343140	4.524931
605.504456	788.351868	14090.098633	1392.953125	4.545277
605.843445	788.054688	13659.663086	1365.981079	4.489932
606.182434	795.559265	13226.848633	1339.603760	4.376412
606.521423	791.398254	12858.457031	1325.040405	4.422305
606.860229	794.073181	12554.187500	1319.616333	4.468861
607.199036	793.924561	12355.354492	1300.297485	4.379847
607.537903	795.707825	12254.897461	1291.307007	4.324906
607.876648	793.627380	12276.890625	1290.638306	4.328133
608.215271	795.930847	12412.938477	1309.139648	4.417737
608.553955	796.005066	12609.468750	1320.730835	4.441761
608.892578	796.822449	12803.398438	1327.938232	4.423541
609.231140	796.302246	12937.441406	1338.637817	4.466925
609.569641	792.810059	12954.828125	1334.699829	4.455591
609.908081	791.769714	12901.405273	1331.430420	4.456457
610.246521	792.810059	12748.117188	1317.535767	4.389061
610.584961	797.936829	12511.092773	1302.378052	4.306621
610.923340	794.667664	12217.225586	1286.031372	4.301696
611.261597	798.011230	11881.450195	1265.969849	4.222143
611.599854	801.280518	11593.156250	1250.291992	4.160644
611.938110	805.070007	11354.941406	1241.004028	4.132126
612.276245	794.890564	11172.083008	1233.648071	4.228095
612.614319	793.701660	11000.815430	1226.366333	4.238854
612.952393	797.714050	10840.469727	1217.747192	4.182449
613.290466	806.556091	10694.390625	1211.134277	4.091676
613.628479	804.847168	10553.215820	1213.512085	4.192136
613.966370	798.977112	10426.530273	1213.660645	4.307258
614.304260	792.364258	10303.854492	1213.512085	4.427780
614.642151	787.014404	10199.311523	1203.555542	4.425499
614.979980	784.265198	10128.872070	1200.657715	4.455966
615.317749	784.116516	10097.368164	1189.438110	4.352095
615.655396	783.373535	10067.349609	1192.261597	4.404234
615.993164	779.584167	10076.340820	1193.227417	4.449328
616.330811	780.624329	10059.473633	1203.852661	4.561215
616.668396	785.899902	10065.343750	1206.601929	4.533699
617.005859	794.147461	10050.854492	1209.128296	4.483029
617.343445	792.215576	10060.215820	1205.933228	4.463937
617.680908	792.587097	10087.411133	1199.988892	4.383104
618.018311	789.614990	10107.993164	1194.936401	4.349699
618.355652	790.209473	10119.213867	1190.403931	4.289788
618.692993	791.323914	10066.829102	1189.586548	4.293703
619.030273	796.896667	10019.647461	1189.735229	4.259451
619.367554	798.308411	9985.765625	1190.106812	4.264493
619.704712	795.336426	9995.350586	1187.877563	4.266745
620.041870	795.485046	9967.264648	1185.722778	4.254766
620.379028	794.370422	9874.459961	1188.397705	4.339465
620.716064	795.484924	9790.200195	1184.162476	4.321177
621.053040	795.559265	9760.034180	1184.385376	4.337411
621.389954	795.262024	9743.166992	1176.657837	4.262403
621.726929	799.497314	9723.773438	1174.205933	4.198756
622.063843	798.902893	9677.334961	1169.301880	4.171896
622.400635	798.902832	9668.046875	1179.555664	4.291878
622.737427	788.128967	9707.129883	1188.323364	4.486987
623.074219	785.751221	9748.442383	1195.753540	4.574544
623.410889	784.710999	9789.903320	1194.193359	4.547181
623.747559	788.128967	9805.209961	1185.871460	4.410989
624.084167	787.683167	9823.191406	1179.258423	4.333738
624.420715	788.723450	9896.379883	1177.475220	4.268406
624.757324	786.419983	9976.626953	1190.032349	4.391766
625.093750	788.203308	10106.062500	1200.954956	4.429683
625.430176	791.026672	10270.270508	1209.276855	4.412273
625.766602	799.051453	10428.833008	1218.490356	4.355643
626.102905	789.912292	10631.828125	1221.908203	4.389348
626.439209	789.466492	10758.587891	1223.319946	4.351973
626.775452	783.596497	10855.181641	1220.421997	4.337207
627.111694	787.385925	10832.964844	1219.233276	4.298880
627.447876	784.710999	10758.885742	1214.180786	4.305818
627.783997	784.190918	10636.360352	1208.013672	4.301821
628.120056	792.364258	10532.411133	1199.914673	4.184276
628.456055	798.977112	10348.437500	1192.410156	4.119951
628.792053	803.286682	10206.742188	1191.592773	4.129398
629.128052	791.621155	10030.718750	1186.243042	4.271217
629.463928	784.488098	9949.581055	1178.515503	4.299219
629.799744	782.184753	9853.877930	1172.719849	4.304986
630.135559	791.398376	9752.529297	1169.376343	4.217972
630.471375	792.884338	9644.493164	1172.051147	4.283592
630.807068	799.125732	9560.902344	1170.787964	4.241859
631.142700	803.435303	9504.730469	1166.032593	4.167165
631.478333	805.515808	9457.102539	1158.453735	4.079459
631.813965	800.463196	9408.508789	1151.766479	4.081104
632.149475	793.478760	9348.099609	1151.766479	4.188236
632.484924	797.268127	9341.709961	1164.472168	4.297578
632.820435	797.045227	9299.356445	1168.113037	4.364317
633.155884	797.639709	9322.464844	1168.335815	4.348431
633.491150	795.113464	9322.761719	1161.425781	4.295584
633.826477	802.841003	9347.653320	1157.785034	4.153913
634.161804	807.001892	9321.423828	1162.614624	4.176593
634.497009	808.859375	9260.570313	1160.459839	4.160110
634.832153	797.342529	9172.224609	1153.624023	4.254168
635.167297	790.580994	9064.485352	1140.100952	4.224366
635.502380	781.070251	8947.905273	1135.196899	4.336155
635.837463	785.676941	8860.525391	1138.020386	4.363468
636.172424	791.844055	8769.801758	1133.339355	4.280485
636.507324	796.079346	8699.436523	1122.491211	4.130041
636.842224	795.484924	8631.153320	1112.683228	4.048133
637.177124	787.088684	8557.816406	1109.562622	4.149855
637.511963	786.642883	8462.113281	1108.225220	4.189741
637.846741	780.550049	8370.499023	1103.321167	4.252613
638.181396	784.562439	8286.907227	1098.119873	4.179459
638.516113	786.568604	8251.762695	1092.026978	4.091767
638.850769	788.797668	8192.171875	1089.129272	4.056685
639.185303	787.980408	8133.844238	1093.215942	4.155203
639.519836	785.751221	8042.601074	1090.540894	4.200027
639.854370	781.515930	7982.192871	1090.095215	4.285420
640.188843	785.528320	7944.595215	1081.921997	4.140116
640.523254	792.512878	7919.109375	1094.033325	4.230918
640.857605	797.491211	7873.189941	1094.479126	4.197295
641.191895	794.444641	7795.470215	1104.807129	4.433100
641.526184	789.689270	7715.445801	1101.091919	4.496298
641.860413	791.546875	7661.576660	1099.605957	4.484101
642.194580	788.351868	7647.607910	1093.364624	4.446733
642.528748	786.791504	7652.511719	1083.630859	4.323499
642.862793	795.707825	7649.614746	1085.414185	4.226879
643.196838	797.342468	7624.128418	1087.271851	4.246938
643.530823	798.531311	7596.486816	1093.513062	4.339272
643.864746	796.525146	7564.760254	1087.940430	4.305632
644.198669	802.172180	7560.302246	1079.246948	4.099874
644.532532	807.299072	7534.222168	1078.206787	4.027216
644.866333	798.828613	7528.054688	1076.200684	4.121902
645.200073	805.218567	7504.724121	1082.813477	4.143514
645.533813	799.794495	7525.676270	1081.847656	4.193549
645.867554	802.320801	7542.915527	1087.123169	4.225182
646.201172	790.580994	7589.205566	1076.646362	4.207695
646.534729	794.444641	7583.187012	1066.838501	4.012435
646.868225	792.512756	7584.673340	1062.083008	3.968844
647.201782	795.187683	7559.484375	1072.634155	4.101631
647.535217	793.701660	7599.979004	1085.042603	4.280474
647.868591	797.342468	7605.181152	1085.488403	4.232561
648.201965	792.661377	7577.837402	1082.293335	4.268599
648.535278	786.717102	7505.169434	1076.274902	4.309888
648.868591	783.596497	7469.578125	1077.240723	4.391939
649.201782	787.237305	7472.327637	1067.730103	4.195796
649.534912	794.519043	7488.451172	1077.166626	4.222445
649.868103	793.924561	7493.280762	1073.154175	4.168006
650.201172	795.559265	7508.438965	1087.197388	4.344456
650.534180	785.454102	7526.122559	1081.030396	4.384970
650.867188	792.735657	7520.697754	1077.538086	4.233116
651.200134	795.336243	7511.410645	1073.154175	4.136612
651.533020	804.846985	7469.058594	1070.182129	3.981493
651.865845	798.457031	7450.036621	1079.915894	4.231459
652.198608	790.655273	7407.312988	1080.733032	4.384053
652.531433	785.231140	7394.978516	1075.977661	4.398754
652.864136	787.460266	7371.498535	1070.182129	4.294050
653.196777	904.932800	7471.361816	1178.218384	4.161860
653.529358	908.796570	7424.402344	1180.150146	4.164671
653.861938	901.291992	7365.554199	1180.075806	4.312694
654.194519	791.844055	7171.400879	1066.244141	4.301240
654.526978	794.964783	7127.785156	1067.061401	4.296610
654.859375	799.348633	7084.541016	1067.730103	4.270060
655.191833	792.289978	7074.361816	1062.603149	4.302930
655.524170	779.955566	7067.005859	1057.922119	4.421256
655.856445	778.618164	7062.250488	1055.915894	4.413016
656.188660	794.296082	7100.813965	1064.535034	4.285074
656.520874	799.868835	7120.207031	1063.420532	4.169899
656.853088	801.131897	7178.460449	1070.033447	4.216523
657.185181	791.992676	7204.763672	1070.033447	4.335735
657.517212	792.958679	7318.224121	1071.222290	4.264403
657.849243	793.107239	7444.687500	1071.742554	4.189009
658.181274	785.379700	7656.970215	1075.828979	4.226813
658.513123	791.026794	7838.417480	1084.745483	4.167765
658.844971	791.621155	8028.706543	1094.404785	4.183779
659.176819	800.091614	8124.259766	1095.816528	4.037659
659.508667	792.810059	8199.007813	1101.760742	4.171515
659.840393	788.500488	8194.177734	1094.107544	4.126659
660.172058	785.899902	8121.658691	1096.485229	4.233854
660.503662	788.723389	7956.558105	1089.649414	4.198283
660.835266	797.342529	7782.318359	1084.151001	4.106077
661.166931	789.912292	7608.673340	1070.256470	4.111365
661.498413	788.574768	7452.117188	1068.027344	4.193754
661.829773	782.036133	7270.372559	1062.900391	4.328756
662.161194	795.410645	7121.618652	1054.578491	4.096733
662.492615	794.518982	6999.464844	1043.878906	4.018728
662.823975	800.463318	6897.224121	1037.488892	3.887730
663.155212	794.296143	6806.203613	1044.250488	4.157655
663.486450	799.720215	6719.195313	1047.965698	4.193708
663.817627	798.977112	6659.901855	1051.086304	4.301526
664.148743	805.218567	6609.895996	1037.711792	4.005274
664.479858	801.875000	6563.084473	1021.736755	3.816243
664.810913	800.908997	6514.713379	1017.427185	3.789388
665.141907	799.051453	6473.476074	1018.244568	3.862825
665.472778	801.949219	6433.277344	1023.074219	3.926694
665.803711	800.834717	6429.859863	1016.089783	3.824020
666.134583	792.735657	6402.888184	1016.981384	3.997142
666.465454	788.649109	6389.662598	1022.479736	4.174791
666.796143	789.094910	6362.839355	1022.851257	4.193883
667.126831	791.101074	6352.064941	1035.631226	4.397262
667.457458	794.890442	6353.477051	1028.126709	4.195964
667.788147	798.234131	6362.318848	1033.699463	4.231879
668.118774	798.457031	6371.904785	1018.690247	3.951472
668.449219	795.336365	6381.118652	1026.640625	4.140946
668.779663	795.113464	6407.718262	1032.139160	4.223096
669.110107	792.661438	6420.943848	1042.318604	4.435761
669.440552	789.837891	6430.306152	1033.773804	4.324746
669.770874	785.528320	6380.077637	1025.749146	4.293837
670.101135	790.878174	6343.966309	1019.061829	4.109131
670.431396	794.073181	6276.500000	1025.451782	4.220368
670.761597	798.754211	6232.140625	1023.891418	4.143589
671.091797	798.159851	6197.070313	1018.095886	4.073711
671.421875	795.187744	6189.714355	1014.900879	4.072890
671.751892	793.553040	6177.899902	1014.083557	4.095771
672.081909	794.370422	6151.447754	1009.625305	4.018140
672.411865	794.593262	6106.271484	1002.195068	3.908403
672.741821	793.850281	6063.398926	996.325195	3.842358
673.071716	789.169189	6028.031250	1004.572815	4.111649
673.401550	788.797668	5990.285156	1003.681152	4.131193
673.731262	788.946289	5978.322754	1001.749329	4.100744
674.060974	792.587097	5956.031738	992.238525	3.866632
674.390625	797.565430	5928.763184	989.117859	3.733094
674.720276	793.998840	5884.106934	996.993896	3.988030
675.049927	791.472595	5865.233887	994.839172	4.008202
675.379395	797.565430	5850.299316	999.743103	4.001352
675.708923	795.039063	5828.306152	996.399414	4.000589
676.038330	796.525208	5810.101563	1000.263184	4.063725
676.367737	784.785339	5787.810547	999.148682	4.284674
676.697083	787.014465	5770.720703	991.198242	4.097027
677.026428	793.998840	5745.160645	986.517273	3.888349
677.355652	800.388916	5768.937500	979.904297	3.613034
677.684875	802.766602	5820.726563	987.408875	3.679628
678.013977	796.896667	5874.670410	994.467590	3.890896
678.343079	794.964783	5916.279785	1001.006165	4.023212
678.672180	793.330078	5968.589355	998.554199	3.965485
679.001221	785.305481	6041.628906	998.479980	4.055582
679.330139	784.859619	6123.436035	1002.120789	4.069646
679.659058	781.144531	6185.998535	1011.854492	4.268570
679.987976	786.717224	6266.765625	1022.702637	4.306265
680.316772	786.419983	6309.415527	1024.560181	4.311794
680.645630	786.865784	6343.148926	1027.458008	4.330093
680.974304	785.082520	6305.700684	1024.114380	4.329803
681.302979	782.927734	6291.731934	1023.297119	4.363368
681.631653	784.042297	6257.181152	1018.170166	4.277762
681.960266	783.522217	6226.865234	1011.557190	4.189245
682.288757	788.426086	6167.125488	1009.996887	4.119412
682.617249	789.837891	6095.274902	1004.424133	4.044648
682.945679	792.141296	6021.863770	997.885559	3.934133
683.274109	788.872009	5934.261230	993.055847	3.968287
683.602478	796.376526	5856.912109	991.867004	3.863039
683.930725	798.902832	5756.975098	994.096130	3.936879
684.259033	803.732605	5678.808594	992.981628	3.881971
684.587280	800.463196	5593.137207	988.597717	3.925461
684.915344	801.726379	5556.134277	985.774109	3.871097
685.243469	798.234131	5516.234375	985.476868	3.968689
685.571533	804.847107	5499.367188	977.303650	3.673571
685.899536	808.487854	5466.822754	984.808289	3.785053
686.227539	808.710876	5467.046387	976.560730	3.603215
686.555420	796.971008	5477.373535	977.898132	3.865632
686.883301	785.305481	5502.859375	969.130371	3.896615
687.211121	779.955627	5532.134766	974.108704	4.085559
687.538940	777.355042	5547.143066	985.848572	4.371128
687.866638	783.670715	5556.951660	986.442932	4.248068
688.194336	792.735657	5539.639160	986.517273	4.082274
688.521973	793.255798	5505.683594	973.811523	3.831480
688.849609	790.803894	5454.488770	971.805359	3.881083
689.177063	785.974182	5389.250488	962.071716	3.825483
689.504578	795.410645	5335.604004	968.387390	3.809898
689.832031	790.729553	5273.486816	970.988037	4.021152
690.159485	795.336365	5195.988770	971.656738	4.006687
690.486816	792.958557	5106.751465	961.774414	3.913397
690.814087	800.388916	5045.525879	955.012939	3.642380
691.141296	795.410645	4987.867188	952.486633	3.746634
691.468506	791.324036	4936.523926	955.904541	3.970388
691.795715	789.540710	4863.781738	954.269836	4.043186
692.122803	791.546936	4826.333496	963.929199	4.272401
692.449829	788.946289	4813.627441	963.854919	4.345901
692.776855	791.769836	4786.061523	964.077820	4.313856
693.103821	793.181580	4754.854004	956.647522	4.126185
693.430664	794.147461	4714.582031	960.139709	4.234027
693.757568	790.506653	4708.117676	957.836365	4.271218
694.084351	783.373535	4700.539063	959.991150	4.508811
694.411133	782.407532	4680.402832	957.464844	4.490957
694.737854	785.305420	4661.529785	959.099609	4.483595
695.064575	792.141296	4652.762207	947.433899	4.022478
695.391174	797.936951	4672.378418	946.468018	3.833612
695.717773	798.085510	4707.597168	949.663086	3.877149
696.044250	795.262024	4742.371094	954.046936	4.022815
696.370789	790.358093	4789.553223	948.474182	3.953698
696.697205	782.407715	4847.435059	941.118347	3.904294
697.023621	780.327148	4959.409668	947.879822	4.009317
697.349915	789.614990	5108.312012	948.994324	3.690449
697.676208	795.559265	5272.075195	963.780579	3.757862
698.002380	796.450867	5437.027344	968.907471	3.716275
698.328674	794.296082	5586.004395	980.127258	3.878182
698.654724	792.289856	5733.271973	980.275818	3.804628
698.980896	793.330078	5845.246094	997.737000	4.046127
699.306946	787.460205	5886.410156	1006.504639	4.295873
699.632935	790.580872	5854.236816	1005.910339	4.252451
699.958862	796.896667	5753.556641	997.588379	4.048930
700.284729	805.738708	5602.053223	988.671936	3.814037
700.610596	804.252625	5444.605957	984.808289	3.890989
700.936340	799.720215	5255.505859	964.375000	3.695303
701.262146	795.484924	5087.581543	952.858093	3.666580
701.587830	797.862610	4919.583496	945.502136	3.581988
701.913513	798.531433	4783.386230	943.421631	3.636022
702.239075	792.735657	4648.601074	938.294739	3.775004
702.564697	787.831726	4532.168457	933.390808	3.887446
702.890137	786.865723	4425.395996	925.960510	3.822829
703.215698	792.364197	4352.281738	923.731445	3.690177
703.541016	795.113342	4280.134277	916.301208	3.477393
703.866455	789.466370	4240.604980	915.929688	3.664394
704.191711	790.358093	4193.125488	915.632385	3.681541
704.517029	794.816223	4153.373535	925.143127	3.880443
704.842163	797.639709	4117.262207	929.749939	3.979676
705.167419	791.992676	4106.191406	930.938782	4.192450
705.492493	790.506653	4113.547363	923.211243	3.993469
705.817566	791.695496	4114.735840	920.462097	3.874964
706.142578	799.497253	4100.246582	922.914063	3.739054
706.467590	798.085510	4101.436035	923.582825	3.799092
706.792480	798.457031	4087.169922	933.465088	4.105195
707.117371	797.491150	4086.500977	931.904724	4.086749
707.442200	800.463196	4090.067383	935.174072	4.095048
707.766907	798.011230	4091.182373	928.189636	3.952980
708.091675	800.240234	4109.014648	926.332031	3.810831
708.416321	799.422852	4091.776611	925.291809	3.823069
708.741028	803.138000	4100.246582	923.582825	3.653044
709.065552	806.853210	4117.931152	923.731445	3.529915
709.390137	804.104004	4140.890625	926.629211	3.671952
709.714600	804.475586	4172.691895	923.508484	3.534004
710.039063	795.707825	4207.985840	920.462097	3.656041
710.363403	803.063782	4269.880371	921.799500	3.424921
710.687744	803.806885	4313.867676	920.833557	3.334035
711.012085	796.005066	4359.786621	923.805664	3.586095
711.336304	782.036133	4394.560059	919.719055	3.811267
711.660461	781.070129	4431.414551	935.025391	4.217554
711.984619	790.209412	4428.665527	939.855164	4.112892
712.308716	791.769836	4396.863770	937.774658	4.049959
712.632751	791.175354	4356.294434	921.353760	3.651446
712.956726	793.776062	4302.722168	918.827454	3.563788
713.280701	794.370422	4249.818359	922.839844	3.717880
713.604553	794.816223	4186.810059	935.174133	4.137918
713.928467	792.289856	4141.336426	929.155579	4.086707
714.252258	796.896667	4122.166504	925.737610	3.874601
714.575989	797.788330	4111.541504	916.969910	3.596574
714.899719	799.051453	4107.751465	920.907898	3.682910
715.223267	794.816223	4091.999268	918.158752	3.740846
715.546936	797.936829	4074.984375	923.508484	3.831853
715.870422	795.113464	4060.940674	928.189636	4.074808
716.193970	798.605652	4056.037109	927.000793	3.941607
716.517395	795.559265	4052.024658	918.976074	3.789901
716.840820	803.212402	4024.607178	911.991516	3.376771
717.164124	798.754211	3939.233154	910.282654	3.551319
717.487488	801.132019	3865.004639	912.214539	3.625559
717.810730	792.661438	3800.361328	914.294983	4.044072
718.133972	796.970947	3760.163330	911.099915	3.851554
718.457092	785.528320	3706.962891	901.812195	3.980369
718.780212	792.067078	3657.105469	889.775085	3.410356
719.103210	788.277588	3613.118408	891.335449	3.648272
719.426208	796.673828	3573.886719	889.329285	3.336275
719.749207	793.850281	3536.661133	892.598572	3.600259
720.072083	797.713928	3510.209229	883.162109	3.150169
720.394958	794.444641	3476.475830	892.895752	3.670767
720.717773	790.135193	3447.051758	890.518066	3.778172
721.040527	788.946289	3410.940674	897.131104	4.126050
721.363281	789.986511	3392.736328	895.942200	4.070913
721.685913	788.649109	3361.232422	903.075256	4.447908
722.008545	794.667542	3342.656494	910.208313	4.534587
722.331055	792.587158	3310.409180	901.291992	4.317415
722.653503	793.107239	3290.867432	897.874084	4.194432
722.976013	782.779236	3278.384766	889.626465	4.281415
723.298401	785.082520	3280.093750	897.131042	4.490902
723.620789	789.763611	3286.260986	885.093994	3.818565
723.943115	798.085449	3288.266846	883.459290	3.428419
724.265381	799.497253	3293.468018	876.994934	3.107401
724.587585	795.856445	3291.090576	887.545959	3.674586
724.909790	790.432312	3278.533203	886.357178	3.855345
725.231873	790.729553	3285.294922	884.945374	3.776843
725.553894	788.277527	3293.393799	883.013489	3.781699
725.875916	855.001465	3372.897705	949.663086	3.759552
726.197937	864.214905	3379.213623	954.715637	3.598440
726.519775	867.707214	3402.247314	957.093445	3.526724
726.841675	798.308411	3380.625244	897.131104	3.826900
727.163513	792.438538	3407.820313	898.840027	4.068296
727.485291	788.426208	3432.042725	897.576904	4.128840
727.806946	806.778992	3453.144531	898.096985	3.450695
728.128662	802.915222	3471.869141	902.332275	3.724945
728.450256	810.716980	3496.537354	900.028809	3.325309
728.771790	799.348694	3497.280518	902.778015	3.833652
729.093323	796.450867	3501.590088	893.267273	3.578981
729.414795	799.274414	3471.274658	897.576843	3.678983
729.736145	799.497314	3454.482178	890.443787	3.425499
730.057495	807.150452	3445.343018	887.843262	3.058640
730.378845	803.881165	3450.766846	883.013611	2.989643
730.700134	803.361023	3477.887451	887.174500	3.133769
731.021301	795.559265	3503.150391	889.700745	3.476946
731.342468	789.689270	3531.162354	889.997986	3.658935
731.663574	783.076355	3530.791016	884.722473	3.699297
731.984680	780.995850	3524.029297	888.660461	3.925020
732.305664	786.122803	3527.893311	892.078430	3.864496
732.626648	790.580994	3534.208984	895.942200	3.840215
732.947571	793.404480	3526.778564	892.821533	3.637155
733.268433	791.026794	3502.333008	889.477844	3.631130
733.589233	792.067078	3470.160156	886.505798	3.526342
733.909973	800.017395	3437.466797	884.202393	3.191909
734.230713	798.308411	3396.748779	883.830872	3.291300
734.551331	795.856445	3345.331299	880.264343	3.310796
734.871948	788.723328	3293.913818	887.843201	3.956580
735.192505	788.426208	3250.223877	886.877258	3.999153
735.513062	791.175354	3214.856201	893.267273	4.212267
735.833435	788.203308	3173.246338	891.855530	4.345927
736.153931	787.534607	3136.986572	893.638855	4.516128
736.474304	785.676941	3117.742188	889.477844	4.451029
736.794617	789.689270	3113.729736	889.626465	4.300148
737.114807	802.395203	3096.937500	883.607910	3.539386
737.434998	803.658264	3089.358643	886.728699	3.634354
737.755188	803.435364	3081.408203	889.254883	3.767364
738.075256	793.032898	3106.819580	889.254883	4.158637
738.395325	788.277527	3129.259033	885.391174	4.148416
738.715271	786.865784	3177.630127	874.988953	3.685983
739.035278	787.683105	3207.499756	874.394531	3.583388
739.355164	783.076355	3222.137451	875.211731	3.777494
739.675049	788.723389	3210.843506	873.577087	3.503282
739.994873	785.677002	3188.255127	876.103333	3.763721
740.314636	795.559265	3148.726318	871.868164	3.242817
740.634277	795.707825	3101.916016	874.320129	3.408725
740.953979	793.404480	3060.306396	876.029053	3.644824
741.273499	789.466370	3031.848389	879.447021	4.012726
741.593140	787.385925	3008.888672	879.892883	4.164161
741.912598	794.296082	2978.944580	874.617371	3.676623
742.232117	799.423035	2946.920166	874.988831	3.518785
742.551453	791.844055	2907.019531	871.347961	3.758738
742.870850	788.128906	2880.344971	868.450195	3.839053
743.190063	787.237305	2844.233643	864.437805	3.753069
743.509338	790.135193	2817.930664	869.416077	3.909708
743.828552	792.661438	2795.565430	881.750427	4.447991
744.147705	785.454102	2782.413818	881.676086	4.818424
744.466797	789.837952	2779.442139	878.703918	4.466515
744.785828	782.110413	2764.953125	871.050781	4.485498
745.104858	783.968018	2764.655518	883.162109	5.008064
745.423706	781.367432	2758.191162	879.595520	4.968986
745.742615	788.649109	2742.141602	874.468750	4.393139
746.061401	795.856384	2739.615234	859.311035	3.264533
746.380249	798.234070	2712.346436	864.140625	3.443192
746.698975	801.057617	2692.210693	864.586426	3.359263
747.017639	808.562195	2669.473877	864.660828	3.014578
747.336304	814.357849	2672.594482	864.512207	2.699030
747.654907	806.630371	2686.117920	871.719543	3.463134
747.973389	805.292908	2678.018555	872.165344	3.570862
748.291931	798.457031	2679.579102	868.078674	3.701070
748.610352	803.955505	2691.318848	862.134460	3.082552
748.928711	798.159851	2720.668213	862.357422	3.339261
749.247070	804.326965	2734.191406	867.038513	3.249531
749.565308	797.862610	2733.968506	862.951843	3.361863
749.883545	794.593323	2708.408447	868.153015	3.843615
750.201782	785.825623	2689.312744	862.580261	4.032317
750.519836	790.432434	2676.012451	866.815491	4.050905
750.837952	785.082581	2672.743164	861.911621	4.070066
751.155884	784.710999	2655.281982	862.134460	4.139028
751.473877	784.190918	2642.576416	864.437805	4.318097
751.791809	793.330139	2628.607422	865.849609	3.951417
752.109619	799.943115	2635.963135	868.301575	3.723187
752.427490	801.800598	2623.777832	868.450195	3.658092
752.745300	801.577698	2626.081299	866.444031	3.555287
753.062988	795.707825	2627.195557	872.908386	4.215183
753.380615	792.884277	2637.523682	869.193176	4.136792
753.698303	789.466492	2643.468018	870.827881	4.388421
754.015808	792.661438	2641.684570	854.332703	3.335343
754.333374	786.568604	2629.498779	853.961182	3.656817
754.650757	780.029968	2617.981934	850.914734	3.856726
754.968262	776.091980	2597.771729	860.202576	4.617200
755.285583	784.190918	2595.988525	860.499817	4.211778
755.602905	790.060852	2602.824219	861.540039	3.943106
755.920105	792.289978	2600.446777	853.738281	3.398395
756.237305	795.707825	2598.143311	846.382324	2.811446
756.554443	794.964783	2592.050537	844.896301	2.778472
756.871582	797.045227	2596.954346	852.697998	3.091977
757.188599	794.741882	2610.031494	858.865173	3.532400
757.505615	793.478821	2622.365967	857.824890	3.518318
757.822510	799.794617	2649.635010	858.642273	3.181229
758.139465	800.537537	2672.148682	865.626709	3.477708
758.456238	806.481750	2697.337158	871.050842	3.414809
758.773010	797.639709	2733.745850	876.697815	4.083356
759.089783	788.946289	2754.996338	878.035339	4.531373
759.406433	786.271301	2767.330811	874.988953	4.478293
759.723145	782.556335	2763.318359	865.478088	4.186356
760.039673	789.763672	2777.881592	858.345032	3.449562
760.356201	788.351868	2782.562500	856.264587	3.405494
760.672668	793.627258	2778.996094	856.190247	3.151202
760.989136	792.289856	2763.763672	855.372864	3.199789
761.305481	789.020691	2751.429688	859.385315	3.585625
761.621826	778.543945	2747.565674	870.902283	4.690570
761.938049	784.339539	2755.590576	873.056946	4.500564
762.254333	793.404480	2791.776123	872.388184	3.952403
762.570496	802.320801	2872.171875	869.713379	3.255914
762.886597	790.952454	3007.031250	871.496582	3.634533
763.202637	778.989746	3200.218506	875.954773	4.004786
763.518677	777.206482	3441.627686	873.577148	3.616946
763.834656	792.364258	3655.471436	886.431458	3.285493
764.150574	795.633545	3799.172607	886.431458	3.023031
764.466370	797.416809	3829.116455	894.010315	3.186117
764.782288	788.946350	3750.132813	887.174500	3.317189
765.097961	788.723450	3597.440674	885.985657	3.462869
765.413696	786.419983	3408.191406	882.270508	3.655945
765.729309	781.367371	3245.914063	876.920715	3.877116
766.044861	781.144531	3115.884521	879.967102	4.232701
766.360474	784.116638	3015.501709	872.611145	3.965900
766.675903	787.757507	2928.716064	875.063171	4.077878
766.991394	787.460266	2860.431641	867.038513	3.838849
767.306763	792.141357	2792.742188	867.781433	3.780868
767.622131	796.079346	2735.826172	864.214844	3.512598
767.937378	799.720215	2667.096191	860.574036	3.258788
768.252625	798.828613	2620.211182	858.642273	3.283970
768.567810	796.302246	2575.406494	857.230469	3.424657
768.882996	794.741882	2558.985596	852.177917	3.255561
769.197998	784.711121	2536.695068	852.400818	3.863603
769.513062	782.630615	2524.212158	846.085144	3.643500
769.828064	781.961853	2490.255615	851.583496	4.075508
770.142944	786.865784	2451.023682	850.766113	3.839800
770.457825	787.385925	2414.392578	849.651550	3.827005
770.772705	784.116638	2375.755127	853.069519	4.332195
771.087402	785.008240	2353.093018	852.326477	4.293023
771.402100	787.906067	2336.300537	860.945740	4.717123
771.716736	791.992676	2325.526611	859.682434	4.413972
772.031372	791.472656	2300.858154	862.357422	4.696267
772.345947	787.088684	2281.762451	852.400879	4.369662
772.660461	785.305481	2265.935791	849.725891	4.350877
772.974854	789.912292	2265.489990	846.159424	3.811872
773.289246	796.896667	2250.926758	849.131531	3.592420
773.603638	796.599426	2244.165283	843.781738	3.259424
773.917908	793.924622	2239.484131	844.227539	3.479823
774.232178	785.676941	2233.242432	842.072754	3.895908
774.546265	787.831726	2213.775391	840.586731	3.699656
774.860474	785.825500	2189.478516	834.865417	3.493735
775.174561	785.751282	2183.162842	839.323547	3.833678
775.488586	792.810059	2181.602295	844.896240	3.750466
775.802551	801.057617	2180.264648	843.187256	3.054628
776.116516	804.252686	2171.571289	841.552551	2.727957
776.430359	801.280579	2170.085205	837.688904	2.659863
776.744202	801.057617	2159.608643	844.747620	3.215926
777.057922	808.042053	2154.258789	844.970642	2.743138
777.371704	807.744873	2139.843994	852.921082	3.391355
777.685303	796.450867	2128.549805	851.880676	4.161088
777.998962	789.614990	2112.574951	850.766113	4.622296
778.312500	786.494324	2100.686523	844.153137	4.387396
778.626038	787.460266	2100.315186	837.837463	3.837225
778.939453	790.358093	2090.952881	836.351379	3.536327
779.252869	792.289856	2091.101318	838.060364	3.524030
779.566223	791.546875	2087.386230	841.032532	3.818811
779.879578	786.865906	2092.587646	843.187256	4.313427
780.192749	790.060852	2094.519287	837.466003	3.634087
780.505920	784.190918	2091.250244	832.933533	3.729182
780.819031	790.952454	2079.807373	828.029480	2.876741
781.132141	788.946289	2063.460693	843.855957	4.308281
781.445190	797.119629	2050.606445	849.205750	4.155299
781.758118	796.227966	2046.668457	852.623718	4.510071
782.071045	794.518982	2042.656128	838.580505	3.530183
782.383911	793.627380	2027.201050	839.917969	3.752559
782.696838	803.286804	2008.253906	836.128601	2.725535
783.009583	806.630371	1993.096191	842.592834	3.031058
783.322266	807.893555	1989.529663	844.004578	3.056019
783.634888	797.491028	1983.956909	843.633057	3.889031
783.947510	792.810059	1977.121094	840.512390	4.027855
784.260132	789.986511	1971.325562	833.379333	3.673189
784.572571	781.961853	1955.127441	837.763184	4.756475
784.885010	776.983582	1953.641235	835.979980	5.013896
785.197449	779.584167	1947.697266	835.682800	4.802500
785.509766	786.568665	1956.762085	830.110046	3.720871
785.822083	788.723389	1955.796265	827.509460	3.323363
786.134277	794.816223	1951.783813	833.973816	3.384502
786.446533	794.593262	1953.269897	837.094482	3.668083
786.758606	796.673767	1945.616821	836.425781	3.459877
787.070740	790.506653	1951.041016	831.298828	3.514947
787.382690	790.209412	1956.464844	832.041809	3.586899
787.694641	800.463196	1991.684448	832.636230	2.700845
788.006653	804.029724	2020.365234	837.614563	2.761149
788.318481	808.339294	2067.027344	840.140869	2.526565
788.630310	801.652100	2112.277588	841.478271	3.038715
788.942017	796.153625	2152.624023	839.100586	3.166081
789.253784	788.649109	2163.323486	845.564941	4.140314
789.565430	787.534485	2132.562500	845.936523	4.342068
789.877014	782.556213	2095.262451	841.626892	4.499916
790.188538	782.481934	2056.847900	832.933533	3.958957
790.500061	784.413818	2014.569702	830.258606	3.726746
790.811462	787.311707	1979.498901	833.156433	3.845430
791.122925	788.426208	1954.978882	832.339111	3.764331
791.434204	784.116699	1930.830566	829.738464	3.978478
791.745483	791.546875	1913.889648	831.001648	3.515394
792.056702	786.642883	1888.923828	836.202820	4.496125
792.367920	785.676941	1871.091187	837.465881	4.771352
792.678955	780.178528	1863.809448	831.298828	4.717501
792.990112	781.739014	1851.623657	826.840637	4.215559
793.301086	781.738953	1863.437866	823.497070	3.860420
793.612122	787.088806	1863.363770	827.212158	3.727984
793.922974	793.107239	1863.215210	818.964539	2.416326
794.233826	789.169189	1847.462891	817.552795	2.682016
794.544556	791.472595	1839.661133	819.038818	2.629892
794.855286	792.364258	1843.376343	826.617859	3.259106
795.166016	796.228027	1856.082031	834.493896	3.610485
795.476624	793.330139	1877.332520	836.945801	4.023576
795.787292	786.642883	1889.963867	832.041809	4.114752
796.097778	789.169189	1911.883179	835.385498	4.116481
796.408264	779.732849	1919.536499	837.614563	5.078218
796.718689	780.624451	1928.973022	846.233704	5.713356
797.029053	782.556335	1939.969727	843.335938	5.251331
797.339355	791.101074	1948.365845	829.664246	3.332269
797.649658	793.404480	1946.359741	827.435120	2.951601
797.959839	789.466370	1921.022461	826.766418	3.296350
798.270020	792.958679	1884.837280	831.819031	3.559036
798.580078	796.822266	1872.502930	833.007813	3.363967
798.890137	796.450867	1861.357544	831.075989	3.251470
799.200195	792.809998	1857.419434	834.419495	3.908429
799.510071	790.580994	1839.066772	830.853027	3.840971
799.820007	793.181458	1828.664429	834.122314	3.953794
800.129883	792.958679	1823.760254	827.360779	3.337413
800.439575	794.147461	1809.494141	830.704407	3.600440
800.749329	788.797668	1795.822266	829.515625	4.043393
801.058960	788.054688	1784.899902	829.069763	4.114488
801.368591	784.636719	1782.670898	825.651855	4.109592
801.678162	786.940186	1775.834961	822.382507	3.584034
801.987671	781.590332	1767.215942	825.726074	4.477942
802.297119	784.933899	1753.024048	825.726074	4.213675
802.606506	783.447937	1751.909546	827.806580	4.580320
802.915894	788.574768	1742.175781	828.326721	4.168615
803.225159	787.237305	1739.946777	829.887024	4.476676
803.534424	787.385925	1731.550659	827.286438	4.226012
803.843628	788.203308	1726.646606	830.704407	4.528893
804.152771	782.481934	1729.767212	824.240051	4.408188
804.461792	787.534607	1734.894165	825.949036	4.054894
804.770874	784.190918	1738.460938	824.834473	4.259125
805.079773	783.745117	1739.500977	829.961365	4.835570
805.388733	779.658508	1739.203735	831.150208	5.366261
805.697571	782.927795	1751.760864	829.961426	4.854668
806.006470	785.528320	1767.215820	827.732361	4.299132
806.315125	792.661438	1784.379883	826.692139	3.431488
806.623901	799.051453	1795.376587	830.853027	3.191887
806.932495	802.543640	1791.587036	833.007813	3.080165
807.241150	801.875000	1783.859741	837.391602	3.616818
807.549622	799.274414	1756.442017	825.428955	2.732493
807.858154	797.714050	1741.655884	825.577454	2.951814
808.166565	798.085510	1723.823120	825.874756	3.001849
808.474915	799.051453	1715.426880	828.995422	3.267653
808.783264	806.555969	1700.269165	821.862366	1.712674
809.091492	808.487976	1694.473511	814.357727	0.662511
809.399719	804.698486	1686.523071	820.302002	1.769458
809.707825	798.902893	1674.560181	827.137878	3.224433
810.015930	795.039124	1665.198242	826.914856	3.663207
810.323975	790.283752	1664.678223	828.475281	4.367769
810.632080	791.546875	1660.591431	828.549622	4.257865
810.939880	790.432373	1645.210938	837.614563	5.519814
811.247864	795.410645	1627.378296	836.054199	4.885232
811.555664	789.763611	1617.718872	829.961426	4.855071
811.863464	784.933899	1603.824219	826.469177	5.072142
812.171143	784.933899	1603.452759	822.754089	4.620564
812.478882	783.447815	1601.595093	822.382507	4.758885
812.786438	793.627380	1609.173828	821.342285	3.398323
813.094055	794.964844	1603.601196	824.314270	3.629496
813.401489	798.605652	1604.938843	823.645691	3.105421
813.708984	787.608826	1605.310181	824.165771	4.470696
814.016357	788.128906	1612.814819	823.348450	4.270661
814.323730	788.203308	1611.997559	822.011047	4.103906
814.630981	794.816223	1598.548828	817.181335	2.782656
814.938232	791.769775	1584.951294	815.398132	2.978934
815.245361	790.580872	1578.932739	821.713806	3.949117
815.552490	785.231140	1583.019531	820.822205	4.461216
815.859619	780.550110	1577.521118	818.072998	4.708188
816.166565	781.887512	1574.028809	815.323792	4.220999
816.473572	787.088684	1579.452759	815.472351	3.582150
816.780457	790.803894	1599.886230	818.815918	3.462197
817.087341	795.856445	1619.873657	826.543457	3.724074
817.394043	795.782227	1623.811646	826.543457	3.714993
817.700806	802.320801	1627.081055	832.859131	3.702692
818.007507	796.227966	1629.310059	826.246277	3.603284
818.314209	799.051453	1630.721802	831.298828	3.877423
818.620667	793.775940	1641.718628	822.085266	3.338590
818.927246	794.221863	1649.891968	822.233887	3.273694
819.233704	791.546875	1694.102051	827.435059	3.976287
819.540161	790.878113	1739.649536	835.459717	4.698877
819.846497	795.039063	1807.487793	845.267761	4.961110
820.152832	792.215637	1871.091187	842.369934	4.648757
820.458984	793.998840	1944.427856	843.633118	4.314415
820.765259	789.912292	2024.897827	840.883850	4.127300
821.071350	788.426086	2132.042480	846.159424	4.296862
821.377502	790.729492	2300.858398	847.273926	3.744345
821.683472	793.775940	2633.288574	861.688660	3.691886
821.989441	802.246521	3293.245117	887.843262	3.436242
822.295349	795.262024	4356.368652	928.486816	3.741107
822.601196	799.125793	5705.557129	969.650574	3.475536
822.907043	800.463196	6923.675781	1006.950500	3.372205
823.212769	802.766602	7596.189941	1031.693237	3.369827
823.518494	802.023621	7559.781738	1031.990479	3.403005
823.824097	794.890564	6943.960938	1009.253845	3.486109
824.129700	785.454102	6059.312012	978.789734	3.665924
824.435242	785.379700	5143.308594	948.548523	3.744183
824.740723	779.584167	4363.575684	919.421875	3.901731
825.046082	785.528381	3767.742188	889.254883	3.478171
825.351501	778.543945	3321.108643	869.713318	3.585725
825.656799	778.321045	3010.523438	856.413086	3.498430
825.962036	783.893738	2802.252686	860.945618	3.817551
826.267212	788.426208	2706.402344	864.214905	3.951493
826.572449	796.971008	2706.402344	871.719482	3.914698
826.877502	794.444641	2827.218506	871.942383	3.812413
827.182495	793.627380	3088.615967	874.691650	3.532230
827.487488	791.101074	3431.448242	884.425293	3.534544
827.792419	791.844055	3705.253906	895.050598	3.542465
828.097290	793.553040	3789.067139	903.595398	3.673572
828.402100	796.227966	3637.489502	899.285828	3.627187
828.706848	793.181580	3357.071289	887.100159	3.663129
829.011597	789.094910	3002.127197	867.930115	3.562316
829.316223	786.419983	2663.306885	848.462708	3.305619
829.620789	790.952454	2374.195068	843.484436	3.317999
829.925354	794.816223	2148.834717	844.450378	3.665692
830.229797	799.274414	1996.514038	843.855957	3.723694
830.534302	802.469421	1879.115723	835.013916	3.022766
830.838562	801.057617	1788.020508	821.639465	2.085372
831.142944	798.085510	1727.612671	818.444519	2.190254
831.447144	796.079346	1672.628540	816.512695	2.331113
831.751404	790.729492	1641.421509	817.329895	3.126913
832.055542	796.227966	1619.353516	815.249451	2.310885
832.359619	792.884277	1628.938599	816.438293	2.817283
832.663635	800.611816	1662.894897	820.599182	2.317959
832.967651	795.039063	1715.129761	823.645691	3.109110
833.271545	797.193848	1812.020508	826.617859	2.899413
833.575439	787.237305	1964.043945	838.431946	4.350302
833.879211	780.327209	2185.837646	850.468994	4.990485
834.183044	781.738953	2425.760986	861.094238	4.826900
834.486694	787.906067	2614.118164	863.100403	4.117503
834.790344	800.091614	2663.826904	867.484314	3.616002
835.093933	792.512878	2587.146484	862.283020	3.887710
835.397522	786.791504	2435.271729	855.150085	4.146764
835.700928	780.029968	2253.378662	847.868347	4.604367
836.004395	790.283691	2077.949951	836.574280	3.594921
836.307739	799.348633	1917.753296	830.704407	2.803616
836.611023	805.887268	1808.528320	823.497070	1.756342
836.914307	801.577698	1719.290649	827.806641	2.858077
837.217529	802.097900	1645.953735	829.812744	3.284310
837.520691	794.073242	1578.115601	830.332947	4.624712
837.823730	794.593262	1512.952026	818.370117	3.309886
838.126831	788.723450	1466.958618	809.676758	3.089387
838.429749	796.748047	1427.578125	804.401306	1.213205
838.732727	797.491028	1409.374023	810.791260	2.173656
839.035522	797.119568	1387.380493	812.946106	2.681278
839.338379	785.602722	1376.680786	814.209290	4.839727
839.641113	787.608887	1384.928345	814.580750	4.515484
839.943848	791.918396	1422.525757	810.865540	3.004586
840.246460	795.113464	1475.503296	817.924316	3.352615
840.549072	791.175354	1534.276855	823.571350	4.359565
840.851563	792.884338	1570.685059	828.178040	4.537628
841.154053	795.187683	1575.143433	820.673584	3.267609
841.456482	795.262024	1537.620483	827.212219	4.303877
841.758850	793.107239	1490.141113	828.252441	5.042108
842.061157	799.497314	1437.014648	828.252441	4.510486
842.363403	804.698486	1393.473267	817.329895	2.145372
842.665588	805.590088	1344.284790	819.113220	2.510352
842.967712	798.159851	1313.151978	810.717041	2.438327
843.269775	791.101074	1285.882935	808.859436	3.589129
843.571777	787.831787	1262.031616	804.401306	3.494206
843.873840	788.054688	1242.192871	808.487976	4.499355
844.175659	785.602722	1235.208374	815.249451	6.593940
844.477600	785.379700	1228.818359	811.385681	5.864617
844.779297	782.036133	1230.675903	818.593018	8.148382
845.081116	781.367432	1222.725586	808.785156	6.212126
845.382751	778.915466	1223.988647	812.871765	7.629375
845.684387	781.218933	1195.084961	802.395081	5.116667
845.985962	788.500488	1177.549561	797.119629	2.215438
846.287537	797.416809	1158.602417	793.255859	-1.152025
846.588989	802.840820	1154.441406	793.924561	-2.535906
846.890381	806.110168	1150.057495	803.063782	-0.885713
847.191711	799.645813	1149.091553	799.348694	-0.085026
847.493042	799.645813	1149.760254	803.732483	1.167238
847.794250	806.333069	1137.871826	798.308411	-2.420428
848.095459	814.729309	1139.803711	800.686096	-4.320000
848.396606	807.001892	1144.633545	798.605652	-2.486805
848.697693	796.227966	1153.698364	803.361023	1.995426
848.998657	789.169250	1141.364136	810.791260	6.139217
849.299622	787.831787	1136.460205	811.088440	6.670900
849.600464	789.169189	1124.348877	809.305237	6.007538
849.901367	789.912292	1122.416992	802.320801	3.731829
850.202087	793.701660	1111.940186	807.076172	4.202669
850.502808	792.884277	1115.358032	813.986328	6.543804
850.803467	789.540710	1108.670776	818.741699	9.150185
851.104065	789.466492	1106.813354	822.976990	10.559581
851.404663	785.751282	1098.862915	810.048279	7.759851
851.705139	787.683289	1101.909302	809.156677	6.833740
852.005615	790.729675	1105.698730	799.497314	2.783651
852.306030	795.707825	1099.903198	808.042175	4.054746
852.606384	800.388916	1101.240723	808.265076	2.617953
852.906616	798.308411	1089.946777	809.156677	3.719767
853.206909	793.255859	1098.937378	808.264954	4.910043
853.506958	784.859619	1091.878540	806.630371	7.091013
853.807129	779.955566	1099.383179	808.487854	8.932317
854.107178	782.481934	1089.277832	808.339294	8.428196
854.407166	783.150635	1099.308716	815.546631	10.246772
854.707092	779.286926	1091.729858	819.410400	12.841857
855.007019	779.286926	1093.513062	815.918152	11.657599
855.306763	778.543945	1080.435913	809.230957	10.164898
855.606567	786.122742	1074.863159	800.314636	4.915105
855.906250	787.014404	1067.135620	803.063782	5.729440
856.205933	796.673767	1065.575317	799.720215	1.132923
856.505493	797.193848	1072.857056	804.624207	2.695448
856.805054	796.227966	1077.389526	804.772766	3.039107
857.104492	786.865784	1081.773315	808.933777	7.483021
857.403931	783.522156	1074.714600	812.054443	9.798429
857.703308	781.664551	1083.333618	803.583984	7.266053
858.002563	789.837891	1081.773315	802.320801	4.275915
858.301819	802.543762	1087.197388	793.255859	-3.262879
858.601013	805.738770	1074.343018	795.856445	-3.679139
858.900208	797.045349	1077.017944	789.243469	-2.786659
859.199219	788.426208	1073.005615	799.348694	3.838115
859.498291	789.243469	1072.114014	798.382751	3.230906
859.797302	791.992676	1060.374146	798.085510	2.270214
860.096191	792.512878	1061.117188	795.559265	1.134154
860.395020	786.791504	1053.018188	801.577820	5.554032
860.693787	791.175293	1053.612671	808.413574	6.568532
860.992554	794.073242	1046.479492	810.939941	6.682362
861.291260	798.011230	1047.222534	815.918213	7.185462
861.589844	798.457092	1047.891235	816.735535	7.327963
861.888428	800.760437	1058.442261	803.138123	0.922722
862.186890	800.240295	1067.878662	795.930664	-1.610244
862.485413	797.565430	1076.720703	793.478760	-1.463941
862.783813	797.193909	1076.126221	805.144287	2.850290
863.082153	791.472595	1075.234619	799.051453	2.670850
863.380371	791.546875	1069.290405	804.178284	4.547868
863.678589	789.243469	1066.838501	797.491150	2.971120
863.976746	795.559265	1063.717773	799.943115	1.634798
864.274902	792.661438	1059.333862	799.497314	2.563398
864.572937	784.636719	1051.160645	807.224792	8.475064
864.870911	789.615051	1049.971802	818.444519	11.073063
865.168884	793.998840	1055.395874	810.865540	6.452521
865.466736	797.268250	1063.569214	806.110168	3.320273
865.764587	787.534485	1065.352417	799.720154	4.386207
866.062317	789.614990	1064.460815	805.218567	5.677211
866.360107	794.890442	1056.138794	803.063782	3.128571
866.657715	797.565430	1051.160522	807.076172	3.750365
866.955322	794.296082	1048.337036	806.333069	4.738207
867.252808	795.782166	1049.005859	810.865540	5.956542
867.550293	798.457031	1053.315308	807.001770	3.352741
867.847717	799.571594	1045.587891	807.076172	3.050439
868.145081	803.138184	1040.609619	807.299133	1.752190
868.442383	802.766602	1031.098877	811.460022	3.807355
868.739624	802.023621	1036.077026	810.122559	3.460295
869.036804	791.992676	1038.380493	809.305176	7.026525
869.333984	792.438477	1038.529053	804.698486	4.981909
869.631042	791.992737	1038.900635	798.382751	2.588016
869.928101	792.438477	1031.470337	798.828552	2.673316
870.224976	791.249695	1044.696289	797.714050	2.550579
870.521851	788.128967	1047.445435	803.063782	5.759300
870.818726	787.460266	1059.333862	801.503418	5.165324
871.115479	786.271423	1048.337036	805.292908	7.258291
871.412231	788.054688	1047.148193	801.503418	5.190686
871.708862	793.553040	1051.532104	800.686096	2.764975
872.005493	792.141357	1060.151245	801.206238	3.382293
872.302063	786.419922	1063.866333	811.534241	9.051953
872.598572	782.258972	1058.219360	809.676758	9.935407
872.895020	781.738953	1055.841675	808.636475	9.812935
873.191406	785.974121	1057.327759	801.652039	5.777670
873.487671	782.853516	1059.556763	802.766602	7.196549
873.783997	781.218811	1063.643433	801.800598	7.287533
874.080200	773.714294	1061.340088	805.070007	10.901565
874.376343	778.543884	1062.751831	802.617981	8.470592
874.672424	787.311584	1062.751831	797.714050	3.776669
874.968445	804.029785	1065.129517	797.862610	-2.362000
875.264465	813.540527	1064.757935	800.166016	-5.323879
875.560364	814.134949	1063.346191	799.720154	-5.784167
875.856201	809.602478	1063.494751	790.878113	-7.374925
876.152039	800.686096	1066.912720	784.710999	-6.000564
876.447754	799.200012	1063.940552	790.952454	-3.115336
876.743469	799.571594	1062.306030	798.977234	-0.226221
877.039063	797.491150	1060.597046	807.076172	3.643028
877.334595	797.491028	1067.655762	801.874939	1.622681
877.630127	791.398254	1062.083130	797.045227	2.086179
877.925537	789.094910	1065.500977	790.729675	0.591436
878.221008	783.967957	1061.265747	793.255920	3.349455
878.516296	787.980286	1066.541260	791.026855	1.093681
878.811646	791.472595	1072.336792	795.484924	1.428566
879.106812	793.255798	1090.169556	801.132019	2.652696
879.401978	791.621155	1112.534668	807.967773	5.093777
879.697083	791.398254	1142.701538	805.738708	4.082072
879.992126	786.940125	1172.051147	799.423035	3.241379
880.287109	789.392090	1216.112671	797.788391	1.967634
880.582031	782.184753	1270.873657	799.348694	3.512243
880.876892	786.419922	1395.107910	804.847107	3.027361
881.171753	789.392090	1642.461548	817.181335	3.257560
881.466492	798.531433	2044.810913	834.270935	2.867696
881.761230	795.559265	2590.935791	853.515381	3.228076
882.055786	796.673828	3132.008545	874.245789	3.321663
882.350403	793.107239	3500.846924	895.422180	3.778611
882.644958	792.364258	3557.019775	898.096985	3.824445
882.939453	782.407654	3359.225830	881.601807	3.849482
883.233826	780.252869	3020.777100	864.066345	3.740798
883.528137	781.813232	2670.737061	841.329773	3.150817
883.822449	783.596497	2354.875977	832.784912	3.130469
884.116577	784.488098	2090.061279	820.079102	2.726083
884.410828	785.602722	1873.691528	823.942871	3.523623
884.704956	793.998840	1695.290894	821.936707	3.099757
884.999023	798.085449	1556.864868	823.497070	3.349013
885.292969	800.760437	1444.370605	821.416565	3.209416
885.586914	798.679871	1360.482788	821.565186	4.073549
885.880798	795.782043	1305.201538	822.011047	5.148803
886.174622	802.692322	1276.000610	822.753967	4.238600
886.468384	796.822449	1241.970093	813.986328	3.855772
886.762085	799.497253	1228.595581	809.305176	2.285705
887.055664	796.227966	1209.722534	802.915222	1.617254
887.349304	800.314636	1191.741333	806.853210	1.670447
887.642822	800.611816	1154.961426	801.354797	0.209675
887.936340	797.491150	1130.441528	803.063782	1.673712
888.229736	793.701660	1119.964966	807.819153	4.327024
888.523071	791.323975	1111.865845	810.122620	5.864645
888.816284	789.169189	1096.410889	811.014160	7.110028
889.109619	792.810059	1080.955933	808.562195	5.466723
889.402710	789.392090	1068.696045	810.271179	7.475400
889.695862	792.438538	1052.349487	804.178406	4.516881
889.988892	783.299316	1036.745972	807.447754	9.528016
890.281921	771.708069	1020.919434	821.416626	19.946344
>>>>>End Processed Spectral Data<<<<<
