Jaz Data File
++++++++++++++++++++++++++++++++++++
Date: Fri Jun 04 14:40:52 2021
User: jaz
Dark Spectrum Present: Yes
Reference Spectrum Present: Yes
Processed Spectrum Present: Yes
Spectrometers: JAZA3586
Integration Time (usec): 48700 (JAZA3586)
Spectra Averaged: 10 (JAZA3586)
Boxcar Smoothing: 1 (JAZA3586)
Correct for Electrical Dark: No (JAZA3586)
Strobe/Lamp Enabled: Yes (JAZA3586)
Correct for Detector Non-linearity: No (JAZA3586)
Correct for Stray Light: No (JAZA3586)
Number of Pixels in Processed Spectrum: 2048
>>>>>Begin Processed Spectral Data<<<<<
W	D	R	S	P
191.335022	0.000000	0.000000	0.000000	0.000000
191.713211	285.396759	276.108887	269.793182	167.999481
192.091385	568.861633	553.852478	536.762878	213.861176
192.469528	852.549500	835.682617	807.224792	268.720123
192.847641	856.413147	848.388489	812.054382	552.780762
193.225739	861.539978	859.905334	830.481445	1900.018677
193.603790	859.831055	868.004395	850.023132	-119.998955
193.981842	860.648376	872.091003	850.766113	-86.363586
194.359863	872.536865	876.772156	844.821960	-654.380249
194.737854	888.140442	882.121887	839.546448	807.403076
195.115829	894.010254	882.196228	847.868347	390.568878
195.493774	891.632629	883.236511	853.441101	454.871246
195.871704	889.626465	885.911316	847.273926	1139.995728
196.249603	890.666687	886.431458	854.852844	845.617554
196.627457	879.967102	886.802979	860.797058	-280.432861
197.005310	885.539856	885.094055	870.827881	3300.123291
197.383133	886.505676	886.357178	865.106628	14410.275391
197.760910	889.032043	888.437683	860.574036	4788.005859
198.138687	880.858704	887.248779	859.979675	-326.741486
198.516449	869.638977	883.013611	859.756775	-73.887650
198.894180	870.604980	874.394470	863.100403	-198.036621
199.271866	872.239563	868.598877	856.784668	424.505035
199.649536	870.010559	866.518372	858.122131	340.429260
200.027191	879.818542	869.936279	849.874512	303.007813
200.404816	881.601746	872.462585	856.190247	278.050690
200.782410	893.267334	885.242615	848.908630	552.775757
201.159988	885.465637	894.530457	856.636047	-318.038208
201.537537	888.437683	898.319885	848.462708	-404.514862
201.915070	885.911377	897.948425	854.035400	-264.815552
202.292557	885.539795	901.663574	848.908630	-227.187210
202.670029	878.406738	907.533386	853.441101	-85.714073
203.047485	867.335632	917.044128	847.571106	-39.760860
203.424911	861.317139	918.381653	847.050964	-25.000080
203.802292	861.688660	923.657166	836.797302	-40.167755
204.179688	871.868164	911.545715	835.534119	-91.573303
204.557037	874.617371	907.459167	828.995544	-138.913910
204.934357	872.388184	900.251709	836.797302	-127.732872
205.311661	866.295410	897.948425	839.695129	-84.037117
205.688934	860.945618	905.527161	840.735291	-45.333397
206.066177	855.744446	908.202148	843.335876	-23.654428
206.443390	858.344971	914.815125	839.026367	-34.210289
206.820587	861.168457	906.864746	842.295593	-41.300648
207.197769	866.889832	910.356934	838.134705	-66.153770
207.574921	863.397644	914.666504	841.255371	-43.188541
207.952042	866.146790	911.471436	842.592834	-51.967213
208.329147	865.923889	909.242371	839.917969	-60.034237
208.706223	884.425293	920.833679	853.738281	-84.285561
209.083267	882.939270	932.945007	855.001465	-55.869198
209.460297	879.892883	929.155579	861.094238	-38.160000
209.837280	856.710388	910.654114	845.787842	-20.248039
210.214264	854.704285	898.914368	841.478271	-29.916283
210.591217	851.955078	900.177490	839.026367	-26.810585
210.968124	856.487488	907.533508	844.970520	-22.561932
211.345016	857.230469	912.140320	839.249207	-32.746880
211.721893	859.385254	912.883240	835.534119	-44.583241
212.098724	857.973450	907.533447	829.664246	-57.121075
212.475555	858.939453	910.951355	838.134766	-39.999859
212.852356	854.258362	917.192810	839.620789	-23.258444
213.229126	857.676270	925.366150	839.695068	-26.564091
213.605865	854.332703	926.777832	834.716797	-27.076914
213.982590	853.069519	917.564270	838.506165	-22.580681
214.359283	853.292480	909.390930	844.376160	-15.894059
214.735931	855.224304	903.149597	844.896301	-21.550213
215.112579	867.112793	900.920471	842.147034	-73.846420
215.489197	868.673096	903.818298	837.168762	-89.640495
215.865799	873.651428	898.988586	839.174988	-136.070663
216.242355	866.072510	905.527283	834.048035	-81.167557
216.618896	859.608154	902.109375	843.038635	-38.985985
216.995407	854.704163	903.669739	837.986084	-34.142513
217.371902	855.670166	900.623352	839.546387	-35.867935
217.748367	856.487488	909.168152	826.246277	-57.404762
218.124802	854.184082	913.403381	835.608398	-31.367619
218.501236	850.766113	919.496277	834.419617	-23.783585
218.877609	851.806396	911.917297	839.620789	-20.271877
219.253983	854.629883	916.969910	835.831299	-30.154919
219.630295	855.893066	918.084473	836.574402	-31.063238
220.006592	861.317200	922.542664	836.797302	-40.048531
220.382889	863.026123	921.948181	836.648682	-44.766666
220.759140	865.478088	920.313477	841.329773	-44.037830
221.135391	861.391418	917.861511	840.660950	-36.710526
221.511581	855.744385	909.391052	835.831299	-37.118961
221.887772	853.218201	905.601563	832.933411	-38.723728
222.263931	848.239929	907.087646	833.676514	-24.747631
222.640060	851.360596	910.877136	838.654785	-21.348370
223.016159	853.069519	914.369385	846.233704	-11.151436
223.392212	861.317139	915.112305	848.462830	-23.894915
223.768265	863.471985	921.799561	849.726013	-23.566849
224.144302	863.694824	931.607605	842.369934	-31.400408
224.520294	852.475098	937.551758	840.140930	-14.497710
224.896286	850.617493	936.288574	839.769348	-12.662551
225.272217	851.657715	923.359863	838.729187	-18.030880
225.648148	861.762939	915.855286	836.425781	-46.840561
226.024048	861.317078	916.152527	838.283386	-42.005112
226.399902	863.249023	924.400146	841.701233	-35.236950
226.775772	867.930115	928.783997	844.078918	-39.194206
227.151581	864.437805	929.452698	844.004578	-31.428534
227.527374	856.264465	936.882996	842.295593	-17.327124
227.903137	852.400818	950.406067	839.917969	-12.736919
228.278870	856.487488	964.077820	844.896301	-10.773446
228.654572	859.236633	970.393555	841.924133	-15.574828
229.030273	850.097412	975.966248	844.376160	-4.545408
229.405930	849.577332	980.572998	837.465881	-9.245687
229.781555	850.617615	984.436768	841.849792	-6.551993
230.157181	855.075745	980.127136	844.821838	-8.199754
230.532761	863.917725	986.740051	843.930237	-16.273497
230.908325	863.694824	981.018799	851.955017	-10.006315
231.283859	870.604980	986.368652	851.286316	-16.688021
231.659332	870.902161	977.155090	854.184082	-15.734228
232.034821	873.131287	977.972412	840.883850	-30.758385
232.410263	871.942383	967.124207	835.013977	-38.797749
232.785690	864.289246	970.244934	829.887024	-32.468498
233.161087	872.908386	965.935364	830.630127	-45.447311
233.536469	869.044617	972.548340	826.246277	-41.349567
233.911804	868.970398	976.634949	830.407227	-35.817890
234.287140	857.007568	989.192139	831.819031	-19.055580
234.662430	855.967346	1003.012390	836.425781	-13.289510
235.037704	856.115906	1002.269348	830.927307	-17.234352
235.412933	861.094238	997.142578	832.636230	-20.917570
235.788162	862.506042	987.408875	839.620789	-18.322447
236.163345	858.939453	990.009460	843.187256	-12.018155
236.538513	860.425476	1001.006348	841.701233	-13.319197
236.913635	859.682434	1002.863831	838.951965	-14.478465
237.288742	863.694824	1007.693542	844.821960	-13.106272
237.663834	862.728943	1003.755432	850.171692	-8.904179
238.038879	861.985840	1017.278564	851.657776	-6.650707
238.413910	857.750671	1017.798645	845.787903	-7.474489
238.788910	860.202637	1031.098755	845.639221	-8.521794
239.163879	856.338867	1029.761353	835.385498	-12.082268
239.538834	858.790833	1047.668335	833.676514	-13.296618
239.913757	850.914734	1058.145020	835.385498	-7.493710
240.288651	856.636047	1068.175903	844.153137	-5.900973
240.663528	854.035461	1081.476196	848.314148	-2.515518
241.038361	858.865051	1105.698853	847.571228	-4.575477
241.413177	860.574036	1145.450806	854.332703	-2.190889
241.787979	862.208740	1179.407104	860.202637	-0.632444
242.162735	861.911621	1210.762817	868.227234	1.810403
242.537476	865.478088	1226.069214	865.626709	0.041216
242.912170	863.917725	1236.174316	863.174744	-0.199588
243.286865	863.546204	1226.217651	862.283020	-0.348300
243.661514	860.499756	1218.267334	864.586426	1.142269
244.036148	862.580261	1204.224121	865.329529	0.804717
244.410751	863.620422	1188.323242	856.636047	-2.151005
244.785339	865.329529	1190.626831	846.307922	-5.847453
245.159882	859.533875	1193.450317	847.125305	-3.716070
245.534378	858.196472	1231.196045	853.218079	-1.334692
245.908890	851.583496	1279.269897	868.375916	3.926339
246.283356	858.047852	1364.495239	867.558594	1.877933
246.657791	859.979675	1436.643188	865.998230	1.043686
247.032196	863.397522	1490.809937	862.728943	-0.106561
247.406586	861.019836	1516.295532	865.106628	0.623675
247.780960	856.190247	1524.691772	872.462585	2.434151
248.155289	857.156250	1506.190430	872.759766	2.404113
248.529602	853.143860	1454.029907	869.862000	2.782248
248.903870	858.419373	1390.500977	862.877502	0.837866
249.278122	856.784668	1344.953491	855.818787	-0.197858
249.652344	862.208801	1310.179810	853.441101	-1.957203
250.026550	856.636047	1302.749634	845.787903	-2.431700
250.400711	860.425476	1289.598145	852.920959	-1.748601
250.774857	862.654541	1293.536011	848.314209	-3.328139
251.148987	868.895996	1305.870239	859.533875	-2.142488
251.523071	866.444031	1334.402466	858.493652	-1.698950
251.897125	868.450195	1356.767700	869.044617	0.121728
252.271164	865.552429	1366.798462	864.958008	-0.118589
252.645187	859.088074	1370.736450	863.843445	0.929422
253.019165	858.122070	1373.485718	858.790833	0.129765
253.393112	855.893066	1350.749146	862.357422	1.306310
253.767044	854.704163	1323.257202	858.047791	0.713607
254.140930	847.571228	1291.529907	856.115906	1.924656
254.514801	849.725891	1287.740356	852.846680	0.712485
254.888657	850.766113	1286.180054	867.484314	3.839611
255.262466	856.636047	1296.582397	865.626770	2.043595
255.636276	861.317139	1312.780518	869.118958	1.728118
256.010010	866.444092	1328.532715	855.967346	-2.267259
256.383759	864.512207	1350.303345	861.465759	-0.627111
256.757446	855.521484	1385.819946	858.047852	0.476405
257.131134	860.425476	1429.064331	858.419373	-0.352790
257.504791	864.363525	1475.726440	862.803223	-0.255217
257.878418	872.016785	1532.791016	863.546204	-1.281918
258.252014	863.026123	1620.393677	869.341797	0.833898
258.625580	864.437805	1738.757935	875.880554	1.308760
258.999115	860.425476	1871.165405	885.614075	2.492095
259.372650	865.626648	1995.250977	883.979492	1.624686
259.746124	860.128235	2099.052002	884.202393	1.943151
260.119598	859.236633	2145.416748	885.316956	2.027735
260.493042	856.561768	2131.002197	900.549011	3.451495
260.866425	855.595886	2069.850830	907.459167	4.271202
261.239838	853.366699	1969.690796	901.812073	4.339723
261.613159	851.806396	1870.570923	891.484070	3.894686
261.986511	851.955017	1784.974243	875.211731	2.492630
262.359802	864.437805	1743.141968	868.078613	0.414338
262.733063	864.289246	1725.680664	865.626709	0.155268
263.106293	868.301575	1710.448608	867.781433	-0.061764
263.479523	864.512146	1688.900757	871.570862	0.856236
263.852692	868.227234	1670.919556	873.354187	0.638720
264.225861	865.923828	1669.210571	874.245789	1.035989
264.598969	859.087952	1683.105103	881.973328	2.777294
264.972076	858.939453	1713.123535	886.059998	3.175023
265.345154	867.261414	1753.024048	889.403625	2.499791
265.718201	872.611145	1803.921509	878.778320	0.662204
266.091217	875.880554	1864.998169	876.549255	0.067606
266.464203	868.375916	1914.335327	873.800110	0.518586
266.837158	861.242920	1953.121216	888.809265	2.524672
267.210114	855.670166	1975.709351	889.700867	3.038349
267.583038	853.961182	1996.662720	890.592468	3.205674
267.955902	854.778503	2018.136230	889.923767	3.021020
268.328766	856.636047	2027.572632	887.843262	2.665150
268.701569	859.831055	2039.089478	886.877258	2.293493
269.074371	864.735046	2050.458008	874.097229	0.789576
269.447144	863.546204	2079.658936	875.434753	0.977586
269.819885	856.636047	2144.970947	882.790710	2.030114
270.192596	853.886902	2249.366211	891.484070	2.694212
270.565277	855.818787	2384.894287	900.400391	2.915592
270.937927	861.242859	2497.091553	905.304382	2.693496
271.310577	858.716553	2576.075195	922.319641	3.703542
271.683136	853.738281	2623.034424	923.285645	3.930793
272.055725	859.088074	2629.201660	927.075012	3.840824
272.428284	860.128357	2606.910889	911.099915	2.918025
272.800812	864.363586	2559.728760	909.093750	2.638379
273.173279	848.908630	2499.766602	903.743958	3.321626
273.545776	847.645447	2463.878418	906.047363	3.613459
273.918152	844.524719	2429.104492	900.549011	3.535593
274.290558	858.047852	2429.698975	897.279602	2.496212
274.662964	857.676270	2432.225342	906.418945	3.095659
275.035278	861.614319	2451.989990	905.527283	2.761169
275.407593	859.979675	2486.540771	911.397156	3.161116
275.779907	866.072510	2536.620605	912.214539	2.762089
276.152161	861.465759	2573.326172	919.198975	3.372542
276.524384	855.670105	2602.006836	925.217468	3.982472
276.896606	854.555481	2617.090576	915.855286	3.477934
277.268799	860.053955	2636.557617	915.706726	3.132714
277.640930	862.728943	2650.749512	908.202148	2.543215
278.013031	854.035461	2660.928955	910.579834	3.129369
278.385162	848.239929	2669.622314	907.682068	3.263573
278.757233	847.719727	2690.427490	903.818359	3.044359
279.129272	855.595886	2722.303223	902.480957	2.511646
279.501282	857.527649	2758.414063	901.440613	2.310131
279.873230	855.149963	2824.989502	906.047363	2.583835
280.245178	857.899231	2913.632568	914.666504	2.761412
280.617126	861.242859	3045.148438	922.171082	2.789875
280.988983	859.756836	3160.763672	931.979004	3.138720
281.360870	855.595886	3264.936279	936.660095	3.364581
281.732697	855.149963	3330.099609	938.369141	3.362459
282.104492	860.722717	3359.523438	931.830505	2.845677
282.476288	867.558594	3360.489014	930.715820	2.533453
282.848053	865.478210	3356.922607	938.591980	2.934594
283.219757	866.889832	3371.188477	944.387512	3.094586
283.591461	859.385254	3360.786377	937.180176	3.110054
283.963135	864.214905	3375.646729	930.864441	2.653846
284.334747	859.682434	3429.739258	933.985168	2.891093
284.706360	864.586426	3528.487549	940.672424	2.856187
285.077942	853.738281	3632.734375	949.663086	3.451779
285.449524	852.623718	3717.811279	954.567078	3.558000
285.821014	847.125305	3747.086670	953.972656	3.684440
286.192535	858.642334	3776.212891	947.954102	3.061169
286.563995	861.242859	3757.934326	940.300964	2.729255
286.935425	855.298645	3747.903564	945.130615	3.105573
287.306824	849.577332	3664.312744	950.257568	3.576899
287.678223	848.834290	3598.183594	950.777649	3.707909
288.049561	859.608154	3548.920898	946.393799	3.227057
288.420898	866.295410	3557.168701	939.557922	2.722630
288.792145	863.694824	3590.827393	939.632141	2.784511
289.163452	856.413147	3682.368164	944.536133	3.118344
289.534668	848.462708	3799.395264	944.833435	3.265772
289.905914	843.855957	3913.821533	949.663086	3.446525
290.277039	845.119141	4008.854736	954.418457	3.454755
290.648193	846.307922	4049.424072	963.186218	3.648893
291.019318	857.453369	4035.455078	963.780579	3.345725
291.390381	858.939453	3967.245361	960.065491	3.253413
291.761475	850.394714	3905.648438	955.161438	3.429068
292.132507	842.518555	3865.599365	952.858093	3.649904
292.503510	841.775574	3869.462891	952.115051	3.644349
292.874481	856.338867	3919.394287	966.232605	3.587716
293.245422	858.344971	4021.337158	968.387390	3.479061
293.616364	863.769104	4173.063965	973.365662	3.311780
293.987213	861.911621	4315.353027	970.022034	3.130512
294.358093	869.416199	4431.191406	975.891907	2.989400
294.728943	863.694824	4520.354004	973.662903	3.007337
295.099731	858.270691	4621.926270	976.486328	3.140979
295.470490	855.893005	4741.999512	975.669128	3.082163
295.841248	854.109680	4839.781738	984.139465	3.262431
296.211975	854.332703	4931.174316	977.303711	3.016330
296.582642	854.035461	5024.498535	984.139465	3.119654
296.953308	854.481262	5072.572754	985.699890	3.110853
297.323883	857.602051	5060.238281	998.108459	3.343292
297.694519	855.224304	4945.069336	992.312805	3.351924
298.065063	858.865051	4815.708496	989.786560	3.308736
298.435608	857.304688	4661.827637	982.059082	3.279107
298.806122	865.626709	4501.259277	978.641113	3.108521
299.176575	867.484192	4355.179688	969.799133	2.933597
299.547028	873.428467	4249.669922	961.551514	2.610093
299.917450	863.917725	4222.847168	951.817871	2.616910
300.287872	858.122131	4213.707520	954.715637	2.878589
300.658234	857.304871	4205.088379	955.310059	2.927465
301.028564	860.351135	4170.537109	955.830139	2.884400
301.398865	865.775208	4120.085938	948.102722	2.529799
301.769135	864.586426	4060.718018	946.616699	2.566549
302.139374	858.716614	4012.792969	953.898376	3.017738
302.509583	860.202637	3981.214111	954.344177	3.016379
302.879791	861.762939	3947.406250	951.372070	2.904066
303.249939	870.530579	3911.592529	941.638367	2.338255
303.620087	870.233398	3870.874268	937.031555	2.226130
303.990173	865.923889	3849.995361	936.288574	2.358009
304.360260	863.100403	3832.014404	939.855042	2.585277
304.730286	858.493652	3816.856689	941.192566	2.795428
305.100281	857.304871	3816.856445	941.489746	2.844515
305.470276	858.865173	3832.237061	951.223450	3.106180
305.840179	858.270691	3875.852783	956.796143	3.265046
306.210144	862.728821	3897.772217	958.876648	3.167922
306.579987	863.843445	3933.139893	958.653625	3.088987
306.949890	866.592590	3980.842529	960.288269	3.008611
307.319702	864.883606	4083.157227	963.632019	3.068366
307.689484	858.939453	4176.109863	959.842529	3.041842
308.059265	858.122070	4290.907715	962.517395	3.041126
308.429016	852.475098	4371.897949	966.232483	3.232274
308.798737	851.063416	4456.305664	969.873352	3.295477
309.168396	848.537048	4485.061035	977.155029	3.536839
309.538055	852.995178	4500.664063	978.715515	3.446594
309.907684	854.035461	4493.828613	978.343933	3.415262
310.277313	855.670105	4502.596191	970.913635	3.160018
310.646851	853.663879	4487.289551	975.520508	3.353582
311.016388	851.880676	4478.001953	976.337830	3.432239
311.385895	856.858948	4430.596680	981.836182	3.497101
311.755371	856.784668	4378.064941	969.278992	3.194700
312.124817	864.809326	4305.173828	963.186096	2.859487
312.494232	864.140625	4249.595215	958.653625	2.791737
312.863617	859.979675	4241.348145	965.638184	3.124726
313.232971	856.487488	4282.883301	965.489563	3.181246
313.602295	857.156250	4369.371582	963.037598	3.014660
313.971619	863.917786	4461.729492	958.282227	2.622829
314.340820	861.094238	4485.432129	963.483398	2.825045
314.710083	862.803223	4462.918457	971.062256	3.007099
315.079285	860.722717	4383.191895	974.628723	3.233698
315.448486	869.713379	4302.573730	976.634949	3.114650
315.817596	861.391418	4185.101074	975.594727	3.436019
316.186707	864.363525	4083.974609	957.985046	2.907852
316.555786	859.385254	3999.641357	947.879822	2.818069
316.924866	857.973450	3958.031982	939.334961	2.624515
317.293884	854.406982	3950.898682	946.096497	2.961077
317.662872	861.985840	3984.037842	951.743591	2.874960
318.031830	862.060242	4022.452148	948.399902	2.731929
318.400757	871.793762	4063.690186	962.294617	2.835332
318.769684	861.837219	4083.305908	956.647522	2.943077
319.138550	864.958008	4085.014893	953.675476	2.755152
319.507416	863.769226	4045.634521	947.285461	2.624757
319.876190	865.998230	3984.854736	940.003723	2.372841
320.244995	866.295410	3915.976563	944.461914	2.563104
320.613770	854.035461	3862.032471	936.437195	2.739422
320.982483	847.348206	3874.143799	946.839600	3.287020
321.351166	845.342102	3919.989014	938.591980	3.032865
321.719818	850.171692	4009.374756	940.152344	2.848207
322.088440	853.961121	4130.785645	939.929443	2.623525
322.457062	858.419250	4306.214355	954.492859	2.786523
322.825623	859.608154	4492.268066	964.003601	2.873802
323.194183	860.128235	4623.857910	969.130371	2.896120
323.562653	863.992004	4686.123535	971.359558	2.809101
323.931183	863.397644	4685.380859	967.941589	2.735332
324.299591	867.484192	4640.427734	965.563965	2.599556
324.668060	862.357361	4578.310547	956.870422	2.543441
325.036407	862.505920	4507.202637	958.356445	2.629863
325.404755	852.326477	4425.544434	955.087158	2.875858
325.773102	856.710449	4352.356445	959.991150	2.954553
326.141388	859.459534	4277.384766	959.842590	2.936959
326.509674	869.193176	4202.413574	957.539246	2.650472
326.877899	868.747375	4130.042480	950.480469	2.506155
327.246124	865.403809	4071.417725	939.780823	2.319922
327.614288	863.397644	4031.665283	943.495911	2.528141
327.982422	850.914734	4026.241455	944.684814	2.953084
328.350525	850.171692	4035.232178	954.269836	3.268326
328.718628	852.475159	4077.138672	945.353516	2.880250
329.086700	856.115967	4121.794922	949.142883	2.848624
329.454712	853.886902	4182.871582	945.056213	2.738652
329.822693	863.100403	4222.623535	952.932434	2.673952
330.190674	867.707214	4254.945313	956.573242	2.623554
330.558563	868.375916	4288.530273	957.539246	2.606997
330.926483	854.852844	4364.541504	954.790039	2.847466
331.294312	858.865234	4461.729980	948.177063	2.478911
331.662231	861.391418	4574.595703	950.406067	2.397246
332.029999	861.391418	4676.910645	962.443176	2.648441
332.397766	851.286316	4745.566406	963.780579	2.888705
332.765503	857.453369	4793.194824	973.068420	2.937567
333.133240	863.843445	4793.714355	965.786804	2.594064
333.500916	868.375916	4788.884766	973.439941	2.679857
333.868561	862.580322	4764.810547	962.443176	2.559123
334.236176	854.852783	4753.442383	963.557617	2.788312
334.603790	853.515320	4739.473145	958.579346	2.703684
334.971344	856.487488	4710.346680	967.570007	2.882371
335.338867	862.803223	4690.730957	969.724792	2.793197
335.706360	869.787598	4678.768066	969.427551	2.615922
336.073853	870.530762	4684.786621	963.780579	2.444771
336.441284	864.660828	4699.201172	962.368835	2.548102
336.808655	862.654602	4726.990723	964.226379	2.628441
337.176086	858.865173	4771.869629	964.895203	2.709683
337.543396	859.459534	4797.355469	969.427673	2.792561
337.910706	855.744446	4822.246582	973.960144	2.980351
338.277954	854.629883	4805.008301	972.919739	2.994393
338.645264	856.190247	4788.735840	969.353271	2.877602
339.012421	852.846619	4745.269043	964.746582	2.874815
339.379669	850.617493	4678.693848	965.415222	2.998836
339.746796	857.379089	4575.189941	968.015808	2.975857
340.113953	862.506042	4503.562500	966.381165	2.852884
340.481018	861.614319	4470.869141	967.644287	2.937725
340.848114	855.372864	4491.228027	964.449280	3.000021
341.215118	856.784668	4525.407227	969.501953	3.072469
341.582153	862.654602	4643.697266	972.473938	2.904472
341.949066	862.877441	4816.079590	978.789734	2.932112
342.316010	862.060120	5034.083984	982.727783	2.892305
342.682922	862.357422	5301.499512	988.151855	2.833755
343.049835	863.992004	5631.403809	989.860901	2.640194
343.416656	858.419250	5955.660645	1004.126953	2.858560
343.783478	854.629883	6167.943359	1014.603699	3.010811
344.150269	858.493652	6294.629395	1022.405518	3.015228
344.516998	858.493652	6289.576660	1026.269165	3.089172
344.883728	865.106628	6209.701172	1028.498291	3.057138
345.250427	858.345032	6067.263184	1029.687134	3.289399
345.617065	861.094238	5902.756348	1012.820374	3.009447
345.983704	850.468933	5777.185547	1000.486145	3.044973
346.350281	854.258362	5644.927246	996.622375	2.971694
346.716827	854.852783	5525.670410	995.359314	3.008179
347.083405	860.499817	5441.336914	992.833008	2.888843
347.449860	868.450195	5382.117676	995.582214	2.816601
347.816376	869.936279	5388.358887	994.318909	2.752789
348.182770	872.908386	5394.600586	993.575989	2.668638
348.549194	864.289246	5432.420898	978.864075	2.508133
348.915558	864.363464	5488.742188	985.848450	2.627055
349.281921	861.019836	5551.602051	994.987732	2.856104
349.648193	857.230469	5608.369141	1007.842102	3.170011
350.014526	861.465759	5634.895996	1005.018555	3.007330
350.380737	859.608215	5684.975098	1002.046448	2.951863
350.746948	866.146790	5733.197754	1006.356018	2.880784
351.113159	870.010559	5808.169434	1007.693542	2.788144
351.479309	865.552429	5858.694824	1004.052734	2.773810
351.845428	861.465759	5971.709473	1001.897949	2.748053
352.211517	861.094238	6089.702637	1004.721375	2.746948
352.577576	870.307800	6214.605469	1009.773987	2.609626
352.943604	872.313965	6339.359375	1013.340515	2.579575
353.309601	865.998230	6488.113281	1018.616028	2.714597
353.675537	868.227295	6669.411621	1030.355835	2.794749
354.041473	866.592590	6786.810059	1034.442505	2.835199
354.407379	862.134460	6910.970215	1042.838745	2.987422
354.773254	859.162354	7025.173340	1047.668457	3.057181
355.139038	863.026123	7221.184082	1049.674438	2.935572
355.504913	864.883728	7473.888184	1059.854004	2.950070
355.870636	863.843445	7776.894531	1071.742432	3.007340
356.236389	855.372986	8064.892090	1087.048828	3.213472
356.602081	860.425598	8297.383789	1094.107544	3.142171
356.967804	857.081970	8454.683594	1107.407715	3.294800
357.333405	859.905334	8523.041992	1107.482056	3.230749
357.699036	852.326477	8527.425781	1110.602661	3.365119
358.064606	857.899170	8471.996094	1106.515991	3.265218
358.430176	866.815491	8415.377930	1109.116699	3.209899
358.795654	866.221130	8460.627930	1109.116699	3.198348
359.161163	863.992004	8672.687500	1110.454224	3.156254
359.526581	852.698059	9106.616211	1119.742065	3.235361
359.892029	855.001465	9672.727539	1141.289917	3.246738
360.257416	851.063416	10247.013672	1157.116333	3.257285
360.622772	855.818787	10675.443359	1175.320435	3.253705
360.988098	861.614441	10902.958008	1180.595825	3.176680
361.353394	859.162415	10931.639648	1182.602051	3.211123
361.718658	853.292480	10714.006836	1178.738403	3.300429
362.083893	843.930359	10267.595703	1168.187378	3.440880
362.449097	845.936523	9650.958008	1155.704468	3.518083
362.814209	854.778503	8992.338867	1135.939819	3.455106
363.179382	859.236633	8413.892578	1111.791504	3.343036
363.544434	860.574158	8003.220703	1099.531616	3.345503
363.909546	856.858948	7792.646484	1088.534912	3.340298
364.274536	852.846680	7670.121094	1085.637085	3.414714
364.639587	860.277039	7557.478516	1079.618530	3.275121
365.004517	860.425537	7468.314941	1078.726929	3.303648
365.369507	867.187073	7412.142578	1075.011719	3.175341
365.734344	863.992004	7429.678223	1070.553589	3.146078
366.099274	865.106628	7431.906738	1077.017944	3.227010
366.464081	867.707214	7383.833496	1076.646484	3.206495
366.828918	864.883728	7317.480469	1075.977661	3.271457
367.193665	862.877441	7218.732422	1062.974731	3.148236
367.558411	862.951843	7148.665527	1068.101563	3.263746
367.923126	861.688660	7045.012207	1066.987183	3.320197
368.287781	860.945618	7012.839844	1070.925171	3.413250
368.652435	854.481262	6984.381348	1062.603271	3.395194
369.017059	858.419250	7010.907715	1067.284302	3.394806
369.381653	854.035461	7039.365234	1070.182251	3.494507
369.746185	858.419250	7107.277832	1070.107910	3.387637
370.110687	856.190247	7201.568359	1064.906616	3.289266
370.475220	857.304871	7276.019531	1067.804443	3.279466
370.839661	852.177917	7330.854980	1075.234741	3.442938
371.204041	857.230530	7349.802246	1075.160400	3.356603
371.568451	858.865173	7360.501465	1073.451416	3.300496
371.932770	859.756836	7348.464355	1083.110718	3.442194
372.297150	854.852844	7327.288574	1092.844360	3.677001
372.661377	859.831055	7350.916504	1090.615234	3.555402
373.025696	860.945618	7389.925781	1082.739258	3.397064
373.389862	856.115906	7456.128906	1080.287231	3.396528
373.754059	851.137695	7523.298828	1083.705200	3.485640
374.118225	857.824890	7653.626465	1084.894043	3.341315
374.482361	864.958008	7827.643066	1092.027100	3.261229
374.846436	864.809387	8064.669434	1103.544067	3.315824
375.210510	856.413269	8378.002930	1113.351929	3.416015
375.574524	852.400879	8699.362305	1119.964966	3.409780
375.938538	847.051086	9010.170898	1125.240479	3.407881
376.302460	843.410217	9210.639648	1132.744995	3.457952
376.666412	850.840515	9331.975586	1139.432251	3.402749
377.030304	853.961243	9320.235352	1144.930664	3.436806
377.394196	859.831116	9176.980469	1142.775879	3.401944
377.757996	854.704163	8933.564453	1141.215454	3.546432
378.121796	854.629883	8618.447266	1134.528198	3.605164
378.485565	852.326477	8347.835938	1124.200195	3.627155
378.849304	850.023193	8149.373535	1114.095093	3.617745
379.212982	853.069580	8015.703125	1113.500610	3.635967
379.576630	853.366760	7958.564941	1118.181641	3.727058
379.940277	857.899231	7944.669922	1125.314697	3.773446
380.303864	858.865051	7948.385254	1117.587280	3.649362
380.667450	860.054016	7972.756348	1122.268433	3.686565
381.030945	853.366760	7965.845703	1110.677124	3.617731
381.394501	855.075745	8019.417969	1118.553101	3.677621
381.757935	856.784668	8056.569824	1121.450806	3.676028
382.121399	860.202637	8159.033203	1127.989624	3.668903
382.484741	855.818665	8314.102539	1126.800781	3.633304
382.848145	854.407043	8489.829102	1120.484985	3.484784
383.211487	862.357422	8625.282227	1124.497437	3.376820
383.574768	859.905334	8698.545898	1129.252808	3.436150
383.938019	858.716553	8729.233398	1135.791382	3.520415
384.301270	850.914795	8736.365234	1130.590210	3.546727
384.664459	858.270691	8733.690430	1125.017456	3.387080
385.027649	854.035461	8766.977539	1125.983398	3.436749
385.390778	852.326477	8884.227539	1135.791382	3.529238
385.753876	846.530945	9023.099609	1142.330078	3.617644
386.116943	851.063293	9143.469727	1144.484863	3.538437
386.479980	853.366699	9177.204102	1145.004883	3.503650
386.842987	853.069519	9177.352539	1147.531250	3.537382
387.205994	859.013733	9151.420898	1150.651978	3.516931
387.568909	853.961121	9146.516602	1154.367065	3.622598
387.931793	864.066345	9083.061523	1149.908813	3.477828
388.294678	856.859070	9042.937500	1148.051270	3.557163
388.657471	867.187073	9031.124023	1147.308350	3.431203
389.020294	863.694885	9118.355469	1154.812866	3.526711
389.383057	870.679382	9338.588867	1164.323730	3.467731
389.745819	865.849609	9545.596680	1168.113159	3.482400
390.108521	870.902161	9809.964844	1178.441162	3.440394
390.471191	873.428467	10043.275391	1186.020142	3.408908
390.833801	874.022888	10259.421875	1197.165527	3.443036
391.196442	871.496582	10410.479492	1205.784668	3.504442
391.558960	866.072571	10405.798828	1207.419312	3.578161
391.921509	871.199402	10360.696289	1207.939331	3.548554
392.284027	864.586426	10288.177734	1200.583374	3.565487
392.646484	863.026062	10256.970703	1202.961060	3.618661
393.008911	858.345032	10237.949219	1199.097290	3.632906
393.371307	861.614319	10240.772461	1200.063354	3.608522
393.733673	863.992004	10208.227539	1193.301880	3.524204
394.096008	859.979736	10132.811523	1195.307983	3.616244
394.458344	859.385254	9977.517578	1182.007690	3.538251
394.820587	853.515381	9737.594727	1180.595947	3.681648
395.182831	860.574036	9514.463867	1165.215210	3.520280
395.545013	860.053955	9273.797852	1168.187378	3.662263
395.907196	866.666931	9123.185547	1155.927368	3.503419
396.269287	866.666931	9022.059570	1155.110107	3.536840
396.631409	863.769104	8992.858398	1152.881104	3.556512
396.993469	860.797058	8993.377930	1157.487793	3.648174
397.355530	854.778503	8997.688477	1167.667358	3.842470
397.717499	856.933289	9031.570313	1164.769409	3.765747
398.079468	857.973572	9075.854492	1160.608521	3.682640
398.441376	855.447205	9113.155273	1152.360962	3.595595
398.803284	848.091248	9092.424805	1155.630249	3.730307
399.165131	842.815735	9047.323242	1161.128662	3.879732
399.526978	840.215149	9011.062500	1164.249268	3.965735
399.888763	844.227478	8977.774414	1172.199707	4.032340
400.250519	848.239807	8991.223633	1172.199707	3.978393
400.612244	858.865051	9024.213867	1171.159546	3.824631
400.973938	865.106628	9151.568359	1165.883911	3.629743
401.335602	869.044617	9247.939453	1167.147217	3.557780
401.697205	862.877502	9426.637695	1179.109863	3.692681
402.058807	861.688660	9572.122070	1185.945679	3.722628
402.420349	856.710388	9831.438477	1190.849731	3.723114
402.781860	863.026123	10029.009766	1200.211914	3.678665
403.143341	861.985901	10244.785156	1204.001343	3.645132
403.504822	856.710388	10425.861328	1221.759766	3.814856
403.866241	855.595764	10578.479492	1234.614014	3.898208
404.227631	852.920898	10687.703125	1249.400269	4.031400
404.588959	855.744385	10681.461914	1248.062744	3.992770
404.950287	853.218201	10591.778320	1234.911133	3.919398
405.311554	854.481262	10445.625977	1229.858643	3.913791
405.672821	858.939453	10333.280273	1222.874146	3.841267
406.034027	854.258301	10220.042969	1222.428345	3.931011
406.395203	855.224304	10060.811523	1215.815430	3.917090
406.756348	860.722656	9937.022461	1209.425415	3.841904
407.117493	864.735107	9876.985352	1202.515137	3.748010
407.478516	862.728821	9956.713867	1201.029175	3.720045
407.839600	859.013672	10035.102539	1199.394531	3.709433
408.200592	862.580261	10174.717773	1207.344849	3.702314
408.561554	863.694824	10279.187500	1211.208496	3.690871
408.922485	859.236755	10428.684570	1223.914307	3.810853
409.283417	851.360596	10531.667969	1219.753540	3.805591
409.644257	850.097473	10641.115234	1212.323242	3.699572
410.005096	859.459534	10669.945313	1208.979614	3.562720
410.365906	862.208740	10630.861328	1216.929932	3.631219
410.726715	867.112793	10595.865234	1232.607788	3.756854
411.087433	861.317139	10529.958984	1230.230103	3.815562
411.448120	867.781494	10513.389648	1224.360229	3.696799
411.808807	875.434631	10469.475586	1209.871216	3.485878
412.169434	872.016785	10434.850586	1211.877441	3.553974
412.530029	872.685486	10479.655273	1216.112671	3.574771
412.890564	852.252197	10580.260742	1222.205444	3.802970
413.251099	850.171692	10755.318359	1220.348022	3.737212
413.611572	844.896240	10895.973633	1227.332397	3.804927
413.972076	851.657776	11037.222656	1238.180542	3.794810
414.332489	852.475098	11170.671875	1247.394043	3.827403
414.692871	847.645325	11398.409180	1247.394043	3.788813
415.053223	847.571106	11586.023438	1244.942139	3.700450
415.413574	851.583496	11868.002930	1252.892456	3.642826
415.773834	856.561768	12095.666992	1265.226685	3.636098
416.134094	859.088074	12429.286133	1278.304077	3.623240
416.494263	856.487488	12718.620117	1289.820923	3.653082
416.854462	855.372864	13097.118164	1306.464722	3.684866
417.214630	858.270752	13489.734375	1325.857788	3.701764
417.574738	849.057190	13884.801758	1340.792603	3.772208
417.934784	852.400879	14369.776367	1348.520020	3.670233
418.294861	853.292480	14948.964844	1361.002930	3.601889
418.654846	857.081848	15622.890625	1380.990356	3.548119
419.014832	854.035461	16269.843750	1403.875610	3.566729
419.374756	850.394592	16903.869141	1436.197266	3.649071
419.734680	854.778503	17566.871094	1466.141235	3.658206
420.094543	849.577332	18107.498047	1480.481812	3.655739
420.454376	847.199646	18415.781250	1489.843872	3.657917
420.814148	847.051025	18568.101563	1491.107056	3.634412
421.173920	854.704102	18654.664063	1504.407227	3.650026
421.533691	853.441101	18760.099609	1507.899414	3.654832
421.893341	855.595886	18810.847656	1513.992188	3.666873
422.253021	847.794128	18759.208984	1515.552734	3.728118
422.612640	847.273926	18708.310547	1517.558716	3.752776
422.972260	845.193420	18660.980469	1511.540161	3.740204
423.331757	854.704163	18759.654297	1505.075806	3.632357
423.691315	866.815613	18877.796875	1516.221313	3.605610
424.050781	866.889832	18920.966797	1524.023071	3.639805
424.410248	859.682434	18715.814453	1523.131470	3.715525
424.769653	849.948914	18385.167969	1501.583618	3.716148
425.128998	852.400879	17947.525391	1481.001953	3.677078
425.488373	856.338867	17470.130859	1467.330078	3.677614
425.847656	856.933289	17015.101563	1450.314819	3.672332
426.206940	855.967346	16572.255859	1434.934082	3.683864
426.566193	857.007629	16194.871094	1415.541016	3.641533
426.925385	851.657776	15757.229492	1402.463867	3.695303
427.284576	853.366699	15351.460938	1391.095581	3.708963
427.643677	849.280090	15041.024414	1390.055298	3.810492
428.002777	851.583496	14839.590820	1378.018188	3.763472
428.361847	849.651611	14661.264648	1369.176147	3.761505
428.720856	843.038757	14491.112305	1353.349731	3.739070
429.079865	846.605225	14390.281250	1350.526245	3.720711
429.438812	849.057190	14395.855469	1347.479858	3.679265
429.797760	861.837219	14389.315430	1345.325073	3.574117
430.156616	860.648438	14300.598633	1343.690308	3.594075
430.515503	864.512207	14215.596680	1346.513794	3.610206
430.874268	864.586426	14167.151367	1351.417969	3.659682
431.233093	869.341797	14231.795898	1349.411743	3.592678
431.591827	861.763000	14410.937500	1355.355957	3.642974
431.950562	857.750671	14602.268555	1359.071045	3.647421
432.309204	861.242859	14746.711914	1378.761353	3.727051
432.667877	863.694824	14890.339844	1382.253540	3.696955
433.026459	862.431702	14957.805664	1388.346313	3.731115
433.385010	855.744385	15065.395508	1389.757935	3.758105
433.743561	860.202637	15064.801758	1397.113892	3.779841
434.102051	856.933350	15080.331055	1409.745483	3.886639
434.460510	861.763000	15096.752930	1421.336548	3.930973
434.818939	860.128357	15102.027344	1439.912476	4.070975
435.177338	865.255188	15137.097656	1441.546997	4.037963
435.535675	861.094238	15153.000000	1444.073364	4.079086
435.894012	858.047852	15209.692383	1437.386108	4.036738
436.252289	863.917786	15402.210938	1446.971313	4.010468
436.610535	858.865173	15477.182617	1447.194214	4.024601
436.968719	859.979675	15718.516602	1444.073608	3.931033
437.326935	853.515381	15927.753906	1441.770142	3.902385
437.685028	861.837341	16253.276367	1430.773315	3.696444
438.043152	863.471985	16453.744141	1429.064331	3.627854
438.401215	860.054016	16758.681641	1428.023926	3.572446
438.759277	861.094238	17103.150391	1440.655396	3.568274
439.117249	857.527771	17664.134766	1460.865723	3.589885
439.475250	859.831116	18097.169922	1472.605469	3.554924
439.833130	855.521545	18533.847656	1489.992310	3.588975
440.191071	848.314209	18634.972656	1489.620728	3.605548
440.548889	849.205811	18664.173828	1502.252319	3.665718
440.906708	842.815735	18497.142578	1498.314453	3.712964
441.264496	849.057129	18280.773438	1495.565308	3.708804
441.622223	847.051025	18014.843750	1484.345337	3.712151
441.979950	851.211914	17751.291016	1469.559204	3.658843
442.337616	856.190247	17539.232422	1464.655273	3.647207
442.695251	863.397644	17315.728516	1452.246704	3.579123
443.052887	867.781433	17246.328125	1454.698608	3.583451
443.410461	863.769104	17368.408203	1462.723267	3.629005
443.768005	856.561768	17624.826172	1468.296021	3.648167
444.125458	855.670105	17941.431641	1475.057617	3.625168
444.482941	858.939453	18289.689453	1477.435425	3.548304
444.840393	864.735046	18804.681641	1489.546753	3.482796
445.197754	865.923889	19259.189453	1498.314453	3.438164
445.555084	863.397644	19625.130859	1519.193359	3.495390
445.912415	862.877502	19827.158203	1535.317017	3.545821
446.269714	862.580261	19923.529297	1546.090942	3.585922
446.626953	868.153015	19916.248047	1542.301636	3.539192
446.984161	869.564758	19735.619141	1533.905396	3.521354
447.341309	873.651428	19534.185547	1524.914673	3.490057
447.698456	866.815613	19237.048828	1516.518555	3.536716
448.055542	857.973572	19033.830078	1515.701172	3.618688
448.412598	855.670166	18634.677734	1512.506226	3.694447
448.769653	856.784668	18245.033203	1499.503296	3.696282
449.126617	861.911560	17729.447266	1477.955444	3.652246
449.483582	863.026123	17413.289063	1464.135132	3.632021
449.840515	869.341858	17147.880859	1451.429321	3.575797
450.197388	867.038513	16983.744141	1451.206421	3.624611
450.554230	858.122131	16852.080078	1448.531616	3.691453
450.911041	855.224304	16802.966797	1440.952637	3.672798
451.267822	856.338867	16860.849609	1439.763794	3.645378
451.624573	857.527649	16937.750000	1436.271484	3.599103
451.981262	855.744446	16920.216797	1444.221802	3.663222
452.337921	854.184082	16774.880859	1427.503906	3.601097
452.694580	859.682434	16441.259766	1417.324341	3.578854
453.051147	858.047791	16202.526367	1410.637085	3.601226
453.407715	862.134460	15820.238281	1414.426636	3.692261
453.764221	867.930115	15705.291992	1416.135376	3.694762
454.120728	859.459534	15360.528320	1406.476196	3.772251
454.477142	853.366699	15346.929688	1407.219238	3.821369
454.833557	850.840393	15225.148438	1402.909668	3.840667
455.189911	859.236633	15285.854492	1400.160522	3.749485
455.546265	869.416077	15355.102539	1388.569336	3.583905
455.902557	871.645203	15451.770508	1384.482544	3.517373
456.258820	877.886658	15710.195313	1388.643555	3.443543
456.615051	871.719543	15994.182617	1399.194458	3.488023
456.971252	862.877502	16346.672852	1410.265625	3.535232
457.327393	860.128357	16940.500000	1429.510132	3.540849
457.683502	860.574158	17630.474609	1450.389160	3.517105
458.039612	860.797058	18645.896484	1479.515747	3.478860
458.395630	863.323425	19582.630859	1504.407227	3.424720
458.751648	871.050781	20366.896484	1529.744507	3.378636
459.107605	878.555359	20962.953125	1553.372681	3.359908
459.463562	880.710144	21098.257813	1563.998047	3.379678
459.819458	872.982666	20902.841797	1564.369507	3.451781
460.175323	870.233398	20235.380859	1551.737915	3.519232
460.531158	869.193176	19410.843750	1536.134399	3.596990
460.886932	866.889893	18617.142578	1511.391602	3.630944
461.242676	863.323303	17937.568359	1491.849976	3.681139
461.598419	858.716553	17458.093750	1476.172241	3.719752
461.954102	862.283020	16962.046875	1465.398315	3.746113
462.309723	861.614441	16559.773438	1438.797852	3.676759
462.665344	861.688660	16248.221680	1423.194336	3.649332
463.020905	857.750671	16121.460938	1409.745483	3.616387
463.376373	860.054016	16093.820313	1409.671265	3.607888
463.731873	855.670105	16139.293945	1406.253296	3.602439
464.087341	857.230469	16154.452148	1405.956055	3.587093
464.442749	864.660828	16311.454102	1419.181763	3.589877
464.798126	868.524475	16425.062500	1425.126099	3.577927
465.153503	873.279968	16653.322266	1428.024048	3.515479
465.508820	858.716614	16807.126953	1424.977539	3.550579
465.864105	852.623718	16913.158203	1433.448120	3.616470
466.219330	850.320313	17120.312500	1439.466675	3.621061
466.574524	856.487488	17132.498047	1449.497559	3.643461
466.929657	857.824890	16990.134766	1451.726563	3.681442
467.284790	858.567871	16721.009766	1451.652344	3.738923
467.639893	851.806335	16473.435547	1440.729858	3.769924
467.994934	852.697998	16324.159180	1424.754517	3.697495
468.349945	843.781738	16159.504883	1415.838379	3.735094
468.704926	847.719727	16044.187500	1411.083008	3.707199
469.059875	849.577332	15925.303711	1404.767212	3.682674
469.414764	859.979675	15827.075195	1409.076782	3.668695
469.769653	863.323242	15769.043945	1395.850952	3.572640
470.124451	864.883606	15826.479492	1396.222290	3.551350
470.479248	857.081848	15895.507813	1389.237915	3.538642
470.834015	857.676270	15971.295898	1403.652710	3.612480
471.188721	863.769104	16176.817383	1410.117065	3.567859
471.543365	869.193176	16457.830078	1419.553589	3.530523
471.898010	860.945618	16775.029297	1422.302734	3.527423
472.252625	853.812683	17046.679688	1433.225220	3.578196
472.607178	851.063416	17288.683594	1448.382935	3.633856
472.961700	859.385254	17334.230469	1451.280640	3.592722
473.316193	859.459534	17357.189453	1447.119751	3.562067
473.670654	858.716553	17251.976563	1437.980469	3.533549
474.025055	853.812500	17337.648438	1440.655396	3.560111
474.379456	851.955017	17399.169922	1435.305664	3.525371
474.733795	854.481262	17610.560547	1442.884644	3.511581
475.088104	857.824951	17906.806641	1449.571899	3.470864
475.442383	863.843445	18268.066406	1468.964844	3.476866
475.796570	861.540039	18597.748047	1485.682983	3.519033
476.150787	862.431641	18979.960938	1498.983032	3.513456
476.504944	860.054016	19358.904297	1511.540161	3.521766
476.859070	862.654602	19669.712891	1511.837524	3.451805
477.213135	865.403809	19863.865234	1524.914673	3.471391
477.567200	869.936279	20082.613281	1541.187134	3.493791
477.921173	869.564758	20408.132813	1560.431519	3.535913
478.275146	860.722717	20719.609375	1573.434448	3.588881
478.629089	862.654602	21060.289063	1577.446777	3.538990
478.983002	861.911621	21487.826172	1585.694336	3.509094
479.336823	863.546204	22084.625000	1599.811890	3.469502
479.690643	855.744446	22793.400391	1617.941772	3.474379
480.044403	848.017029	23708.068359	1655.984741	3.534409
480.398163	844.376160	24935.843750	1706.064819	3.576738
480.751862	842.072754	26623.333984	1772.119995	3.607454
481.105499	850.245911	28925.158203	1845.605469	3.545370
481.459137	857.081848	32312.767578	1956.390625	3.494786
481.812744	861.391418	36803.921875	2090.878662	3.420703
482.166290	859.905457	42061.503906	2260.214600	3.398677
482.519806	861.688660	47213.511719	2440.770020	3.406729
482.873291	858.567932	51251.636719	2623.480469	3.502292
483.226715	861.019958	53707.046875	2748.308838	3.571297
483.580139	855.893066	54228.203125	2805.224854	3.652328
483.933502	859.831116	53218.425781	2805.670898	3.716372
484.286804	860.425476	50886.218750	2746.748779	3.770701
484.640106	862.060242	47806.816406	2643.690918	3.795164
484.993347	854.109863	44890.582031	2526.738281	3.798280
485.346558	846.605225	42907.070313	2447.383057	3.805897
485.699738	844.747559	42382.792969	2412.163574	3.773447
486.052887	845.193420	42950.242188	2402.652832	3.698985
486.405975	854.109802	44070.058594	2423.977783	3.632612
486.759064	860.871399	45052.269531	2453.698730	3.604383
487.112061	861.540039	45353.339844	2483.865479	3.646347
487.464996	854.927185	44850.015625	2472.571533	3.676875
487.817963	845.639343	43498.964844	2429.550293	3.713452
488.170868	845.565002	41534.847656	2349.971924	3.697305
488.523743	845.787903	39325.753906	2277.452637	3.720546
488.876587	850.171692	37407.781250	2213.701172	3.729810
489.229401	857.527771	36355.800781	2179.373047	3.723689
489.582153	866.815613	36279.644531	2165.775635	3.668049
489.934845	867.632996	37214.667969	2170.233643	3.583788
490.287537	859.905457	38522.394531	2203.669922	3.567912
490.640198	854.332703	39756.269531	2234.802734	3.548589
490.992798	852.400696	40155.644531	2255.310303	3.569450
491.345337	852.995178	39787.769531	2249.589355	3.587010
491.697876	856.338867	38403.734375	2217.193359	3.624365
492.050354	866.889893	36333.062500	2165.627197	3.661904
492.402832	868.450195	33684.542969	2089.838623	3.721919
492.755219	865.255188	30965.437500	1998.668945	3.765472
493.107605	858.419250	28562.041016	1912.923462	3.806377
493.459930	864.215027	26730.923828	1848.205688	3.804081
493.812225	867.855774	25575.591797	1792.701660	3.743143
494.164490	869.341797	24926.484375	1761.791870	3.709709
494.516724	870.456360	24698.521484	1728.504272	3.600997
494.868896	866.369690	24697.259766	1732.813599	3.635802
495.221039	863.620544	24953.529297	1727.984009	3.588073
495.573120	859.608215	25137.279297	1739.426758	3.623982
495.925201	873.056946	25429.437500	1741.655762	3.537161
496.277222	872.982666	25528.705078	1759.934204	3.597346
496.629211	875.583252	25531.083984	1752.801147	3.557899
496.981140	864.214905	25317.908203	1751.166626	3.627067
497.333069	862.357422	25053.390625	1728.281250	3.579524
497.684967	867.261414	24719.994141	1715.798462	3.557400
498.036804	862.283142	24303.525391	1693.210449	3.544724
498.388580	860.574158	23828.509766	1682.659546	3.579274
498.740326	855.372864	23330.978516	1676.195190	3.652059
499.092072	852.995300	22814.056641	1663.340820	3.689920
499.443756	853.515381	22392.835938	1638.746582	3.645571
499.795410	851.732117	22078.236328	1624.926270	3.642588
500.147003	859.608215	21804.505859	1610.734375	3.586201
500.498566	861.985840	21530.328125	1608.505371	3.611898
500.850098	860.648438	21323.617188	1605.013062	3.637618
501.201599	853.440979	21245.822266	1599.143188	3.656769
501.553009	854.778503	21216.548828	1592.753052	3.624314
501.904449	848.388367	21179.099609	1582.202148	3.609386
502.255859	853.589600	21190.021484	1581.533325	3.579506
502.607178	855.447205	21231.259766	1590.226929	3.606137
502.958405	863.620544	21345.832031	1597.954224	3.585227
503.309692	859.385254	21389.150391	1607.093628	3.642070
503.660919	855.967346	21534.857422	1595.651001	3.576999
504.012115	857.527771	21559.007813	1594.759277	3.561250
504.363251	862.134460	21574.015625	1586.660278	3.498117
504.714294	870.753601	21397.771484	1602.263794	3.563646
505.065369	874.245789	21245.154297	1593.198853	3.529313
505.416443	876.177673	21115.123047	1589.855347	3.526259
505.767395	877.217834	21102.937500	1573.508789	3.442602
506.118317	869.713379	21123.076172	1574.028931	3.477524
506.469238	862.357422	21265.513672	1576.629517	3.500792
506.820160	854.778564	21454.167969	1587.551880	3.557258
507.170929	855.670166	21649.212891	1588.666504	3.525115
507.521729	859.756836	21878.585938	1596.542603	3.505361
507.872498	852.623779	22105.728516	1596.988647	3.502382
508.223236	849.948914	22413.859375	1612.517700	3.536320
508.573883	842.741516	22650.515625	1619.279297	3.560830
508.924500	847.125305	22826.537109	1625.966431	3.543503
509.275116	849.280090	22971.427734	1622.028320	3.493098
509.625702	858.419373	23135.044922	1624.331665	3.438188
509.976196	855.967346	23315.673828	1632.207886	3.456147
510.326660	857.081848	23567.115234	1650.040527	3.491667
510.677124	849.948914	23782.000000	1658.139648	3.524285
511.027557	857.304871	23969.984375	1661.854614	3.480989
511.377869	860.574158	24092.359375	1659.699829	3.439795
511.728180	869.193176	24097.265625	1674.263306	3.465936
512.078430	871.496582	24071.482422	1686.523071	3.513047
512.428650	874.691589	23890.478516	1697.594238	3.575383
512.778931	874.914551	23706.062500	1683.625366	3.542138
513.129028	863.620544	23471.412109	1665.941284	3.548868
513.479126	847.868347	23356.912109	1656.356323	3.591836
513.829285	841.924133	23324.812500	1647.217163	3.581804
514.179382	846.902527	23297.171875	1646.325317	3.560861
514.529297	852.475098	23259.203125	1635.254272	3.493500
514.879272	857.750671	23349.406250	1660.145630	3.567523
515.229187	860.574036	23510.197266	1674.114624	3.591851
515.579163	865.998230	23929.634766	1693.433228	3.587617
515.928955	859.310974	24435.490234	1690.535645	3.525697
516.278748	858.196472	25191.296875	1709.334106	3.497859
516.628540	853.738281	26101.726563	1740.466919	3.512076
516.978333	862.283020	27075.615234	1773.382935	3.475712
517.327942	865.775330	28049.873047	1798.794556	3.432224
517.677612	866.295410	28671.859375	1813.135132	3.405217
518.027222	859.385254	29045.826172	1826.583862	3.431432
518.376831	856.784668	29023.384766	1835.054321	3.473155
518.726379	855.967285	28766.224609	1825.915039	3.475238
519.075867	850.617493	28107.755859	1807.265137	3.509714
519.425293	852.772278	27366.212891	1785.494263	3.517921
519.774658	857.453369	26573.849609	1771.005371	3.552411
520.124084	862.580322	25984.923828	1761.717407	3.579033
520.473389	857.602051	25571.578125	1747.005493	3.598787
520.822693	860.425537	25350.156250	1732.145020	3.559531
521.171997	867.929993	25231.939453	1721.148071	3.501961
521.521240	869.638977	25265.822266	1719.216309	3.482419
521.870361	855.447205	25364.423828	1726.721069	3.554917
522.219482	856.636047	25634.884766	1727.538452	3.514786
522.568604	861.837219	25910.326172	1740.615601	3.508309
522.917664	870.010559	26411.646484	1746.857056	3.433008
523.266724	864.289307	27055.478516	1776.652466	3.483474
523.615662	853.589661	28042.439453	1803.401367	3.493387
523.964600	855.149963	29200.150391	1842.484497	3.483276
524.313538	851.434814	30544.583984	1878.075562	3.457500
524.662354	856.487488	31874.380859	1901.406738	3.368763
525.011169	856.933289	33110.855469	1944.799438	3.372818
525.359985	863.620605	34355.574219	1980.316040	3.334220
525.708740	862.506042	35670.953125	2041.169922	3.386143
526.057434	868.301575	37312.152344	2089.243896	3.350201
526.406067	870.827881	39598.449219	2167.187500	3.347377
526.754700	870.976501	42586.160156	2263.112549	3.337240
527.103333	868.895996	46052.312500	2382.888428	3.350770
527.451782	869.564758	49387.386719	2515.518799	3.392473
527.800293	872.759766	51813.890625	2616.718994	3.423480
528.148743	873.354187	53126.964844	2689.238525	3.475137
528.497131	876.251953	52756.191406	2688.197998	3.492576
528.845642	870.976563	51098.355469	2644.508057	3.531005
529.193909	868.078796	48251.667969	2546.131104	3.541421
529.542175	856.636169	44746.136719	2429.847656	3.584482
529.890503	865.552429	41195.433594	2313.266602	3.589681
530.238770	866.295410	38145.457031	2217.044434	3.623335
530.586914	870.679199	36224.730469	2155.224609	3.633375
530.934998	865.552307	35243.941406	2121.862793	3.654361
531.283142	860.945618	35410.746094	2106.779541	3.605908
531.631226	856.190247	36159.199219	2112.723633	3.559282
531.979248	856.115967	37524.660156	2134.791748	3.487119
532.327148	857.156250	38751.917969	2164.289551	3.449377
532.675110	861.911621	39608.777344	2189.626709	3.426639
533.023071	860.871338	39682.480469	2197.577148	3.443200
533.370850	863.471863	38808.089844	2182.939453	3.477351
533.718689	865.478088	37394.253906	2141.701416	3.493748
534.066467	859.608154	35615.152344	2089.541016	3.538811
534.414246	851.880676	34079.835938	2042.804688	3.584103
534.761963	843.038635	32965.296875	2011.151733	3.636460
535.109619	849.354309	32510.562500	1995.102173	3.618775
535.457153	857.304871	32423.033203	1990.644165	3.590411
535.804749	863.917725	32419.318359	1980.613281	3.538841
536.152344	861.391418	32227.617188	1967.907593	3.527731
536.499817	862.580261	31797.404297	1945.914063	3.501988
536.847229	860.648438	31156.171875	1923.177368	3.507214
537.194641	862.506042	30302.804688	1901.852539	3.530353
537.542114	856.041687	29473.734375	1884.391479	3.593406
537.889404	858.567932	28804.859375	1868.416382	3.613533
538.236694	860.054016	28500.962891	1845.605103	3.565552
538.583984	861.242859	28865.271484	1856.899292	3.555404
538.931213	857.156250	29873.705078	1890.038452	3.559631
539.278381	859.905457	31560.228516	1952.526978	3.558990
539.625488	861.837219	33556.523438	2020.142212	3.542793
539.972595	866.295410	35983.769531	2121.788330	3.575123
540.319641	866.518250	38350.386719	2218.679443	3.607315
540.666687	868.153015	40254.832031	2298.926025	3.632632
541.013611	861.094177	41222.253906	2345.291260	3.677290
541.360596	859.979675	41145.355469	2371.520264	3.752083
541.707458	856.710388	40204.609375	2365.130127	3.833546
542.054260	857.453430	38619.433594	2330.653564	3.901279
542.401062	851.880676	36793.890625	2285.997559	3.990085
542.747864	855.967346	34850.425781	2229.824707	4.041416
543.094666	866.518311	33026.742188	2167.261719	4.044572
543.441284	872.908386	31238.572266	2098.011475	4.034501
543.787903	868.747375	29787.958984	2048.228760	4.078539
544.134460	854.332703	28598.226563	2017.095825	4.191060
544.481079	856.190247	27867.013672	2008.848267	4.267393
544.827637	854.109680	27402.916016	2001.863892	4.323185
545.174072	860.796875	27145.978516	2001.863892	4.341104
545.520508	858.567871	27043.591797	1996.588379	4.346074
545.866943	863.174805	26986.898438	1998.445923	4.345748
546.213318	861.465820	26906.873047	1995.027954	4.352253
546.559631	860.276917	26614.789063	1985.368774	4.368523
546.905823	863.620605	26023.562500	1949.629272	4.316420
547.252136	862.803223	25157.416016	1909.208496	4.307149
547.598389	863.026123	24205.744141	1846.199707	4.211907
547.944458	864.066345	23260.837891	1794.113403	4.152594
548.290588	866.815491	22328.787109	1736.380249	4.051654
548.636658	865.552429	21486.490234	1698.931641	4.041422
548.982727	854.704163	20787.820313	1666.684448	4.073524
549.328735	865.626648	20343.046875	1634.362671	3.946806
549.674622	865.329407	19964.771484	1608.802368	3.892642
550.020569	874.097168	19763.484375	1583.836792	3.757346
550.366455	871.719543	19581.738281	1567.638672	3.719500
550.712280	872.016663	19570.443359	1551.663696	3.634782
551.058044	866.964172	19622.158203	1549.880493	3.641212
551.403748	862.877441	19733.835938	1549.286011	3.637380
551.749512	864.215027	19927.916016	1560.357056	3.651663
552.095154	862.357361	20021.314453	1557.385132	3.627691
552.440735	857.081848	20107.728516	1560.803101	3.655572
552.786316	857.304688	19960.757813	1537.620483	3.561219
553.131897	864.214905	19780.794922	1529.149902	3.515091
553.477417	865.255188	19434.322266	1512.432007	3.485242
553.822815	860.499817	19024.765625	1510.202759	3.576819
554.168213	861.391418	18579.099609	1495.565063	3.579321
554.513672	862.654602	18211.298828	1483.305298	3.577517
554.859009	865.180908	17987.796875	1473.645874	3.553575
555.204285	854.927063	17808.800781	1470.153687	3.628826
555.549500	847.125305	17686.648438	1465.026733	3.669352
555.894714	849.354309	17543.244141	1456.407593	3.636380
556.239990	853.069519	17470.947266	1448.234375	3.581474
556.585022	866.221130	17356.892578	1444.667969	3.507721
556.930115	866.741211	17266.541016	1436.271606	3.472789
557.275146	871.422363	17095.125000	1434.636841	3.471553
557.620178	859.682434	16999.126953	1426.835083	3.514078
557.965149	856.338867	16920.140625	1432.853638	3.588906
558.310059	852.995178	16897.255859	1431.293335	3.604393
558.654968	857.676331	16849.404297	1432.630737	3.595324
558.999756	856.858948	16811.064453	1423.417114	3.551153
559.344604	860.722717	16869.912109	1417.250000	3.476299
559.689331	855.149963	16985.082031	1423.268555	3.522139
560.033997	855.744446	17104.041016	1427.652466	3.519803
560.378723	853.292480	17194.244141	1436.494507	3.568960
560.723389	857.973572	17175.593750	1426.463501	3.483902
561.067932	854.332703	17177.824219	1419.330444	3.461256
561.412476	855.595886	17083.978516	1419.776367	3.476505
561.757019	864.363525	16998.083984	1425.943481	3.480784
562.101501	871.347961	16922.666016	1432.110718	3.493562
562.445862	878.406738	16867.013672	1416.284180	3.364129
562.790222	867.558594	16846.804688	1426.389282	3.497228
563.134644	873.205566	16866.865234	1430.921875	3.487109
563.478943	866.518372	16947.707031	1440.432495	3.568854
563.823181	876.920715	17067.408203	1427.503906	3.400659
564.167358	873.354187	17272.632813	1429.584106	3.391795
564.511536	870.233398	17623.193359	1436.568848	3.380510
564.855774	859.533875	18052.958984	1451.800781	3.444729
565.199768	850.766174	18490.306641	1453.807007	3.418688
565.543823	845.193542	18771.689453	1468.667603	3.477947
565.887817	843.558838	18973.199219	1474.537598	3.480371
566.231812	850.246094	18935.083984	1481.001953	3.487761
566.575745	859.459656	18794.724609	1476.172241	3.438547
566.919617	863.397644	18526.267578	1467.627441	3.420904
567.263428	860.054016	18229.875000	1466.438477	3.491023
567.607239	858.865234	17995.525391	1456.779175	3.489093
567.950989	858.493652	17783.314453	1458.710938	3.546373
568.294678	861.985901	17660.048828	1450.017578	3.500592
568.638367	855.447266	17570.587891	1448.754517	3.549520
568.981995	859.979736	17569.621094	1439.912476	3.470648
569.325623	857.379150	17676.320313	1439.392456	3.460463
569.669128	862.431641	17820.689453	1443.330444	3.425463
570.012573	854.481262	18073.169922	1449.497559	3.455642
570.356140	852.995178	18333.007813	1460.122925	3.473269
570.699524	857.304871	18598.861328	1461.014282	3.402798
571.042908	856.859070	18897.857422	1461.683105	3.352498
571.386230	858.196472	19088.591797	1473.422852	3.374729
571.729492	852.103577	19182.955078	1490.586914	3.483108
572.072815	856.264648	19088.740234	1499.057495	3.525538
572.416016	855.075684	18906.103516	1492.964478	3.533809
572.759094	858.493713	18721.833984	1480.184570	3.480261
573.102234	862.208801	18518.837891	1475.057617	3.470928
573.445374	861.985840	18389.255859	1470.005249	3.468991
573.788391	859.087952	18219.474609	1457.893677	3.449265
574.131409	857.899170	18120.427734	1458.785278	3.480870
574.474365	850.394592	18036.912109	1452.469727	3.503183
574.817261	853.886902	17989.505859	1457.150757	3.520526
575.160156	846.679443	17823.958984	1454.550171	3.580496
575.502930	858.642273	17576.904297	1446.153931	3.514191
575.845703	857.602051	17289.351563	1433.671021	3.505828
576.188477	871.868164	16963.533203	1426.612305	3.447401
576.531250	863.249023	16609.927734	1427.875366	3.585685
576.873901	862.505920	16194.054688	1424.457397	3.665328
577.216431	853.292480	15885.625000	1403.727051	3.661671
577.559082	857.750671	15548.141602	1394.587891	3.654343
577.901611	852.772400	15320.776367	1390.129517	3.714107
578.244080	850.246033	15048.604492	1383.665405	3.756909
578.586487	853.143860	14858.241211	1369.101929	3.684073
578.928955	873.205566	14633.624023	1416.061401	3.945053
579.271301	880.412903	14452.399414	1424.308960	4.007491
579.613647	887.991760	14253.713867	1428.098267	4.040983
579.955872	875.063171	14088.910156	1365.906860	3.714616
580.298157	874.914551	13951.229492	1351.937988	3.647996
580.640320	866.444031	13852.480469	1341.089844	3.655048
580.982483	868.598816	13810.793945	1338.192017	3.628389
581.324524	860.202576	13727.352539	1332.470825	3.670341
581.666626	862.654602	13658.770508	1325.411987	3.616389
582.008728	859.682556	13576.147461	1327.343872	3.677605
582.350647	861.391418	13515.070313	1326.823730	3.678237
582.692566	859.979675	13497.088867	1327.863892	3.702462
583.034424	855.298584	13474.277344	1317.610107	3.663621
583.376343	857.007568	13451.838867	1308.693848	3.586283
583.718201	854.109802	13407.554688	1305.944580	3.599289
584.059937	855.818787	13337.562500	1315.380981	3.681875
584.401611	848.834290	13277.301758	1315.158081	3.752062
584.743347	852.400696	13239.703125	1318.204712	3.760334
585.085022	847.571106	13211.394531	1315.901245	3.787907
585.426514	856.710266	13210.428711	1324.668945	3.787998
585.768127	858.716492	13204.187500	1325.337524	3.779694
586.109619	868.970215	13179.593750	1319.319092	3.658214
586.451172	870.159180	13155.593750	1312.111694	3.597370
586.792542	859.459534	13182.863281	1312.557617	3.676728
587.133850	856.413269	13224.174805	1319.096191	3.741040
587.475220	850.989075	13306.057617	1325.783569	3.812058
587.816589	861.242859	13366.614258	1314.415039	3.623820
588.157776	866.518372	13481.856445	1317.387207	3.573973
588.498962	866.964172	13550.067383	1321.102417	3.580656
588.840210	864.883728	13633.211914	1333.288086	3.668486
589.181335	864.883606	13704.617188	1322.068237	3.560702
589.522400	867.112793	13749.718750	1319.913452	3.514822
589.863403	861.911621	13736.566406	1316.495605	3.530844
590.204407	859.013855	13670.511719	1323.034302	3.621906
590.545410	856.041687	13609.062500	1320.433716	3.641428
590.886353	861.688660	13469.152344	1322.959961	3.658716
591.227112	856.264587	13356.807617	1312.557495	3.650185
591.567932	863.174744	13236.882813	1314.266479	3.645566
591.908752	861.391418	13178.405273	1307.950806	3.625549
592.249512	867.929993	13180.635742	1310.848633	3.597249
592.590149	869.267517	13190.442383	1304.681396	3.533867
592.930786	867.632813	13296.250000	1308.099243	3.543970
593.271423	865.552429	13364.458008	1317.981689	3.619751
593.612000	858.939453	13555.639648	1331.876343	3.724880
593.952576	856.190247	13715.614258	1341.535645	3.774239
594.292969	853.069580	13909.840820	1337.226074	3.708087
594.633484	854.555603	14076.948242	1334.476807	3.629609
594.973877	862.357422	14295.471680	1334.625366	3.515700
595.314209	866.592590	14551.964844	1352.532349	3.550797
595.654480	874.988831	14878.153320	1362.414673	3.480826
595.994812	871.570862	15230.573242	1369.696289	3.469081
596.335022	865.180908	15496.426758	1367.318726	3.431955
596.675171	861.614441	15530.606445	1369.845093	3.464660
597.015320	861.763000	15370.484375	1367.764526	3.487568
597.355408	865.032288	15016.729492	1360.631470	3.502048
597.695496	851.955017	14609.476563	1347.331177	3.600766
598.035461	848.239929	14124.575195	1335.442871	3.669710
598.375366	849.874512	13700.531250	1325.189087	3.698757
598.715271	857.750671	13324.410156	1306.539063	3.599909
599.055176	858.939453	12976.301758	1295.839478	3.605570
599.395081	858.122070	12710.075195	1287.591919	3.623621
599.734802	859.979675	12494.746094	1285.362671	3.656137
600.074524	863.769226	12424.233398	1286.997437	3.660997
600.414246	863.620544	12390.424805	1283.059204	3.638811
600.753906	869.713379	12425.346680	1288.632080	3.625234
601.093506	871.942444	12502.101563	1282.093628	3.526617
601.433044	871.199402	12676.043945	1283.430908	3.492054
601.772583	865.552429	12889.441406	1282.316406	3.466133
602.112122	861.614319	13200.918945	1289.523804	3.467857
602.451538	863.620544	13546.128906	1294.130615	3.394518
602.790894	859.385254	13925.890625	1304.087036	3.403372
603.130310	856.413147	14286.481445	1319.319092	3.446788
603.469604	848.462708	14645.511719	1342.055664	3.577526
603.808838	849.354309	14984.778320	1354.612915	3.574414
604.148010	841.478271	15200.702148	1357.733521	3.595287
604.487305	847.571106	15211.252930	1359.071045	3.561064
604.826416	853.292419	15069.112305	1367.838745	3.619533
605.165527	862.951721	14749.833008	1362.117432	3.594513
605.504456	868.524475	14422.604492	1348.445679	3.540788
605.843445	860.128357	13974.708008	1326.823730	3.558599
606.182434	854.555664	13543.454102	1324.743164	3.705503
606.521423	851.657898	13118.218750	1312.780518	3.759184
606.860229	857.379150	12835.051758	1294.576294	3.650101
607.199036	862.951843	12694.768555	1276.595093	3.496025
607.537903	862.431641	12715.796875	1277.338013	3.500325
607.876648	860.722656	12847.609375	1289.003662	3.572913
608.215271	857.304749	13072.375000	1294.873535	3.582204
608.553955	848.165527	13311.183594	1311.368774	3.716622
608.892578	840.809570	13497.832031	1331.876343	3.879797
609.231140	841.552551	13573.027344	1359.591187	4.068960
609.569641	841.552551	13539.144531	1373.411499	4.188660
609.908081	845.044861	13407.628906	1395.628052	4.382722
610.246521	850.023132	13174.762695	1426.315063	4.675896
610.584961	854.109802	12892.487305	1453.286987	4.977225
610.923340	855.670105	12567.190430	1465.249634	5.204957
611.261597	853.366699	12208.976563	1466.438477	5.398845
611.599854	858.047852	11893.338867	1467.107300	5.519197
611.938110	862.654602	11640.487305	1462.277710	5.563485
612.276245	867.112793	11510.829102	1447.714233	5.454875
612.614319	866.964172	11346.916992	1426.017944	5.334507
612.952393	865.775391	11201.581055	1398.154297	5.150822
613.290466	861.985901	11065.977539	1381.881958	5.095026
613.628479	857.007629	10914.326172	1363.232056	5.033394
613.966370	857.750549	10798.934570	1348.668823	4.938228
614.304260	863.397644	10687.183594	1313.003418	4.576705
614.642151	859.905334	10577.809570	1293.759033	4.464478
614.979980	865.626648	10493.847656	1280.607422	4.310046
615.317749	864.140625	10422.368164	1280.681641	4.357932
615.655396	872.685486	10411.222656	1270.427856	4.169847
615.993164	865.775391	10411.445313	1251.629395	4.042189
616.330811	862.506042	10402.751953	1227.926880	3.830308
616.668396	862.803223	10396.659180	1214.626587	3.690253
617.005859	866.369812	10375.483398	1213.437866	3.649847
617.343445	868.524475	10348.881836	1215.518311	3.660135
617.680908	870.902161	10360.696289	1218.490356	3.662758
618.018311	871.719543	10343.904297	1214.255127	3.616226
618.355652	869.193298	10339.743164	1214.329468	3.644310
618.692993	866.741272	10284.610352	1194.787720	3.483234
619.030273	858.345032	10270.493164	1191.815552	3.542980
619.367554	865.775330	10235.868164	1191.072632	3.471655
619.704712	859.013733	10215.806641	1199.691772	3.640970
620.041870	863.397644	10201.837891	1198.354126	3.586857
620.379028	857.973450	10187.051758	1191.221191	3.572140
620.716064	863.471863	10191.287109	1187.728882	3.476238
621.053040	858.567932	10139.573242	1188.174805	3.551414
621.389954	858.493652	10100.339844	1190.106689	3.588169
621.726929	857.379089	10061.925781	1190.849731	3.622890
622.063843	862.134460	10058.656250	1190.403931	3.569496
622.400635	860.871338	10054.124023	1191.518433	3.596628
622.737427	861.911560	10031.165039	1197.091187	3.655473
623.074219	866.369690	10044.985352	1196.422485	3.595889
623.410889	867.409973	10069.504883	1199.171631	3.605284
623.747559	868.747375	10123.597656	1196.050903	3.536562
624.084167	863.174744	10168.922852	1196.793945	3.585087
624.420715	862.951843	10276.512695	1197.759888	3.556657
624.757324	857.973572	10392.202148	1204.075684	3.630101
625.093750	860.202576	10570.528320	1201.846558	3.518358
625.430176	858.196472	10762.229492	1210.465698	3.556826
625.766602	860.871338	10971.687500	1216.112549	3.513477
626.102905	855.447266	11168.887695	1226.589233	3.598624
626.439209	860.054016	11272.987305	1225.028931	3.505015
626.775452	853.515320	11345.356445	1228.966919	3.578510
627.111694	856.933289	11274.621094	1229.784302	3.579019
627.447876	852.029297	11182.485352	1230.007202	3.658870
627.783997	859.088074	11010.846680	1226.292114	3.617147
628.120056	868.598816	10890.401367	1221.165161	3.517993
628.456055	872.611145	10719.875977	1217.004272	3.497348
628.792053	875.434631	10551.358398	1208.905273	3.446396
629.128052	864.883606	10370.876953	1206.081787	3.589295
629.463928	865.700989	10274.581055	1203.258301	3.587646
629.799744	871.570984	10210.680664	1194.564819	3.458508
630.135559	870.382080	10118.619141	1190.329590	3.459551
630.471375	858.716492	9986.583008	1185.871460	3.584134
630.807068	849.280090	9881.742188	1188.546387	3.756078
631.142700	852.400818	9832.776367	1188.323364	3.740629
631.478333	860.574036	9760.851563	1179.109863	3.578943
631.813965	863.992004	9680.975586	1173.834351	3.514154
632.149475	864.066406	9604.370117	1176.732300	3.577289
632.484924	875.508972	9625.768555	1180.224487	3.482360
632.820435	875.806152	9688.926758	1174.948853	3.394288
633.155884	870.753601	9752.381836	1159.270996	3.248474
633.491150	861.391418	9782.993164	1157.933594	3.323867
633.826477	853.961182	9738.932617	1154.664307	3.384402
634.161804	857.973450	9683.502930	1155.778687	3.374361
634.497009	856.487488	9560.606445	1152.360840	3.399234
634.832153	855.001465	9479.541992	1151.023438	3.432322
635.167297	850.840515	9390.898438	1145.599243	3.451484
635.502380	847.051025	9326.031250	1135.791382	3.405366
635.837463	848.165527	9205.958008	1136.014282	3.444076
636.172424	856.115967	9075.706055	1136.534546	3.411588
636.507324	856.858948	8967.297852	1132.893555	3.403448
636.842224	857.601990	8897.378906	1125.909180	3.337247
637.177124	856.264465	8819.733398	1115.358154	3.253528
637.511963	856.115906	8731.089844	1115.432373	3.292918
637.846741	860.053955	8657.975586	1112.311646	3.234935
638.181396	855.818787	8580.106445	1114.392090	3.347536
638.516113	858.567932	8505.877930	1111.048462	3.301560
638.850769	863.174744	8434.844727	1110.008301	3.259962
639.185303	868.895996	8376.219727	1110.602661	3.219612
639.519836	866.072510	8331.860352	1105.252930	3.203686
639.854370	865.255188	8286.165039	1103.172485	3.206039
640.188843	862.060120	8241.954102	1106.218872	3.308432
640.523254	862.283020	8235.788086	1108.150757	3.334476
640.857605	865.106628	8180.357910	1106.961914	3.306179
641.191895	860.351257	8134.067871	1099.605957	3.289304
641.526184	863.992004	8052.111816	1095.296509	3.217872
641.860413	853.515381	8003.146484	1100.646240	3.456554
642.194580	863.843506	7961.165527	1091.432617	3.206690
642.528748	857.602051	7924.904785	1094.033325	3.345424
642.862793	864.660828	7860.187500	1083.185059	3.123771
643.196838	862.951843	7817.240723	1081.327515	3.140158
643.530823	866.072571	7778.677246	1084.076660	3.153718
643.864746	861.168518	7778.380371	1087.866089	3.277297
644.198669	859.905457	7800.894043	1095.519287	3.394528
644.532532	861.168518	7813.153809	1089.129272	3.279074
644.866333	860.871338	7856.843750	1090.169556	3.277575
645.200073	860.054016	7851.791504	1088.088989	3.261492
645.533813	861.465637	7861.525391	1089.277832	3.254432
645.867554	864.660828	7854.243652	1087.643188	3.190210
646.201172	864.735046	7863.902832	1089.723755	3.214506
646.534729	862.431641	7875.122559	1092.398560	3.279296
646.868225	857.230469	7875.345215	1096.336670	3.406986
647.201782	845.936523	7882.850098	1098.268555	3.585834
647.535217	837.688904	7888.645996	1098.119873	3.693555
647.868591	837.540283	7877.796875	1090.763916	3.596795
648.201965	846.679504	7844.881348	1085.711304	3.415617
648.535278	853.441101	7805.426270	1085.488403	3.337857
648.868591	860.797058	7806.021484	1093.290161	3.347525
649.201782	857.899170	7815.458496	1088.311890	3.311689
649.534912	859.162415	7823.408203	1092.027100	3.343717
649.868103	852.029297	7817.538574	1083.036499	3.316444
650.201172	859.682434	7808.695313	1093.364624	3.362811
650.534180	862.728943	7797.698730	1095.370728	3.354619
650.867188	869.564697	7786.404785	1100.869141	3.344077
651.200134	872.908386	7791.011719	1093.587524	3.189879
651.533020	868.821716	7775.853516	1092.621582	3.240174
651.865845	863.546204	7756.535156	1097.822754	3.398766
652.198608	852.400879	7725.923340	1107.110474	3.705663
652.531433	850.989075	7703.482910	1101.612061	3.657398
652.864136	855.001465	7674.505371	1093.290161	3.494223
653.196777	960.659851	7738.107910	1312.408936	5.189993
653.529358	970.987976	7688.919434	1316.569946	5.144172
653.861938	965.563904	7605.031250	1316.941528	5.292256
654.194519	864.214905	7416.377441	1091.804199	3.473499
654.526978	858.419250	7354.260254	1084.894043	3.486459
654.859375	865.849609	7317.628906	1084.819702	3.393949
655.191833	872.165344	7312.799316	1084.448120	3.295992
655.524170	870.753601	7331.003906	1082.590576	3.279083
655.856445	867.484192	7360.056152	1080.733032	3.284505
656.188660	872.016785	7389.703125	1081.253174	3.210286
656.520874	873.725647	7414.891113	1081.624634	3.178317
656.853088	870.382019	7468.018066	1080.287231	3.181521
657.185181	860.054016	7542.246094	1083.185059	3.339189
657.517212	859.608154	7684.387207	1087.717651	3.342372
657.849243	863.397644	7870.069824	1091.432739	3.254542
658.181274	864.660828	8090.823730	1081.327515	2.998364
658.513123	861.837219	8305.038086	1083.482300	2.977819
658.844971	860.499817	8495.847656	1087.643311	2.974894
659.176819	857.453430	8597.494141	1102.503784	3.166009
659.508667	856.858948	8610.422852	1103.098267	3.175821
659.840393	858.047852	8565.246094	1112.906128	3.306756
660.172058	856.264465	8474.745117	1111.568726	3.351118
660.503662	861.019836	8325.545898	1108.002075	3.308747
660.835266	860.648376	8131.392578	1103.766968	3.343792
661.166931	864.140625	7932.484375	1093.661743	3.247170
661.498413	865.923889	7770.504395	1090.615356	3.254238
661.829773	866.964172	7590.914551	1080.064331	3.169270
662.161194	867.632813	7397.281738	1072.411255	3.136132
662.492615	862.283020	7204.763672	1062.083008	3.150187
662.823975	858.047852	7073.767578	1059.408203	3.239534
663.155212	855.075684	6978.511230	1060.151123	3.349026
663.486450	857.601990	6918.400879	1063.197632	3.392220
663.817627	860.722717	6845.435547	1060.968628	3.345957
664.148743	856.859070	6794.686035	1059.482422	3.412416
664.479858	854.555664	6741.114746	1057.104858	3.440876
664.810913	855.744446	6707.826660	1056.287476	3.426866
665.141907	860.351257	6692.669434	1055.916016	3.353122
665.472778	858.790833	6682.117676	1050.417603	3.290675
665.803711	859.905457	6709.981934	1050.417480	3.256573
666.134583	864.958008	6705.894531	1048.188477	3.137005
666.465454	865.478088	6707.603516	1050.268921	3.163075
666.796143	861.688660	6688.730469	1038.826294	3.039924
667.126831	863.323303	6687.765625	1041.872803	3.065521
667.457458	871.273743	6676.842285	1037.043091	2.855351
667.788147	870.456360	6677.140137	1039.940918	2.918784
668.118774	871.125183	6690.439941	1042.318481	2.941812
668.449219	865.255188	6714.514160	1046.182251	3.093162
668.779663	866.369690	6698.242188	1044.919067	3.061613
669.110107	853.886902	6696.458984	1041.055420	3.203529
669.440552	851.732117	6684.570313	1043.804688	3.292952
669.770874	853.218201	6651.654297	1043.953247	3.289422
670.101135	857.304749	6600.384766	1037.488892	3.137413
670.431396	859.608154	6544.138184	1033.179443	3.053397
670.761597	855.298645	6495.172363	1037.414673	3.229080
671.091797	856.710388	6464.411621	1033.105103	3.145580
671.421875	861.688660	6430.529297	1028.201050	2.990073
671.751892	869.936218	6409.947266	1027.680908	2.847371
672.081909	877.812317	6359.050293	1041.129761	2.979572
672.411865	874.765930	6297.824219	1045.959351	3.156769
672.741821	874.171570	6253.391113	1036.374390	3.015360
673.071716	869.341858	6228.871094	1025.451782	2.912754
673.401550	867.781494	6196.103516	1020.250671	2.861486
673.731262	863.100403	6186.295410	1024.337280	3.028949
674.060974	857.379089	6149.218750	1021.662415	3.104465
674.390625	858.047852	6154.568848	1024.188721	3.136792
674.720276	854.184082	6125.888184	1027.383789	3.285460
675.049927	864.140686	6114.593750	1031.916138	3.195447
675.379395	862.283142	6082.197754	1025.080444	3.118773
675.708923	864.660828	6049.132813	1016.386902	2.926548
676.038330	856.710388	6032.117676	1013.414856	3.027867
676.367737	858.865173	6023.943848	1014.529358	3.013782
676.697083	859.385254	6017.925781	1023.222839	3.176045
677.026428	858.939453	6021.046875	1021.885437	3.156579
677.355652	853.515320	6042.000000	1028.201050	3.366796
677.684875	857.007568	6119.126465	1029.315552	3.274498
678.013977	858.716553	6189.044922	1030.132935	3.215869
678.343079	868.301575	6271.446777	1033.327881	3.054264
678.672180	871.347961	6332.003418	1032.287720	2.947261
679.001221	867.335693	6393.005859	1039.940918	3.123698
679.330139	861.688660	6458.169434	1040.832520	3.201009
679.659058	860.574036	6539.085449	1041.575562	3.187482
679.987976	861.837219	6641.028809	1043.953247	3.151237
680.316772	859.236633	6673.796387	1041.278442	3.130793
680.645630	853.663879	6664.434082	1039.123657	3.191656
680.974304	859.310974	6617.846191	1035.631348	3.061896
681.302979	855.447266	6579.060059	1034.219604	3.123418
681.631653	864.735107	6511.593262	1029.018433	2.909287
681.960266	866.295471	6424.733887	1036.374390	3.059833
682.288757	871.273682	6342.108887	1034.665405	2.986596
682.617249	863.694824	6273.155762	1040.312378	3.264975
682.945679	860.871277	6194.617676	1028.869751	3.149727
683.274109	870.159180	6107.832031	1026.492065	2.984778
683.602478	875.806152	5982.111816	1019.433289	2.812741
683.930725	873.799988	5889.233887	1009.773987	2.711111
684.259033	860.797058	5797.915527	1008.362305	2.988894
684.587280	853.292419	5775.104980	1005.910217	3.100845
684.915344	852.400818	5749.321777	1012.151672	3.262271
685.243469	858.493652	5757.717285	1010.071228	3.093910
685.571533	860.797058	5726.361816	1008.288025	3.031322
685.899536	861.837219	5715.365234	1002.195129	2.891874
686.227539	856.710388	5685.347168	1001.897888	3.006801
686.555420	853.961182	5689.507813	1009.848206	3.223772
686.883301	851.955078	5703.253906	1013.340515	3.326644
687.211121	855.818787	5739.662109	1018.764648	3.336427
687.538940	858.345032	5762.398926	1024.114380	3.380251
687.866638	858.790833	5760.169434	1027.012207	3.432124
688.194336	854.035583	5730.597656	1027.086426	3.548624
688.521973	853.069519	5688.467285	1014.009094	3.328362
688.849609	848.091248	5614.387207	1021.959656	3.647873
689.177063	855.967285	5538.970215	1018.393066	3.468411
689.504578	858.122070	5481.237793	1015.272461	3.399231
689.832031	859.162354	5419.417480	996.028015	3.001272
690.159485	856.264587	5334.638184	983.619446	2.843775
690.486816	849.651672	5257.214844	984.436707	3.058040
690.814087	859.236755	5214.639160	984.436768	2.874591
691.141296	859.013855	5184.026855	996.250977	3.173103
691.468506	861.465759	5136.695801	992.164307	3.057112
691.795715	861.168457	5086.913086	995.062012	3.168520
692.122803	861.242859	5056.597656	991.569824	3.106459
692.449829	859.905334	5037.873047	987.260254	3.048250
692.776855	859.311035	5000.127441	987.780457	3.102514
693.103821	855.372986	4978.653809	979.681396	3.014794
693.430664	870.159180	4948.486816	978.715515	2.661786
693.757568	868.970398	4925.378418	976.412109	2.648691
694.084351	874.988831	4892.462402	981.093079	2.641069
694.411133	865.329407	4884.512207	985.031250	2.978263
694.737854	862.654602	4866.977051	982.876465	3.002302
695.064575	861.837219	4853.379395	972.251160	2.766197
695.391174	861.465759	4840.302246	979.309814	2.961772
695.717773	863.843445	4865.342285	976.783508	2.822444
696.044250	860.202637	4924.264160	988.003235	3.144652
696.370789	861.317078	4988.981934	987.334473	3.052995
696.697205	855.447205	5103.333496	992.832947	3.234214
697.023621	859.236633	5240.868164	1003.309631	3.288113
697.349915	858.567871	5431.751953	1000.634766	3.106520
697.676208	865.106628	5631.179688	1011.780090	3.077449
698.002380	862.580261	5847.623535	1019.210388	3.142001
698.328674	862.580261	6068.154785	1032.139160	3.257256
698.654724	857.007629	6193.429199	1034.070923	3.318016
698.980896	856.190247	6271.520996	1032.139160	3.249089
699.306946	846.753723	6227.830566	1027.235229	3.354004
699.632935	848.908630	6165.416504	1021.290955	3.242398
699.958862	847.496887	6021.195313	1008.139404	3.104984
700.284729	857.007629	5855.500000	1001.749329	2.895707
700.610596	856.264587	5660.826660	1002.120850	3.035787
700.936340	856.413086	5468.160156	1000.857666	3.132101
701.262146	853.292419	5286.192871	998.034180	3.265171
701.587830	852.029297	5140.410645	988.077454	3.172483
701.913513	859.236633	5010.009766	989.786438	3.145193
702.239075	864.289246	4898.109863	981.464600	2.904823
702.564697	867.558533	4795.349121	978.715515	2.830013
702.890137	856.784668	4704.104980	957.687805	2.622686
703.215698	855.670105	4617.468262	957.390625	2.704040
703.541016	856.338867	4551.562012	951.594971	2.577817
703.866455	857.676331	4497.469238	963.409119	2.904912
704.191711	853.441101	4474.435059	963.929199	3.051320
704.517029	857.824890	4440.776367	964.226379	2.969660
704.842163	866.518311	4402.213379	958.282166	2.595356
705.167419	872.016785	4358.969238	958.282227	2.473949
705.492493	862.580322	4329.396973	964.895081	2.951260
705.817566	858.493652	4311.415527	966.678406	3.133137
706.142578	852.549500	4290.462402	960.957031	3.153295
706.467590	859.459534	4281.099609	952.709473	2.725299
706.792480	858.865173	4264.827637	950.851868	2.700755
707.117371	856.561707	4269.805664	954.938660	2.882213
707.442200	862.505920	4272.629395	963.854980	2.972006
707.766907	866.146790	4293.136719	963.557800	2.842466
708.091675	871.793762	4303.613281	966.455505	2.758354
708.416321	864.289246	4315.130371	962.071594	2.833580
708.741028	857.750671	4326.721191	963.706238	3.054381
709.065552	854.555664	4347.675293	962.071594	3.077935
709.390137	851.360596	4378.213379	959.099426	3.054815
709.714600	843.707336	4398.423828	967.718567	3.488639
710.039063	850.394592	4435.872559	967.272766	3.259765
710.363403	852.920898	4449.395508	973.217041	3.344835
710.687744	861.317139	4503.488281	971.359436	3.021338
711.012085	861.019836	4547.698242	980.795898	3.248888
711.336304	857.750549	4610.483887	979.532715	3.245159
711.660461	862.654602	4633.963379	979.755676	3.105051
711.984619	854.407043	4624.378418	980.647400	3.348576
712.308716	858.939453	4563.970215	981.018860	3.294963
712.632751	858.196472	4507.648926	973.514343	3.159868
712.956726	864.883606	4446.869141	970.542175	2.949721
713.280701	861.837219	4411.798340	966.306946	2.942841
713.604553	869.639099	4364.541504	962.294617	2.651162
713.928467	860.499817	4343.811035	958.133606	2.802902
714.252258	856.116028	4322.783691	962.814697	3.077845
714.575989	850.097473	4321.223145	974.331543	3.579072
714.899719	856.115967	4296.703613	965.786682	3.187558
715.223267	866.741272	4296.257813	958.653748	2.680042
715.546936	857.676331	4296.332031	955.384460	2.841463
715.870422	857.081848	4301.756348	960.957031	3.015530
716.193970	855.967285	4273.446777	959.173767	3.019959
716.517395	862.803223	4241.570801	956.424622	2.770874
716.840820	857.081848	4202.784668	949.142883	2.751620
717.164124	849.725891	4173.509766	959.768311	3.310757
717.487488	848.314148	4115.033691	957.316223	3.336744
717.810730	852.475098	4048.384033	961.848816	3.422304
718.133972	853.961182	3965.610352	956.721863	3.302451
718.457092	856.487488	3895.840576	949.365906	3.055861
718.780212	858.939453	3834.020508	949.588684	3.046950
719.103210	857.156250	3797.463623	942.455750	2.901040
719.426208	858.196472	3760.163818	943.421692	2.936808
719.749207	857.824890	3729.699463	939.186340	2.833043
720.072083	859.459473	3700.647217	930.641602	2.505365
720.394958	849.874512	3674.120850	929.824219	2.830833
720.717773	851.583435	3637.861084	926.034851	2.672075
721.040527	847.199646	3609.254639	931.087402	3.037150
721.363281	854.109680	3583.991455	934.728271	2.953190
721.685913	853.663879	3581.093994	938.443359	3.108402
722.008545	857.750488	3554.567627	939.706482	3.038990
722.331055	855.075623	3540.524658	931.161682	2.833272
722.653503	862.951843	3525.738281	934.430969	2.684373
722.976013	862.208801	3522.766357	933.093567	2.664282
723.298401	868.747375	3524.549561	933.985168	2.456425
723.620789	856.636047	3522.840576	925.440430	2.580611
723.943115	861.614441	3511.917969	924.028625	2.354983
724.265381	859.756836	3492.525146	928.412537	2.607738
724.587585	866.518372	3484.797607	935.471252	2.633519
724.909790	862.208801	3487.769531	942.604309	3.062032
725.231873	862.060242	3480.636719	943.495911	3.109921
725.553894	861.391418	3481.156982	939.260681	2.972375
725.875916	912.140137	3536.512451	986.071350	2.817101
726.197937	905.378601	3554.270752	983.619324	2.953715
726.519775	903.669678	3559.323486	982.653503	2.974176
726.841675	859.831116	3525.887451	930.047180	2.633705
727.163513	866.666992	3556.425781	930.715881	2.381213
727.485291	860.722717	3600.487061	931.904785	2.598109
727.806946	856.115967	3641.873291	931.161804	2.693912
728.128662	853.292480	3655.842529	932.276306	2.818284
728.450256	857.824890	3657.997070	933.242188	2.693309
728.771790	857.676331	3653.984619	939.260681	2.917573
729.093323	871.793762	3661.563721	941.712708	2.506262
729.414795	874.691589	3664.387451	936.808594	2.226659
729.736145	877.143616	3659.037354	938.889160	2.219551
730.057495	860.871277	3652.276123	933.836609	2.613929
730.378845	867.112793	3647.669189	937.180176	2.519905
730.700134	868.598877	3660.375000	938.591980	2.507117
731.021301	872.982727	3694.108398	943.718811	2.507371
731.342468	868.153015	3740.918945	943.050110	2.607142
731.663574	870.604980	3782.751709	932.870667	2.138137
731.984680	866.444031	3790.627686	934.728271	2.335156
732.305664	857.304871	3778.590576	934.282410	2.635057
732.626648	845.416321	3744.039795	933.762207	3.047857
732.947571	844.301819	3728.584717	926.406250	2.846615
733.268433	853.143860	3698.863525	922.022461	2.420428
733.589233	850.989075	3683.111328	930.047180	2.791479
733.909973	851.880676	3664.981689	926.332031	2.646594
734.230713	849.725891	3627.458984	940.152344	3.255404
734.551331	853.143860	3576.561768	935.174072	3.012032
734.871948	853.143860	3513.627197	934.282410	3.049767
735.192505	855.967346	3479.001953	922.171082	2.523937
735.513062	866.444031	3428.104736	914.443604	1.873768
735.833435	874.022949	3376.538330	915.929626	1.674582
736.153931	869.193176	3326.904297	915.632385	1.889531
736.474304	862.654602	3316.204834	915.409485	2.150145
736.794617	860.128235	3307.288330	916.895569	2.319723
737.114807	861.317139	3314.718750	923.211365	2.522792
737.434998	863.100403	3310.037842	928.561096	2.675209
737.755188	867.855774	3321.034424	932.945007	2.653261
738.075256	876.400635	3334.037354	925.291809	1.989357
738.395325	875.508972	3353.653076	926.109131	2.041857
738.715271	873.279846	3379.584961	932.796387	2.374672
739.035278	865.552307	3373.269531	935.619873	2.794078
739.355164	866.444031	3371.560547	939.409363	2.912652
739.675049	867.261414	3347.337646	930.641602	2.555574
739.994873	863.323303	3343.547852	933.316406	2.822047
740.314636	857.973572	3314.272705	926.629211	2.795085
740.634277	853.589661	3282.619873	924.920227	2.936586
740.953979	856.784668	3243.388428	923.136963	2.780197
741.273499	862.431641	3206.756836	919.570496	2.437326
741.593140	864.660828	3185.654541	918.604553	2.324165
741.912598	860.722656	3161.506104	909.985413	2.141130
742.232117	859.979675	3133.048828	905.527344	2.003796
742.551453	857.527649	3096.937500	901.514954	1.964236
742.870850	854.406982	3054.733643	907.756348	2.424611
743.190063	855.150085	3022.188721	911.100037	2.581862
743.509338	856.487366	2987.861328	917.415710	2.858642
743.828552	865.626709	2969.434326	913.551941	2.278023
744.147705	864.437805	2956.876953	918.455872	2.581583
744.466797	871.199402	2938.672607	903.966980	1.584909
744.785828	873.948547	2936.815186	907.533508	1.628072
745.104858	877.440735	2918.387939	904.189758	1.310618
745.423706	869.639099	2923.514893	917.044128	2.308077
745.742615	871.348083	2901.149658	909.390930	1.874215
746.061401	869.341858	2905.905029	911.694336	2.079605
746.380249	869.193298	2894.536865	907.236145	1.878340
746.698975	861.837219	2905.385010	914.072083	2.556087
747.017639	862.357361	2895.577148	906.270325	2.159775
747.336304	860.425537	2880.641846	901.737793	2.044942
747.654907	855.818665	2873.063232	900.549011	2.217398
747.973389	849.354431	2874.994873	904.189758	2.707061
748.291931	843.707336	2886.437500	906.790466	3.088177
748.610352	846.828125	2882.499756	907.682129	2.989382
748.928711	859.162292	2884.431641	911.694397	2.593833
749.247070	870.159180	2885.843506	915.409485	2.244910
749.565308	872.685547	2872.914795	913.477600	2.039369
749.883545	869.044678	2862.215088	911.471497	2.128610
750.201782	865.403809	2855.899414	913.923523	2.437570
750.519836	859.533875	2860.802979	911.694336	2.606369
750.837952	850.617493	2854.264404	918.232971	3.374620
751.155884	849.725891	2842.301758	913.180420	3.184548
751.473877	853.515320	2814.364014	916.003906	3.186813
751.791809	854.184021	2807.973877	915.706726	3.148891
752.109619	862.580261	2797.125977	912.957520	2.604087
752.427490	865.775208	2805.225342	910.951355	2.329328
752.745300	865.329529	2818.079346	909.762512	2.275406
753.062988	856.413269	2831.305420	911.397217	2.784149
753.380615	857.081970	2835.614990	905.601563	2.452302
753.698303	860.276855	2819.862549	901.886475	2.123389
754.015808	859.682434	2813.843750	897.502625	1.935367
754.333374	857.602051	2804.407471	902.406555	2.301437
754.650757	854.927185	2794.599609	899.508728	2.298406
754.968262	856.933350	2787.615234	898.245544	2.139772
755.285583	857.899231	2789.621094	897.353943	2.042463
755.602905	863.397644	2793.930908	899.657410	1.878225
755.920105	860.276855	2782.042236	903.298157	2.238634
756.237305	861.465759	2779.218994	905.378723	2.289813
756.554443	859.831055	2775.875000	901.960754	2.198786
756.871582	866.666992	2783.751221	904.412781	1.968917
757.188599	864.437927	2797.125732	897.353943	1.703121
757.505615	863.917786	2818.748047	900.994812	1.896688
757.822510	865.775330	2842.599365	901.960693	1.830480
758.139465	867.484192	2878.635986	909.391052	2.083724
758.456238	857.899170	2896.542969	913.180420	2.711668
758.773010	853.069519	2920.245361	919.496155	3.213400
759.089783	847.868347	2918.908203	915.409485	3.261219
759.406433	854.035461	2933.620117	912.065918	2.790483
759.723145	852.103699	2934.957275	906.344543	2.604160
760.039673	853.218201	2942.461914	913.849121	2.902051
760.356201	854.852844	2958.437256	907.904968	2.521987
760.672668	856.784668	2968.319336	906.047363	2.333028
760.989136	865.923889	2968.319336	906.270325	1.919070
761.305481	873.279968	2964.901611	906.567566	1.591473
761.621826	872.016785	2954.350342	911.025696	1.873327
761.938049	865.106628	2970.325439	908.127869	2.043552
762.254333	854.852844	2997.966064	913.403320	2.732029
762.570496	855.224304	3102.658936	912.511719	2.549014
762.886597	854.852783	3252.824463	916.449768	2.568712
763.202637	854.852844	3466.519287	917.490051	2.398362
763.518677	858.939453	3713.278564	924.994629	2.314202
763.834656	863.397644	3929.425049	933.687988	2.292554
764.150574	866.518311	4060.049072	942.158508	2.368545
764.466370	857.750671	4075.281250	945.204895	2.718054
764.782288	853.961182	3969.028320	946.616638	2.974429
765.097961	858.642273	3809.351807	940.152283	2.762387
765.413696	863.100403	3602.196045	937.923157	2.731659
765.729309	867.632813	3428.178955	926.703430	2.306954
766.044861	865.552429	3272.960693	931.013000	2.719131
766.360474	871.199402	3163.884521	929.006897	2.521388
766.675903	867.558594	3080.219482	927.223633	2.696529
766.991394	864.512207	3021.891602	923.211365	2.720855
767.306763	859.088074	2969.731201	916.375488	2.714216
767.622131	855.670105	2921.508789	912.214539	2.737118
767.937378	855.447266	2868.605225	904.635681	2.443346
768.252625	863.620544	2809.757080	905.675842	2.160964
768.567810	863.323303	2751.727295	899.657410	1.924064
768.882996	865.106628	2710.489014	900.251770	1.904491
769.197998	856.116028	2681.733887	890.592468	1.888481
769.513062	851.286316	2685.003174	897.205383	2.504153
769.828064	852.920898	2667.541992	893.341614	2.227502
770.142944	861.168518	2663.752686	896.090820	1.937346
770.457825	865.552429	2624.594971	891.632629	1.482636
770.772705	861.911621	2595.988525	891.409729	1.701084
771.087402	851.286316	2564.409912	893.341614	2.454890
771.402100	853.069519	2550.143799	897.056702	2.591942
771.716736	861.317139	2524.955078	893.713074	1.947295
772.031372	862.877502	2495.382568	891.186829	1.734103
772.345947	868.524475	2466.850342	888.511963	1.250526
772.660461	865.032227	2452.955811	893.341614	1.782793
772.974854	869.267517	2453.624512	894.456055	1.589827
773.289246	865.478027	2454.961914	891.632629	1.645478
773.603638	868.821716	2441.810303	885.911316	1.086442
773.917908	859.310852	2422.491455	885.688477	1.687433
774.232178	862.506042	2401.463867	885.391296	1.487062
774.546265	856.338867	2395.891113	886.060059	1.930509
774.860474	858.865173	2390.764404	878.704041	1.295051
775.174561	860.054016	2387.718018	880.710144	1.352138
775.488586	861.242859	2383.928467	885.242615	1.576147
775.802551	865.998230	2371.148682	892.747131	1.777158
776.116516	864.289246	2343.210693	886.059875	1.472061
776.430359	866.518311	2335.557617	883.682312	1.168383
776.744202	873.354187	2327.904297	879.372742	0.413774
777.057922	874.765930	2338.232422	883.087891	0.568647
777.371704	877.292175	2332.436768	878.852539	0.107231
777.685303	869.267578	2325.006592	874.543030	0.362390
777.998962	868.450195	2319.210938	875.583313	0.491681
778.312500	861.762939	2308.214111	879.075500	1.196899
778.626038	861.168640	2297.811768	886.282898	1.748121
778.939453	858.419434	2286.146240	881.230286	1.597704
779.252869	855.298645	2285.031494	885.688477	2.125560
779.566223	853.441101	2284.139893	884.351074	2.160481
779.879578	848.982910	2290.901367	889.998047	2.844484
780.192749	848.908630	2284.363037	884.425293	2.474245
780.505920	849.280090	2281.019043	883.905090	2.418388
780.819031	851.360535	2267.718994	885.316895	2.397441
781.132141	864.363525	2269.353516	896.908142	2.316359
781.445190	866.815613	2273.737549	897.354004	2.170582
781.758118	863.174744	2281.836670	896.759460	2.367352
782.071045	864.215027	2273.663330	886.728699	1.597339
782.383911	871.050842	2261.626465	881.898987	0.780119
782.696838	880.115723	2240.004150	884.202393	0.300515
783.009583	871.645203	2216.747314	881.973328	0.767832
783.322266	863.917725	2198.246094	888.289063	1.826487
783.634888	861.540100	2185.168701	887.323059	1.947900
783.947510	856.710388	2178.110107	886.431458	2.249211
784.260132	851.880676	2167.187256	874.914551	1.751217
784.572571	847.422546	2153.738525	872.462585	1.916844
784.885010	854.035461	2143.707764	870.827881	1.302069
785.197449	863.546204	2141.404297	879.595703	1.255969
785.509766	866.295410	2151.955566	876.103333	0.762871
785.822083	866.592590	2155.224854	880.710205	1.095550
786.134277	861.540039	2158.865479	885.019714	1.809852
786.446533	856.413269	2146.977051	882.716309	2.038105
786.758606	854.927063	2150.617920	881.601746	2.058723
787.070740	855.967285	2144.376709	879.372620	1.816607
787.382690	861.391418	2160.723145	880.784363	1.492532
787.694641	865.032227	2184.871338	882.047546	1.289196
788.006653	869.936218	2237.180664	876.103455	0.451071
788.318481	877.738098	2289.712646	880.115723	0.168390
788.630310	862.431641	2332.510986	882.270508	1.349510
788.942017	856.636047	2345.959717	883.607971	1.811018
789.253784	848.239929	2347.222900	887.323181	2.607318
789.565430	853.218079	2327.606934	884.796814	2.141819
789.877014	852.177917	2303.012695	891.484070	2.709209
790.188538	856.264465	2249.812256	885.242676	2.079456
790.500061	863.397644	2213.552490	881.824707	1.364811
790.811462	860.722656	2175.732178	874.691650	1.062273
791.122925	852.326477	2160.351563	874.617249	1.704155
791.434204	847.422546	2135.014160	875.211731	2.158230
791.745483	848.016907	2117.032959	880.264343	2.541137
792.056702	848.834290	2094.296631	879.001160	2.422142
792.367920	849.354431	2080.104736	882.047546	2.656357
792.678955	848.982910	2059.745605	877.069336	2.319730
792.990112	848.165527	2041.690063	881.304504	2.776564
793.301086	850.617493	2021.925415	879.744202	2.486683
793.612122	850.171631	2030.470337	886.431458	3.072089
793.922974	857.081848	2033.219727	881.973328	2.116374
794.233826	855.818787	2042.358887	880.858704	2.110331
794.544556	863.769226	2043.622070	867.707214	0.333769
794.855286	856.710388	2052.018311	874.468750	1.485673
795.166016	855.372864	2052.984131	876.920715	1.799236
795.476624	851.731995	2060.785889	888.957764	3.078917
795.787292	852.177917	2080.178955	884.053772	2.595752
796.097778	852.400818	2120.451172	882.716309	2.390717
796.408264	853.589661	2148.686035	880.933105	2.111306
796.718689	855.818665	2161.614502	878.778320	1.758288
797.029053	854.481262	2163.175049	875.137390	1.578377
797.339355	855.001465	2150.618164	871.496582	1.273148
797.649658	856.190247	2144.005127	874.543030	1.425110
797.959839	863.174744	2121.937256	878.406738	1.210077
798.270020	864.883728	2105.590576	878.704041	1.113906
798.580078	863.843445	2079.733154	876.920715	1.075531
798.890137	858.642273	2055.213379	876.400574	1.484099
799.200195	856.264587	2039.386841	874.543030	1.544933
799.510071	854.704285	2023.040161	870.753601	1.373690
799.820007	851.360596	2012.786499	866.592590	1.311491
800.129883	850.246094	1996.885742	866.815613	1.445050
800.439575	856.933289	1993.096313	869.713379	1.124846
800.749329	863.620605	1985.740234	871.570984	0.708514
801.058960	871.496582	1971.250977	876.400635	0.445923
801.368591	865.700989	1967.090210	878.183899	1.133379
801.678162	867.484192	1956.242065	879.372742	1.091937
801.987671	867.781494	1958.173828	870.084778	0.211234
802.297119	872.834167	1956.093384	867.187012	-0.521312
802.606506	863.917786	1958.248169	862.431702	-0.135798
802.915894	856.561829	1950.446411	866.072510	0.869441
803.225159	852.029297	1930.087524	865.478088	1.247501
803.534424	853.738220	1918.570679	872.388245	1.751451
803.843628	857.156189	1916.118530	874.617371	1.648895
804.152771	861.614319	1924.068970	875.731934	1.328773
804.461792	864.586426	1932.836548	875.434753	1.015523
804.770874	861.019958	1937.814941	881.750305	1.925190
805.079773	860.499817	1948.143066	881.676025	1.946981
805.388733	859.385254	1955.870605	877.886536	1.687326
805.697571	864.363586	1971.994263	873.279846	0.804985
806.006470	865.032227	1978.607056	873.131348	0.727308
806.315125	864.289246	1989.009399	875.137451	0.964525
806.623901	872.091003	1989.083862	877.663757	0.498907
806.932495	875.731750	1970.136597	884.796875	0.828315
807.241150	877.515137	1950.446411	893.564514	1.495844
807.549622	868.970398	1948.886108	885.762695	1.554964
807.858154	861.094238	1942.867554	888.214661	2.507034
808.166565	858.790833	1939.895508	882.716309	2.213058
808.474915	850.394714	1917.233276	881.527405	2.918219
808.783264	848.016907	1907.648071	874.765930	2.524371
809.091492	846.307922	1887.586426	871.347961	2.404740
809.399719	845.936523	1866.855957	876.920715	3.034930
809.707825	847.645325	1850.435059	871.645203	2.393311
810.015930	854.555603	1843.301880	871.199402	1.683324
810.323975	863.471863	1835.128540	872.016785	0.879418
810.632080	865.329407	1836.466187	869.193298	0.397873
810.939880	868.450195	1833.568237	869.193298	0.076996
811.247864	861.317139	1829.481445	864.215027	0.299318
811.555664	858.196472	1818.930542	867.335693	0.951275
811.863464	852.698059	1811.946167	869.267578	1.727345
812.171143	852.475098	1810.980103	870.456360	1.875970
812.478882	859.088074	1803.475708	871.050842	1.266722
812.786438	865.329590	1785.345825	874.394348	0.985282
813.094055	874.468750	1769.742188	878.778259	0.481362
813.401489	872.091064	1765.581177	876.920654	0.540531
813.708984	861.391418	1779.698853	866.369812	0.542127
814.016357	852.326477	1788.986694	868.673096	1.745203
814.323730	849.280090	1791.513062	877.440857	2.988727
814.630981	852.549377	1772.342773	880.041504	2.988946
814.938232	858.865173	1755.476074	880.784424	2.444678
815.245361	856.933289	1742.993164	870.084778	1.484266
815.552490	862.951843	1750.497681	870.456360	0.845536
815.859619	857.824890	1766.026978	865.180847	0.809947
816.166565	863.174622	1785.494263	870.084778	0.749215
816.473572	860.276917	1798.497437	870.084778	1.045368
816.780457	865.998230	1806.893555	868.301575	0.244804
817.087341	866.592712	1808.156738	867.855774	0.134145
817.394043	867.484314	1814.769897	866.964172	-0.054909
817.700806	863.397644	1823.166016	863.471985	0.007746
818.007507	863.323242	1833.642578	863.026184	-0.030614
818.314209	862.357361	1836.168823	862.506042	0.015268
818.620667	866.295410	1844.416382	871.570862	0.539346
818.927246	863.620544	1868.936157	870.084778	0.643005
819.233704	859.162415	1909.654175	870.382080	1.068039
819.540161	857.304871	1949.480469	860.351135	0.278917
819.846497	866.072571	2009.071289	866.964111	0.078000
820.152832	870.010559	2075.052002	880.264343	0.850907
820.458984	865.775391	2181.379395	885.688416	1.513603
820.765259	854.927063	2282.208008	885.688416	2.155241
821.071350	860.202576	2411.717529	889.700745	1.901250
821.377502	865.998230	2606.465088	905.973145	2.296793
821.683472	870.382080	2999.377930	921.948242	2.422088
821.989441	866.815613	3786.243408	941.341125	2.552744
822.295349	862.580322	4969.811523	974.108643	2.715414
822.601196	863.992004	6462.998535	1024.708740	2.870451
822.907043	859.682434	7811.296387	1067.432983	2.988523
823.212769	859.831055	8566.137695	1093.958862	3.038132
823.518494	855.967285	8475.339844	1083.630859	2.987957
823.824097	854.035461	7689.662598	1061.414429	3.033796
824.129700	850.617615	6587.382324	1025.154663	3.042430
824.435242	848.016907	5502.710938	997.737000	3.216540
824.740723	850.320313	4587.747559	967.198547	3.127238
825.046082	854.184082	3935.072021	940.449524	2.800019
825.351501	858.716553	3481.379639	920.239258	2.345810
825.656799	859.979736	3193.382568	904.115540	1.891478
825.962036	860.053955	3010.746338	896.165100	1.679047
826.267212	859.756775	2931.762451	893.713135	1.638816
826.572449	862.283020	2958.808594	893.713135	1.499152
826.877502	867.558533	3127.550049	903.223877	1.578119
827.182495	869.787598	3428.402100	913.700500	1.716277
827.487488	864.660828	3785.352295	934.802551	2.401545
827.792419	857.379150	4044.817139	946.170898	2.785678
828.097290	854.629944	4083.157227	953.749695	3.070123
828.402100	862.283142	3899.183838	944.907715	2.720687
828.706848	867.112793	3574.183838	930.195740	2.330302
829.011597	866.592712	3198.955078	917.192810	2.169478
829.316223	863.843445	2841.633057	902.703796	1.964838
829.620789	866.369690	2563.146484	901.737793	2.084429
829.925354	869.490417	2350.195068	895.867859	1.781412
830.229797	873.354187	2196.536865	894.604797	1.606022
830.534302	874.022949	2059.448486	884.276672	0.864982
830.838562	871.645264	1968.056030	879.669922	0.731903
831.142944	868.078674	1904.601563	869.118958	0.100363
831.447144	860.128235	1862.694824	868.153015	0.800424
831.751404	854.481262	1832.750977	861.614441	0.729163
832.055542	853.886902	1818.782104	865.700989	1.224391
832.359619	852.697998	1818.410522	868.227356	1.608073
832.663635	860.202637	1858.756836	871.645264	1.145919
832.967651	862.208740	1923.623047	868.227356	0.567037
833.271545	863.174622	2060.860107	869.490417	0.527333
833.575439	860.053955	2234.505615	872.759766	0.924428
833.879211	859.831055	2483.419922	894.679016	2.146354
834.183044	859.385254	2719.999756	904.709961	2.436007
834.486694	860.128235	2898.549072	913.551941	2.620838
834.790344	852.029297	2953.681641	909.168152	2.718759
835.093933	856.264648	2899.143555	907.607727	2.513271
835.397522	857.527649	2717.696289	900.920593	2.332742
835.700928	863.843445	2489.289795	892.970154	1.791921
836.004395	867.781494	2263.112305	889.626465	1.565576
836.307739	866.666931	2107.373779	882.047607	1.239671
836.611023	868.598816	1980.762085	873.725769	0.460989
836.914307	869.787659	1881.344849	862.654602	-0.705156
837.217529	868.153015	1800.726440	861.540039	-0.709110
837.520691	868.375793	1737.271851	866.295471	-0.239421
837.823730	865.552429	1680.058716	868.747375	0.392256
838.126831	870.382080	1623.960083	865.106628	-0.700054
838.429749	868.673096	1593.421875	857.007568	-1.609596
838.732727	865.032227	1562.957642	848.908508	-2.310235
839.035522	863.471924	1550.623413	845.787842	-2.573535
839.338379	854.852783	1544.827759	851.657715	-0.463070
839.641113	855.595886	1569.942261	857.007568	0.197619
839.943848	855.447266	1604.121460	865.849609	1.389435
840.246460	861.911560	1657.842285	865.329529	0.429430
840.549072	860.202637	1711.265991	865.700989	0.646057
840.851563	859.013672	1756.442017	860.945618	0.215276
841.154053	860.351135	1759.339966	862.951843	0.289293
841.456482	863.249023	1710.523071	868.004456	0.561263
841.758850	868.821716	1640.307007	863.917786	-0.635648
842.061157	865.700989	1569.050659	858.939453	-0.961333
842.363403	863.249023	1516.221313	854.704163	-1.308610
842.665588	856.338867	1475.057617	867.409973	1.789360
842.967712	859.013733	1440.655640	867.558594	1.469093
843.269775	860.574158	1419.033325	859.385254	-0.212890
843.571777	860.351257	1404.618652	850.097473	-1.883961
843.873840	859.756836	1391.169922	843.113037	-3.131989
844.175659	853.961121	1375.789429	847.942688	-1.153336
844.477600	856.710266	1366.278442	841.849915	-2.916264
844.779297	858.790833	1367.690308	847.942688	-2.131687
845.081116	861.317139	1354.390015	846.679504	-2.968655
845.382751	860.202637	1343.616089	850.840393	-1.936695
845.684387	861.465759	1317.535767	848.982910	-2.737047
845.985962	862.728821	1302.378052	848.314209	-3.278662
846.287537	852.549500	1276.595093	841.404053	-2.628361
846.588989	847.422546	1263.666382	834.642517	-3.070323
846.890381	851.509216	1263.517700	828.401062	-5.608660
847.191711	866.369812	1271.468140	829.515625	-9.097590
847.493042	868.450195	1271.319580	841.255371	-6.750283
847.794250	867.781433	1275.331909	858.567932	-2.260702
848.095459	864.363586	1272.434082	863.620544	-0.182087
848.396606	867.335632	1264.186523	860.351257	-1.759949
848.697693	869.341797	1256.087524	853.218079	-4.169075
848.998657	866.146790	1247.914185	849.577332	-4.340197
849.299622	853.738281	1254.527100	855.893066	0.537636
849.600464	847.199646	1242.564453	848.834290	0.413452
849.901367	845.564941	1240.186646	847.125305	0.395407
850.202087	853.218079	1234.093872	842.667175	-2.770169
850.502808	854.555664	1230.527344	845.862122	-2.312287
850.803467	852.920959	1225.177490	853.366760	0.119756
851.104065	851.955017	1221.833862	849.354431	-0.703091
851.404663	855.595886	1232.533447	851.063416	-1.202446
851.705139	858.790833	1235.728516	851.434875	-1.951505
852.005615	860.648438	1227.183716	854.704285	-1.621714
852.306030	859.682434	1221.685303	851.211975	-2.339887
852.606384	861.094238	1215.592651	846.753906	-4.045246
852.906616	862.060242	1218.267456	841.998535	-5.632032
853.206909	855.893066	1207.047729	848.388489	-2.137115
853.506958	854.258362	1210.614258	846.902405	-2.064216
853.807129	856.413269	1211.134277	849.502930	-1.948105
854.107178	860.722717	1218.416016	848.834229	-3.323654
854.407166	861.911621	1209.425415	853.738281	-2.351947
854.707092	862.951843	1212.100220	853.515381	-2.702708
855.007019	860.648438	1197.908569	841.849854	-5.573912
855.306763	853.812561	1204.447144	840.586670	-3.771987
855.606567	849.948792	1200.137573	838.208984	-3.352422
855.906250	856.264465	1200.137573	838.952087	-5.034525
856.205933	865.849609	1195.828003	839.843750	-7.881080
856.505493	870.679260	1190.255249	837.094482	-10.509168
856.805054	874.468750	1199.914673	841.106750	-10.251165
857.104492	873.354187	1197.611206	841.924133	-9.692945
857.403931	867.187073	1197.016846	840.438049	-8.109948
857.703308	859.162415	1191.072632	839.249207	-5.999577
858.002563	858.345032	1189.586548	835.534180	-6.886471
858.301819	858.047852	1190.403931	842.815735	-4.583072
858.601013	857.676270	1186.094360	839.620789	-5.497712
858.900208	857.156189	1181.413330	838.952087	-5.614094
859.199219	856.264465	1183.642334	837.020203	-5.878303
859.498291	853.143799	1183.716675	842.147034	-3.326578
859.797302	859.013855	1181.859009	841.849854	-5.316481
860.096191	864.215027	1177.029419	844.524719	-6.294566
860.395020	867.632874	1169.376343	845.936523	-7.190330
860.693787	868.895996	1162.020386	847.719727	-7.224329
860.992554	865.106506	1162.391724	848.462830	-5.598555
861.291260	874.394348	1168.038696	852.029297	-7.616374
861.589844	869.564758	1179.630005	853.218201	-5.271974
861.888428	875.806152	1176.583618	846.456604	-9.757895
862.186890	871.273682	1173.240112	837.911804	-11.048207
862.485413	864.809326	1172.942749	834.048035	-9.983108
862.783813	860.351135	1172.719849	843.187256	-5.494750
863.082153	856.115967	1177.029419	850.543213	-1.736529
863.380371	862.283020	1181.338989	856.041687	-1.956187
863.678589	858.493652	1181.784790	853.218079	-1.631834
863.976746	855.447266	1186.763062	847.942627	-2.265101
864.274902	856.338867	1180.521606	839.992188	-5.042428
864.572937	865.626648	1177.029419	841.701172	-7.683129
864.870911	864.512146	1173.537109	846.085144	-5.962949
865.168884	868.673096	1166.552612	848.165527	-6.884518
865.466736	860.722656	1164.546509	847.571106	-4.328676
865.764587	872.982605	1160.608398	843.261658	-10.333200
866.062317	868.747375	1163.803467	848.016907	-7.025942
866.360107	879.372742	1165.512451	842.964355	-12.723989
866.657715	875.360352	1159.419678	842.221375	-11.666217
866.955322	874.468750	1158.082153	836.722961	-13.308887
867.252808	865.329407	1151.915161	836.945862	-9.904032
867.550293	863.917725	1158.007935	830.704407	-11.293582
867.847717	859.311035	1151.246338	831.075928	-9.671700
868.145081	854.629944	1155.333008	838.952087	-5.213734
868.442383	847.348328	1149.834595	851.955078	1.522962
868.739624	844.450439	1151.915039	853.218079	2.851593
869.036804	851.880676	1152.658081	850.023132	-0.617581
869.333984	855.149963	1156.967651	849.502991	-1.870988
869.631042	860.945618	1164.174927	851.434875	-3.136485
869.928101	859.979675	1164.620850	852.177917	-2.560966
870.224976	864.066345	1159.271118	848.016907	-5.436714
870.521851	866.444031	1167.890259	857.453430	-2.982489
870.818726	859.608215	1162.391724	858.493652	-0.368106
871.115479	860.945618	1159.270996	865.180847	1.419668
871.412231	854.332703	1153.772583	857.676270	1.116607
871.708862	858.345032	1153.995483	850.840515	-2.538307
872.005493	857.602051	1166.404175	844.673401	-4.186710
872.302063	868.895996	1162.688843	845.044922	-8.118331
872.598572	865.329407	1170.564941	840.660950	-8.081778
872.895020	863.249023	1166.329834	840.958252	-7.354729
873.191406	850.246033	1166.998657	838.952087	-3.565541
873.487671	848.908691	1169.970703	839.992371	-2.777133
873.783997	848.462830	1173.685913	842.741516	-1.759197
874.080200	862.654602	1171.307983	838.654785	-7.775653
874.376343	867.335632	1158.453735	850.023132	-5.946899
874.672424	865.255127	1159.196655	853.961182	-3.842242
874.968445	858.419250	1154.292725	864.809387	2.159753
875.264465	859.385254	1166.627075	854.629883	-1.547762
875.560364	858.345032	1162.614624	854.184082	-1.367521
875.856201	860.276855	1163.729248	850.171814	-3.330025
876.152039	865.923889	1160.088379	846.010925	-6.769330
876.447754	869.936218	1160.162720	839.174988	-10.599043
876.743469	871.942383	1159.865601	837.986084	-11.793526
877.039063	870.233398	1164.175171	847.125305	-7.861453
877.334595	870.307800	1160.608521	845.044861	-8.702334
877.630127	866.964172	1173.314331	840.363770	-8.683006
877.925537	862.283020	1168.484619	841.032532	-6.940032
878.221008	855.447205	1170.193481	841.924133	-4.296499
878.516296	852.400818	1166.404175	843.633118	-2.792231
878.811646	855.521484	1180.447266	837.911804	-5.419601
879.106812	861.094238	1198.205688	843.187256	-5.311888
879.401978	862.951721	1218.267334	847.868347	-4.245064
879.697083	854.184082	1249.920410	856.784668	0.657151
879.992126	860.574036	1293.313110	856.858948	-0.858505
880.287109	862.654602	1350.452026	853.515320	-1.873582
880.582031	871.868164	1428.024048	851.955017	-3.580498
880.876892	862.580322	1588.443726	852.177917	-1.433108
881.171753	854.555664	1869.902344	863.694824	0.900102
881.466492	856.933289	2324.486084	875.508972	1.265759
881.761230	862.357422	2904.641846	894.679016	1.582620
882.055786	867.335632	3481.973877	915.038086	1.824438
882.350403	866.444031	3834.912109	928.412537	2.087559
882.644958	860.945618	3864.038330	934.208191	2.439571
882.939453	859.905334	3605.613525	923.880066	2.329990
883.233826	856.190247	3198.880615	913.477722	2.445371
883.528137	856.710388	2781.522217	897.279602	2.107698
883.822449	855.447205	2416.398926	889.923645	2.208681
884.116577	857.750488	2144.302246	874.394348	1.293680
884.410828	861.168457	1926.000977	866.295410	0.481480
884.704956	865.106628	1757.110718	864.512207	-0.066639
884.999023	864.289246	1621.136841	863.323425	-0.127611
885.292969	865.329529	1520.828125	863.843445	-0.226710
885.586914	865.626709	1450.686401	853.366699	-2.095514
885.880798	876.623535	1400.903442	857.899231	-3.571433
886.174622	874.022949	1370.439453	856.933289	-3.442605
886.468384	871.942383	1345.325073	858.122070	-2.919480
886.762085	860.053955	1317.387207	854.406982	-1.234761
887.055664	860.053955	1283.059448	852.846680	-1.703825
887.349304	858.939453	1253.189575	855.372864	-0.904651
887.642822	849.725891	1237.511841	854.927063	1.341248
887.936340	845.862244	1228.744141	851.880676	1.571877
888.229736	845.119141	1212.100464	850.840393	1.559004
888.523071	851.657715	1188.620728	841.998474	-2.866558
888.816284	854.704163	1166.181274	846.159363	-2.743315
889.109619	859.088074	1147.679810	844.598938	-5.020634
889.402710	860.351135	1147.605591	850.617493	-3.388509
889.695862	861.391418	1140.472534	848.685608	-4.552730
889.988892	861.985840	1136.459961	847.125305	-5.414184
890.281921	867.781555	1116.992798	848.611450	-7.692311
>>>>>End Processed Spectral Data<<<<<
