Jaz Data File
++++++++++++++++++++++++++++++++++++
Date: Fri Jun 04 14:39:16 2021
User: jaz
Dark Spectrum Present: Yes
Reference Spectrum Present: Yes
Processed Spectrum Present: Yes
Spectrometers: JAZA3586
Integration Time (usec): 48700 (JAZA3586)
Spectra Averaged: 10 (JAZA3586)
Boxcar Smoothing: 1 (JAZA3586)
Correct for Electrical Dark: No (JAZA3586)
Strobe/Lamp Enabled: Yes (JAZA3586)
Correct for Detector Non-linearity: No (JAZA3586)
Correct for Stray Light: No (JAZA3586)
Number of Pixels in Processed Spectrum: 2048
>>>>>Begin Processed Spectral Data<<<<<
W	D	R	S	P
191.335022	0.000000	0.000000	0.000000	0.000000
191.713211	285.396759	276.108887	275.217285	109.599632
192.091385	568.861633	553.852478	557.196106	77.722748
192.469528	852.549500	835.682617	842.444336	59.911270
192.847641	856.413147	848.388489	851.509216	61.110771
193.225739	861.539978	859.905334	857.676270	236.363983
193.603790	859.831055	868.004395	860.574036	9.090298
193.981842	860.648376	872.091003	868.598816	69.480896
194.359863	872.536865	876.772156	871.942383	-14.036403
194.737854	888.140442	882.121887	881.230286	114.814217
195.115829	894.010254	882.196228	877.440918	140.251389
195.493774	891.632629	883.236511	885.019714	78.761574
195.871704	889.626465	885.911316	884.351013	141.998383
196.249603	890.666687	886.431458	889.032043	38.596340
196.627457	879.967102	886.802979	878.035339	-28.259180
197.005310	885.539856	885.094055	870.084900	3466.785400
197.383133	886.505676	886.357178	870.753601	10607.562500
197.760910	889.032043	888.437683	872.016785	2862.784912
198.138687	880.858704	887.248779	880.190125	-10.462772
198.516449	869.638977	883.013611	868.598816	-7.777119
198.894180	870.604980	874.394470	866.741211	-101.960152
199.271866	872.239563	868.598877	865.552429	183.677841
199.649536	870.010559	866.518372	870.902161	-25.531321
200.027191	879.818542	869.936279	872.834045	70.677101
200.404816	881.601746	872.462585	866.072571	169.919052
200.782410	893.267334	885.242615	872.982727	252.776535
201.159988	885.465637	894.530457	870.604980	-163.937698
201.537537	888.437683	898.319885	871.050781	-175.941574
201.915070	885.911377	897.948425	870.530701	-127.777809
202.292557	885.539795	901.663574	874.468750	-68.662842
202.670029	878.406738	907.533386	870.084900	-28.571218
203.047485	867.335632	917.044128	869.862000	5.082365
203.424911	861.317139	918.381653	862.654602	2.343774
203.802292	861.688660	923.657166	865.329529	5.875354
204.179688	871.868164	911.545715	863.917786	-20.037472
204.557037	874.617371	907.459167	873.354248	-3.846082
204.934357	872.388184	900.251709	873.354248	3.467129
205.311661	866.295410	897.948425	862.208801	-12.910646
205.688934	860.945618	905.527161	859.831116	-2.499918
206.066177	855.744446	908.202148	852.326477	-6.515666
206.443390	858.344971	914.815125	852.252136	-10.789477
206.820587	861.168457	906.864746	844.450378	-36.585201
207.197769	866.889832	910.356934	852.698059	-32.649456
207.574921	863.397644	914.666504	855.372864	-15.652348
207.952042	866.146790	911.471436	861.317139	-10.655684
208.329147	865.923889	909.242371	856.115906	-22.641567
208.706223	884.425293	920.833679	875.954773	-23.265299
209.083267	882.939270	932.945007	881.898926	-2.080450
209.460297	879.892883	929.155579	885.391174	11.161165
209.837280	856.710388	910.654114	869.044617	22.864992
210.214264	854.704285	898.914368	850.691895	-9.075735
210.591217	851.955078	900.177490	850.171692	-3.698252
210.968124	856.487488	907.533508	848.462830	-15.720438
211.345016	857.230469	912.140320	857.453430	0.406050
211.721893	859.385254	912.883240	856.784729	-4.860977
212.098724	857.973450	907.533447	857.379089	-1.199274
212.475555	858.939453	910.951355	857.824890	-2.142900
212.852356	854.258362	917.192810	852.772278	-2.361320
213.229126	857.676270	925.366150	851.657776	-8.891275
213.605865	854.332703	926.777832	853.143799	-1.641109
213.982590	853.069519	917.564270	858.270691	8.064488
214.359283	853.292480	909.390930	854.406921	1.986581
214.735931	855.224304	903.149597	849.057129	-12.868310
215.112579	867.112793	900.920471	847.422546	-58.241936
215.489197	868.673096	903.818298	852.772278	-45.243210
215.865799	873.651428	898.988586	860.128235	-53.372967
216.242355	866.072510	905.527283	862.803223	-8.286163
216.618896	859.608154	902.109375	860.499817	2.097969
216.995407	854.704163	903.669739	852.623718	-4.248790
217.371902	855.670166	900.623352	844.004578	-25.950527
217.748367	856.487488	909.168152	846.679504	-18.617805
218.124802	854.184082	913.403381	849.874512	-7.277307
218.501236	850.766113	919.496277	849.577332	-1.729636
218.877609	851.806396	911.917297	843.038757	-14.585773
219.253983	854.629883	916.969910	844.078918	-16.924864
219.630295	855.893066	918.084473	849.280090	-10.633264
220.006592	861.317200	922.542664	853.441101	-12.864090
220.382889	863.026123	921.948181	850.097473	-21.941952
220.759140	865.478088	920.313477	856.413147	-16.531189
221.135391	861.391418	917.861511	857.156250	-7.499843
221.511581	855.744385	909.391052	861.242859	10.249423
221.887772	853.218201	905.601563	857.007568	7.233915
222.263931	848.239929	907.087646	857.750671	16.161615
222.640060	851.360596	910.877136	857.602051	10.486925
223.016159	853.069519	914.369385	854.332703	2.060663
223.392212	861.317139	915.112305	853.069519	-15.331526
223.768265	863.471985	921.799561	853.069519	-17.834558
224.144302	863.694824	931.607605	852.772217	-16.083286
224.520294	852.475098	937.551758	855.298584	3.318755
224.896286	850.617493	936.288574	853.961121	3.902867
225.272217	851.657715	923.359863	861.094238	13.160727
225.648148	861.762939	915.855286	858.939453	-5.219752
226.024048	861.317078	916.152527	860.871338	-0.812868
226.399902	863.249023	924.400146	860.499817	-4.495758
226.775772	867.930115	928.783997	861.763000	-10.134299
227.151581	864.437805	929.452698	862.134521	-3.542702
227.527374	856.264465	936.882996	861.317139	6.267385
227.903137	852.400818	950.406067	861.911560	9.704319
228.278870	856.487488	964.077820	859.756775	3.038644
228.654572	859.236633	970.393555	855.224304	-3.609608
229.030273	850.097412	975.966248	856.338867	4.958698
229.405930	849.577332	980.572998	863.100403	10.323297
229.781555	850.617615	984.436768	870.753601	15.047163
230.157181	855.075745	980.127136	868.078674	10.398068
230.532761	863.917725	986.740051	858.270752	-4.597676
230.908325	863.694824	981.018799	852.920959	-9.183003
231.283859	870.604980	986.368652	854.704163	-13.735585
231.659332	870.902161	977.155090	861.688660	-8.671291
232.034821	873.131287	977.972412	860.499817	-12.048202
232.410263	871.942383	967.124207	852.177917	-20.764957
232.785690	864.289246	970.244934	841.626892	-21.388519
233.161087	872.908386	965.935364	843.558777	-31.549568
233.536469	869.044617	972.548340	846.530945	-21.751558
233.911804	868.970398	976.634949	862.431641	-6.073268
234.287140	857.007568	989.192139	860.425537	2.585755
234.662430	855.967346	1003.012390	865.329529	6.366881
235.037704	856.115906	1002.269348	857.824951	1.169350
235.412933	861.094238	997.142578	865.032227	2.894551
235.788162	862.506042	987.408875	861.837219	-0.535475
236.163345	858.939453	990.009460	861.762939	2.154182
236.538513	860.425476	1001.006348	857.601990	-2.008443
236.913635	859.682434	1002.863831	856.858948	-1.971964
237.288742	863.694824	1007.693542	856.264587	-5.159933
237.663834	862.728943	1003.755432	855.372864	-5.216097
238.038879	861.985840	1017.278564	853.961182	-5.167440
238.413910	857.750671	1017.798645	853.143799	-2.878432
238.788910	860.202637	1031.098755	854.481262	-3.347867
239.163879	856.338867	1029.761353	859.831055	2.013688
239.538834	858.790833	1047.668335	863.174744	2.321034
239.913757	850.914734	1058.145020	865.552429	7.063492
240.288651	856.636047	1068.175903	868.970398	5.830746
240.663528	854.035461	1081.476196	864.215027	4.475700
241.038361	858.865051	1105.698853	858.865173	0.000049
241.413177	860.574036	1145.450806	859.311035	-0.443350
241.787979	862.208740	1179.407104	864.809387	0.819880
242.162735	861.911621	1210.762817	873.428528	3.301381
242.537476	865.478088	1226.069214	869.713318	1.174524
242.912170	863.917725	1236.174316	878.332336	3.872225
243.286865	863.546204	1226.217651	881.230225	4.876044
243.661514	860.499756	1218.267334	885.688416	7.040509
244.036148	862.580261	1204.224121	880.338684	5.197934
244.410751	863.620422	1188.323242	875.583313	3.684258
244.785339	865.329529	1190.626831	875.508972	3.129274
245.159882	859.533875	1193.450317	864.215027	1.401893
245.534378	858.196472	1231.196045	860.722656	0.677262
245.908890	851.583496	1279.269897	859.979675	1.963163
246.283356	858.047852	1364.495239	866.666931	1.701871
246.657791	859.979675	1436.643188	875.583252	2.705837
247.032196	863.397522	1490.809937	882.642029	3.067282
247.406586	861.019836	1516.295532	885.019714	3.662562
247.780960	856.190247	1524.691772	879.818542	3.534516
248.155289	857.156250	1506.190430	875.137512	2.770465
248.529602	853.143860	1454.029907	881.378906	4.698902
248.903870	858.419373	1390.500977	883.756592	4.761905
249.278122	856.784668	1344.953491	885.168274	5.814301
249.652344	862.208801	1310.179810	882.344788	4.494931
250.026550	856.636047	1302.749634	881.527527	5.579628
250.400711	860.425476	1289.598145	878.109558	4.120505
250.774857	862.654541	1293.536011	879.818542	3.983462
251.148987	868.895996	1305.870239	878.406799	2.176513
251.523071	866.444031	1334.402466	880.710144	3.048586
251.897125	868.450195	1356.767700	880.338623	2.434569
252.271164	865.552429	1366.798462	887.248779	4.328483
252.645187	859.088074	1370.736450	889.626465	5.968628
253.019165	858.122070	1373.485718	884.945374	5.204733
253.393112	855.893066	1350.749146	883.905090	5.660641
253.767044	854.704163	1323.257202	877.069336	4.773242
254.140930	847.571228	1291.529907	873.131287	5.757306
254.514801	849.725891	1287.740356	863.769104	3.206107
254.888657	850.766113	1286.180054	866.444031	3.600693
255.262466	856.636047	1296.582397	877.069336	4.644495
255.636276	861.317139	1312.780518	878.258118	3.752459
256.010010	866.444092	1328.532715	877.663757	2.428033
256.383759	864.512207	1350.303345	869.044617	0.932996
256.757446	855.521484	1385.819946	872.759766	3.250675
257.131134	860.425476	1429.064331	872.833984	2.182142
257.504791	864.363525	1475.726440	874.988831	1.737970
257.878418	872.016785	1532.791016	884.202332	1.844132
258.252014	863.026123	1620.393677	891.632629	3.777097
258.625580	864.437805	1738.757935	901.366394	4.223692
258.999115	860.425476	1871.165405	903.223877	4.234364
259.372650	865.626648	1995.250977	908.202148	3.768997
259.746124	860.128235	2099.052002	916.598328	4.557995
260.119598	859.236633	2145.416748	917.192688	4.506060
260.493042	856.561768	2131.002197	917.787109	4.804096
260.866425	855.595886	2069.850830	908.499329	4.356865
261.239838	853.366699	1969.690796	907.607666	4.858891
261.613159	851.806396	1870.570923	893.638855	4.106195
261.986511	851.955017	1784.974243	891.706970	4.260571
262.359802	864.437805	1743.141968	879.521301	1.716561
262.733063	864.289246	1725.680664	881.676086	2.018460
263.106293	868.301575	1710.448608	869.341797	0.123520
263.479523	864.512146	1688.900757	872.313965	0.946376
263.852692	868.227234	1670.919556	871.496582	0.407298
264.225861	865.923828	1669.210571	879.744202	1.720478
264.598969	859.087952	1683.105103	880.338623	2.578911
264.972076	858.939453	1713.123535	885.465515	3.105427
265.345154	867.261414	1753.024048	889.626465	2.524949
265.718201	872.611145	1803.921509	891.038269	1.978623
266.091217	875.880554	1864.998169	898.914368	2.328723
266.464203	868.375916	1914.335327	893.341614	2.386871
266.837158	861.242920	1953.121216	892.078430	2.824080
267.210114	855.670166	1975.709351	886.728699	2.772986
267.583038	853.961182	1996.662720	893.713135	3.478770
267.955902	854.778503	2018.136230	897.205322	3.646928
268.328766	856.636047	2027.572632	900.177429	3.718509
268.701569	859.831055	2039.089478	904.635559	3.799380
269.074371	864.735046	2050.458008	907.310547	3.590679
269.447144	863.546204	2079.658936	909.168152	3.751457
269.819885	856.636047	2144.970947	912.140198	4.308208
270.192596	853.886902	2249.366211	921.056580	4.813377
270.565277	855.818787	2384.894287	924.920349	4.519173
270.937927	861.242859	2497.091553	927.446594	4.047058
271.310577	858.716553	2576.075195	921.205078	3.638642
271.683136	853.738281	2623.034424	926.629211	4.119770
272.055725	859.088074	2629.201660	917.564270	3.303528
272.428284	860.128357	2606.910889	913.774841	3.071160
272.800812	864.363586	2559.728760	911.991516	2.809302
273.173279	848.908630	2499.766602	916.078308	4.068774
273.545776	847.645447	2463.878418	922.616943	4.638657
273.918152	844.524719	2429.104492	918.753113	4.684421
274.290558	858.047852	2429.698975	920.239197	3.957071
274.662964	857.676270	2432.225342	920.164856	3.968666
275.035278	861.614319	2451.989990	916.449890	3.447963
275.407593	859.979675	2486.540771	910.728516	3.120008
275.779907	866.072510	2536.620605	910.059753	2.633102
276.152161	861.465759	2573.326172	913.997742	3.068707
276.524384	855.670105	2602.006836	928.486816	4.169683
276.896606	854.555481	2617.090576	933.985168	4.506559
277.268799	860.053955	2636.557617	936.511536	4.303823
277.640930	862.728943	2650.749512	928.338196	3.669379
278.013031	854.035461	2660.928955	926.777832	4.025825
278.385162	848.239929	2669.622314	922.245361	4.063147
278.757233	847.719727	2690.427490	921.502380	4.004035
279.129272	855.595886	2722.303223	924.028625	3.665960
279.501282	857.527649	2758.414063	921.725281	3.377247
279.873230	855.149963	2824.989502	920.536438	3.319381
280.245178	857.899231	2913.632568	916.746887	2.862611
280.617126	861.242859	3045.148438	933.762268	3.320629
280.988983	859.756836	3160.763672	937.923279	3.397054
281.360870	855.595886	3264.936279	944.164734	3.676062
281.732697	855.149963	3330.099609	944.461914	3.608637
282.104492	860.722717	3359.523438	957.390442	3.868565
282.476288	867.558594	3360.489014	960.511230	3.728649
282.848053	865.478210	3356.922607	952.560852	3.495267
283.219757	866.889832	3371.188477	947.359680	3.213269
283.591461	859.385254	3360.786377	941.044006	3.264520
283.963135	864.214905	3375.646729	950.554749	3.437873
284.334747	859.682434	3429.739258	954.938660	3.706386
284.706360	864.586426	3528.487549	959.842590	3.575814
285.077942	853.738281	3632.734375	954.195496	3.614874
285.449524	852.623718	3717.811279	967.198486	3.998857
285.821014	847.125305	3747.086670	965.786804	4.091830
286.192535	858.642334	3776.212891	971.359436	3.863389
286.563995	861.242859	3757.934326	956.350342	3.283314
286.935425	855.298645	3747.903564	959.916809	3.616746
287.306824	849.577332	3664.312744	952.263672	3.648170
287.678223	848.834290	3598.183594	945.947998	3.532243
288.049561	859.608154	3548.920898	942.307129	3.075097
288.420898	866.295410	3557.168701	943.570313	2.871741
288.792145	863.694824	3590.827393	950.183289	3.171407
289.163452	856.413147	3682.368164	948.548523	3.260327
289.534668	848.462708	3799.395264	948.102722	3.376560
289.905914	843.855957	3913.821533	950.629089	3.477991
290.277039	845.119141	4008.854736	956.498962	3.520516
290.648193	846.307922	4049.424072	967.495667	3.783433
291.019318	857.453369	4035.455078	966.455505	3.429895
291.390381	858.939453	3967.245361	969.947754	3.571344
291.761475	850.394714	3905.648438	964.152100	3.723337
292.132507	842.518555	3865.599365	967.124268	4.121812
292.503510	841.775574	3869.462891	968.981750	4.201430
292.874481	856.338867	3919.394287	975.297546	3.883661
293.245422	858.344971	4021.337158	972.548340	3.610612
293.616364	863.769104	4173.063965	973.737244	3.323008
293.987213	861.911621	4315.353027	978.343933	3.371486
294.358093	869.416199	4431.191406	983.099304	3.191754
294.728943	863.694824	4520.354004	987.483093	3.385283
295.099731	858.270691	4621.926270	989.637939	3.490416
295.470490	855.893005	4741.999512	996.845276	3.627082
295.841248	854.109680	4839.781738	1003.235352	3.741544
296.211975	854.332703	4931.174316	1002.938171	3.645113
296.582642	854.035461	5024.498535	1003.086731	3.573974
296.953308	854.481262	5072.572754	1000.263184	3.456111
297.323883	857.602051	5060.238281	995.953674	3.292020
297.694519	855.224304	4945.069336	994.839111	3.413694
298.065063	858.865051	4815.708496	994.987732	3.440184
298.435608	857.304688	4661.827637	998.331360	3.706816
298.806122	865.626709	4501.259277	997.365417	3.623543
299.176575	867.484192	4355.179688	986.071472	3.400162
299.547028	873.428467	4249.669922	966.975586	2.770747
299.917450	863.917725	4222.847168	960.882813	2.886786
300.287872	858.122131	4213.707520	961.997314	3.095590
300.658234	857.304871	4205.088379	972.176819	3.431284
301.028564	860.351135	4170.537109	973.068542	3.405168
301.398865	865.775208	4120.085938	964.597961	3.036672
301.769135	864.586426	4060.718018	966.306824	3.182610
302.139374	858.716614	4012.792969	965.861023	3.397014
302.509583	860.202637	3981.214111	971.210754	3.556799
302.879791	861.762939	3947.406250	969.650574	3.496439
303.249939	870.530579	3911.592529	959.916809	2.939310
303.620087	870.233398	3870.874268	957.242004	2.899668
303.990173	865.923889	3849.995361	944.610535	2.636889
304.360260	863.100403	3832.014404	944.090393	2.727933
304.730286	858.493652	3816.856689	949.365906	3.071707
305.100281	857.304871	3816.856445	951.594910	3.185957
305.470276	858.865173	3832.237061	949.440125	3.046203
305.840179	858.270691	3875.852783	943.347351	2.819365
306.210144	862.728821	3897.772217	946.170898	2.749288
306.579987	863.843445	3933.139893	952.189392	2.878378
306.949890	866.592590	3980.842529	954.641418	2.827288
307.319702	864.883606	4083.157227	965.043762	3.112232
307.689484	858.939453	4176.109863	972.474060	3.422634
308.059265	858.122070	4290.907715	979.309875	3.530305
308.429016	852.475098	4371.897949	982.653503	3.698857
308.798737	851.063416	4456.305664	983.693665	3.678817
309.168396	848.537048	4485.061035	989.563660	3.878061
309.538055	852.995178	4500.664063	982.579163	3.552515
309.907684	854.035461	4493.828613	973.811523	3.290738
310.277313	855.670105	4502.596191	959.916931	2.858485
310.646851	853.663879	4487.289551	961.254333	2.960967
311.016388	851.880676	4478.001953	972.176819	3.317488
311.385895	856.858948	4430.596680	973.142761	3.253843
311.755371	856.784668	4378.064941	967.495667	3.144055
312.124817	864.809326	4305.173828	964.449219	2.896202
312.494232	864.140625	4249.595215	969.427551	3.109979
312.863617	859.979675	4241.348145	973.662842	3.362046
313.232971	856.487488	4282.883301	973.514343	3.415451
313.602295	857.156250	4369.371582	973.885742	3.323529
313.971619	863.917786	4461.729492	975.148926	3.091633
314.340820	861.094238	4485.432129	979.532776	3.267867
314.710083	862.803223	4462.918457	977.600891	3.188722
315.079285	860.722717	4383.191895	980.573059	3.402452
315.448486	869.713379	4302.573730	973.439941	3.021578
315.817596	861.391418	4185.101074	970.542175	3.284004
316.186707	864.363525	4083.974609	958.505127	2.924005
316.555786	859.385254	3999.641357	954.269836	3.021556
316.924866	857.973450	3958.031982	954.046936	3.099086
317.293884	854.406982	3950.898682	953.749695	3.208234
317.662872	861.985840	3984.037842	956.944641	3.041551
318.031830	862.060242	4022.452148	958.950867	3.065779
318.400757	871.793762	4063.690186	965.415222	2.933098
318.769684	861.837219	4083.305908	960.214050	3.053788
319.138550	864.958008	4085.014893	952.932434	2.732077
319.507416	863.769226	4045.634521	951.446350	2.755526
319.876190	865.998230	3984.854736	950.628967	2.713518
320.244995	866.295410	3915.976563	951.743591	2.801873
320.613770	854.035461	3862.032471	951.743591	3.248279
320.982483	847.348206	3874.143799	961.328613	3.765712
321.351166	845.342102	3919.989014	958.802246	3.690184
321.719818	850.171692	4009.374756	953.749695	3.278612
322.088440	853.961121	4130.785645	959.025208	3.206278
322.457062	858.419250	4306.214355	962.591797	3.021425
322.825623	859.608154	4492.268066	971.508057	3.080385
323.194183	860.128235	4623.857910	966.158203	2.817152
323.562653	863.992004	4686.123535	976.783508	2.951010
323.931183	863.397644	4685.380859	987.780334	3.254402
324.299591	867.484192	4640.427734	985.402649	3.125370
324.668060	862.357361	4578.310547	981.538879	3.207293
325.036407	862.505920	4507.202637	963.854919	2.780725
325.404755	852.326477	4425.544434	966.158203	3.185692
325.773102	856.710449	4352.356445	972.325378	3.307398
326.141388	859.459534	4277.384766	984.585388	3.660872
326.509674	869.193176	4202.413574	980.201477	3.330362
326.877899	868.747375	4130.042480	973.217102	3.203320
327.246124	865.403809	4071.417725	960.882751	2.978120
327.614288	863.397644	4031.665283	958.802307	3.011256
327.982422	850.914734	4026.241455	948.028381	3.058383
328.350525	850.171692	4035.232178	950.629089	3.154018
328.718628	852.475159	4077.138672	950.108887	3.027718
329.086700	856.115967	4121.794922	957.985046	3.119384
329.454712	853.886902	4182.871582	959.248108	3.164965
329.822693	863.100403	4222.623535	956.498840	2.780110
330.190674	867.707214	4254.945313	954.418457	2.559939
330.558563	868.375916	4288.530273	954.567078	2.520096
330.926483	854.852844	4364.541504	964.375000	3.120566
331.294312	858.865234	4461.729980	978.046692	3.307964
331.662231	861.391418	4574.595703	981.761780	3.241684
332.029999	861.391418	4676.910645	983.693665	3.205389
332.397766	851.286316	4745.566406	975.520325	3.190166
332.765503	857.453369	4793.194824	979.384094	3.098037
333.133240	863.843445	4793.714355	976.114807	2.856872
333.500916	868.375916	4788.884766	977.526611	2.784095
333.868561	862.580322	4764.810547	988.300476	3.221751
334.236176	854.852783	4753.442383	988.449036	3.426784
334.603790	853.515320	4739.473145	985.254089	3.390124
334.971344	856.487488	4710.346680	976.189148	3.106021
335.338867	862.803223	4690.730957	974.777344	2.925189
335.706360	869.787598	4678.768066	978.046692	2.842207
336.073853	870.530762	4684.786621	977.303711	2.799313
336.441284	864.660828	4699.201172	986.962952	3.189486
336.808655	862.654602	4726.990723	993.724548	3.391784
337.176086	858.865173	4771.869629	998.702820	3.573664
337.543396	859.459534	4797.355469	993.575989	3.405790
337.910706	855.744446	4822.246582	992.387207	3.444918
338.277954	854.629883	4805.008301	982.207703	3.229509
338.645264	856.190247	4788.735840	980.127136	3.151569
339.012421	852.846619	4745.269043	974.851624	3.134423
339.379669	850.617493	4678.693848	979.606995	3.369565
339.746796	857.379089	4575.189941	976.412048	3.201695
340.113953	862.506042	4503.562500	975.743347	3.110012
340.481018	861.614319	4470.869141	971.136536	3.034483
340.848114	855.372864	4491.228027	972.919861	3.232994
341.215118	856.784668	4525.407227	978.046692	3.305383
341.582153	862.654602	4643.697266	976.486328	3.010591
341.949066	862.877441	4816.079590	982.653503	3.029849
342.316010	862.060120	5034.083984	985.328430	2.954641
342.682922	862.357422	5301.499512	998.925781	3.076458
343.049835	863.992004	5631.403809	1002.195068	2.898912
343.416656	858.419250	5955.660645	1014.603699	3.064098
343.783478	854.629883	6167.943359	1020.250671	3.117090
344.150269	858.493652	6294.629395	1029.761353	3.150541
344.516998	858.493652	6289.576660	1025.154663	3.068651
344.883728	865.106628	6209.701172	1027.606567	3.040454
345.250427	858.345032	6067.263184	1027.458008	3.246605
345.617065	861.094238	5902.756348	1016.609802	3.084609
345.983704	850.468933	5777.185547	1001.749268	3.070611
346.350281	854.258362	5644.927246	995.953674	2.957736
346.716827	854.852783	5525.670410	1001.229248	3.133851
347.083405	860.499817	5441.336914	999.966064	3.044558
347.449860	868.450195	5382.117676	998.628601	2.884094
347.816376	869.936279	5388.358887	998.182678	2.838300
348.182770	872.908386	5394.600586	997.811218	2.762303
348.549194	864.289246	5432.420898	993.798889	2.835068
348.915558	864.363464	5488.742188	999.297363	2.917881
349.281921	861.019836	5551.602051	1007.396301	3.120646
349.648193	857.230469	5608.369141	1011.482910	3.246642
350.014526	861.465759	5634.895996	1009.773926	3.106952
350.380737	859.608215	5684.975098	1008.139221	3.078129
350.746948	866.146790	5733.197754	1011.037048	2.976962
351.113159	870.010559	5808.169434	1011.408691	2.863378
351.479309	865.552429	5858.694824	1013.340515	2.959821
351.845428	861.465759	5971.709473	1010.071289	2.907993
352.211517	861.094238	6089.702637	1014.900879	2.941636
352.577576	870.307800	6214.605469	1012.968994	2.669410
352.943604	872.313965	6339.359375	1018.244568	2.669277
353.309601	865.998230	6488.113281	1022.331238	2.780679
353.675537	868.227295	6669.411621	1028.869751	2.769132
354.041473	866.592590	6786.810059	1038.529053	2.904226
354.407379	862.134460	6910.970215	1041.575562	2.966539
354.773254	859.162354	7025.173340	1060.076904	3.258420
355.139038	863.026123	7221.184082	1062.231689	3.133070
355.504913	864.883728	7473.888184	1074.343140	3.169304
355.870636	863.843445	7776.894531	1071.370972	3.001967
356.236389	855.372986	8064.892090	1080.435913	3.121747
356.602081	860.425598	8297.383789	1088.683472	3.069237
356.967804	857.081970	8454.683594	1095.667969	3.140280
357.333405	859.905334	8523.041992	1095.147949	3.069795
357.699036	852.326477	8527.425781	1094.999268	3.161820
358.064606	857.899170	8471.996094	1090.986938	3.061266
358.430176	866.815491	8415.377930	1092.398682	2.988426
358.795654	866.221130	8460.627930	1082.665039	2.850044
359.161163	863.992004	8672.687500	1089.500732	2.887918
359.526581	852.698059	9106.616211	1096.856812	2.958095
359.892029	855.001465	9672.727539	1116.472656	2.965290
360.257416	851.063416	10247.013672	1134.602539	3.017674
360.622772	855.818787	10675.443359	1147.679810	2.972222
360.988098	861.614441	10902.958008	1156.596069	2.937671
361.353394	859.162415	10931.639648	1162.911743	3.015637
361.718658	853.292480	10714.006836	1158.825195	3.098485
362.083893	843.930359	10267.595703	1143.296021	3.176744
362.449097	845.936523	9650.958008	1112.386108	3.026109
362.814209	854.778503	8992.338867	1093.810425	2.937390
363.179382	859.236633	8413.892578	1072.411255	2.821765
363.544434	860.574158	8003.220703	1072.039673	2.960604
363.909546	856.858948	7792.646484	1062.380371	2.963202
364.274536	852.846680	7670.121094	1063.049072	3.083379
364.639587	860.277039	7557.478516	1055.247192	2.911218
365.004517	860.425537	7468.314941	1052.126587	2.901093
365.369507	867.187073	7412.142578	1052.498047	2.831356
365.734344	863.992004	7429.678223	1050.789063	2.845050
366.099274	865.106628	7431.906738	1055.172974	2.894352
366.464081	867.707214	7383.833496	1053.389648	2.849583
366.828918	864.883728	7317.480469	1054.355591	2.936366
367.193665	862.877441	7218.732422	1051.680664	2.970540
367.558411	862.951843	7148.665527	1046.479614	2.919760
367.923126	861.688660	7045.012207	1044.473389	2.956092
368.287781	860.945618	7012.839844	1048.114136	3.042454
368.652435	854.481262	6984.381348	1055.618652	3.281251
369.017059	858.419250	7010.907715	1055.247314	3.199162
369.381653	854.035461	7039.365234	1051.532227	3.192987
369.746185	858.419250	7107.277832	1057.327759	3.183118
370.110687	856.190247	7201.568359	1060.894165	3.226032
370.475220	857.304871	7276.019531	1061.711548	3.184542
370.839661	852.177917	7330.854980	1053.092407	3.101165
371.204041	857.230530	7349.802246	1050.640503	2.978942
371.568451	858.865173	7360.501465	1049.451660	2.931362
371.932770	859.756836	7348.464355	1045.142090	2.857044
372.297150	854.852844	7327.288574	1049.451660	3.006578
372.661377	859.831055	7350.916504	1054.801392	3.003663
373.025696	860.945618	7389.925781	1059.854004	3.046546
373.389862	856.115906	7456.128906	1057.104858	3.045281
373.754059	851.137695	7523.298828	1052.200806	3.013463
374.118225	857.824890	7653.626465	1055.767334	2.912717
374.482361	864.958008	7827.643066	1062.306030	2.834367
374.846436	864.809387	8064.669434	1075.680542	2.928823
375.210510	856.413269	8378.002930	1084.968384	3.038654
375.574524	852.400879	8699.362305	1091.432739	3.046171
375.938538	847.051086	9010.170898	1105.921753	3.171222
376.302460	843.410217	9210.639648	1118.181641	3.283900
376.666412	850.840515	9331.975586	1124.125854	3.222273
377.030304	853.961243	9320.235352	1112.980469	3.059424
377.394196	859.831116	9176.980469	1106.144653	2.961514
377.757996	854.704163	8933.564453	1098.119873	3.012996
378.121796	854.629883	8618.447266	1093.141602	3.072093
378.485565	852.326477	8347.835938	1083.259277	3.080949
378.849304	850.023193	8149.373535	1066.466919	2.965246
379.212982	853.069580	8015.703125	1055.544434	2.826821
379.576630	853.366760	7958.564941	1046.628052	2.719999
379.940277	857.899231	7944.669922	1054.430054	2.773207
380.303864	858.865051	7948.385254	1058.293579	2.813005
380.667450	860.054016	7972.756348	1069.141846	2.939640
381.030945	853.366760	7965.845703	1073.079834	3.089121
381.394501	855.075745	8019.417969	1075.383301	3.075056
381.757935	856.784668	8056.569824	1069.587524	2.955683
382.121399	860.202637	8159.033203	1070.033447	2.874855
382.484741	855.818665	8314.102539	1070.107788	2.873169
382.848145	854.407043	8489.829102	1074.343140	2.880471
383.211487	862.357422	8625.282227	1077.537964	2.771900
383.574768	859.905334	8698.545898	1093.067261	2.974520
383.938019	858.716553	8729.233398	1091.358398	2.955865
384.301270	850.914795	8736.365234	1090.912598	3.043552
384.664459	858.270691	8733.690430	1077.017944	2.777595
385.027649	854.035461	8766.977539	1075.903320	2.803861
385.390778	852.326477	8884.227539	1086.900146	2.920525
385.753876	846.530945	9023.099609	1097.599731	3.070589
386.116943	851.063293	9143.469727	1112.534546	3.153141
386.479980	853.366699	9177.204102	1113.649048	3.126951
386.842987	853.069519	9177.352539	1109.042358	3.075014
387.205994	859.013733	9151.420898	1102.206665	2.932718
387.568909	853.961121	9146.516602	1098.417236	2.947898
387.931793	864.066345	9083.061523	1107.556396	2.962528
388.294678	856.859070	9042.937500	1106.218872	3.046145
388.657471	867.187073	9031.124023	1101.612183	2.871471
389.020294	863.694885	9118.355469	1093.661743	2.785903
389.383057	870.679382	9338.588867	1099.754639	2.705216
389.745819	865.849609	9545.596680	1113.500610	2.853205
390.108521	870.902161	9809.964844	1123.828735	2.829453
390.471191	873.428467	10043.275391	1130.515991	2.803619
390.833801	874.022888	10259.421875	1136.088623	2.792270
391.196442	871.496582	10410.479492	1135.717041	2.769902
391.558960	866.072571	10405.798828	1141.215454	2.884180
391.921509	871.199402	10360.696289	1135.939941	2.789827
392.284027	864.586426	10288.177734	1134.230957	2.861377
392.646484	863.026062	10256.970703	1134.676758	2.891764
393.008911	858.345032	10237.949219	1138.243530	2.984118
393.371307	861.614319	10240.772461	1139.135132	2.958910
393.733673	863.992004	10208.227539	1134.751099	2.897606
394.096008	859.979736	10132.811523	1124.200195	2.849404
394.458344	859.385254	9977.517578	1117.958740	2.835816
394.820587	853.515381	9737.594727	1113.723511	2.928926
395.182831	860.574036	9514.463867	1108.745117	2.867740
395.545013	860.053955	9273.797852	1105.104370	2.912501
395.907196	866.666931	9123.185547	1099.160156	2.815875
396.269287	866.666931	9022.059570	1101.835083	2.883591
396.631409	863.769104	8992.858398	1102.949585	2.942279
396.993469	860.797058	8993.377930	1102.206665	2.968426
397.355530	854.778503	8997.688477	1101.835083	3.034009
397.717499	856.933289	9031.570313	1104.807251	3.032232
398.079468	857.973572	9075.854492	1101.092041	2.958408
398.441376	855.447205	9113.155273	1101.017700	2.973834
398.803284	848.091248	9092.424805	1094.181885	2.984967
399.165131	842.815735	9047.323242	1096.782471	3.095454
399.526978	840.215149	9011.062500	1092.101440	3.082744
399.888763	844.227478	8977.774414	1095.073486	3.084091
400.250519	848.239807	8991.223633	1092.695679	3.002043
400.612244	858.865051	9024.213867	1097.896973	2.927394
400.973938	865.106628	9151.568359	1103.395386	2.875639
401.335602	869.044617	9247.939453	1111.197266	2.890031
401.697205	862.877502	9426.637695	1114.466553	2.937834
402.058807	861.688660	9572.122070	1117.438599	2.936133
402.420349	856.710388	9831.438477	1117.810181	2.909278
402.781860	863.026123	10029.009766	1126.354980	2.872893
403.143341	861.985901	10244.785156	1135.865723	2.918957
403.504822	856.710388	10425.861328	1140.249512	2.963054
403.866241	855.595764	10578.479492	1139.803711	2.923083
404.227631	852.920898	10687.703125	1147.011108	2.990307
404.588959	855.744385	10681.461914	1153.772583	3.033144
404.950287	853.218201	10591.778320	1154.738525	3.096149
405.311554	854.481262	10445.625977	1141.215454	2.989572
405.672821	858.939453	10333.280273	1131.481812	2.876637
406.034027	854.258301	10220.042969	1121.896851	2.857620
406.395203	855.224304	10060.811523	1118.776001	2.862954
406.756348	860.722656	9937.022461	1123.308472	2.893093
407.117493	864.735107	9876.985352	1124.868774	2.886445
407.478516	862.728821	9956.713867	1123.531372	2.867858
407.839600	859.013672	10035.102539	1123.159912	2.878636
408.200592	862.580261	10174.717773	1130.218750	2.874082
408.561554	863.694824	10279.187500	1143.444580	2.971164
408.922485	859.236755	10428.684570	1148.199829	3.019642
409.283417	851.360596	10531.667969	1156.001831	3.147020
409.644257	850.097473	10641.115234	1149.388794	3.056795
410.005096	859.459534	10669.945313	1145.970825	2.920460
410.365906	862.208740	10630.861328	1135.568481	2.798336
410.726715	867.112793	10595.865234	1134.305298	2.746421
411.087433	861.317139	10529.958984	1132.150513	2.801152
411.448120	867.781494	10513.389648	1129.624146	2.714631
411.808807	875.434631	10469.475586	1127.841187	2.630868
412.169434	872.016785	10434.850586	1127.098022	2.667423
412.530029	872.685486	10479.655273	1125.166138	2.628099
412.890564	852.252197	10580.260742	1122.639771	2.779475
413.251099	850.171692	10755.318359	1128.584106	2.810786
413.611572	844.896240	10895.973633	1138.540527	2.921520
413.972076	851.657776	11037.222656	1143.890259	2.869085
414.332489	852.475098	11170.671875	1146.268066	2.847328
414.692871	847.645325	11398.409180	1152.955322	2.893724
415.053223	847.571106	11586.023438	1168.113037	2.984992
415.413574	851.583496	11868.002930	1181.487671	2.994659
415.773834	856.561768	12095.666992	1184.756836	2.920117
416.134094	859.088074	12429.286133	1191.592651	2.873802
416.494263	856.487488	12718.620117	1198.577148	2.883880
416.854462	855.372864	13097.118164	1213.140503	2.922522
417.214630	858.270752	13489.734375	1221.833984	2.878235
417.574738	849.057190	13884.801758	1225.326294	2.886441
417.934784	852.400879	14369.776367	1231.567749	2.805033
418.294861	853.292480	14948.964844	1247.468384	2.796432
418.654846	857.081848	15622.890625	1268.124634	2.783747
419.014832	854.035461	16269.843750	1290.192505	2.829284
419.374756	850.394592	16903.869141	1308.842407	2.855754
419.734680	854.778503	17566.871094	1334.699829	2.871701
420.094543	849.577332	18107.498047	1357.362183	2.942329
420.454376	847.199646	18415.781250	1371.331055	2.983345
420.814148	847.051025	18568.101563	1375.343384	2.981157
421.173920	854.704102	18654.664063	1378.166992	2.940809
421.533691	853.441101	18760.099609	1382.402344	2.953992
421.893341	855.595886	18810.847656	1380.173218	2.921582
422.253021	847.794128	18759.208984	1373.188477	2.933294
422.612640	847.273926	18708.310547	1360.482788	2.873343
422.972260	845.193420	18660.980469	1361.300171	2.896907
423.331757	854.704163	18759.654297	1365.461060	2.852602
423.691315	866.815613	18877.796875	1377.572388	2.835808
424.050781	866.889832	18920.966797	1374.749023	2.812989
424.410248	859.682434	18715.814453	1370.290649	2.859568
424.769653	849.948914	18385.167969	1361.745972	2.918681
425.128998	852.400879	17947.525391	1347.999878	2.899066
425.488373	856.338867	17470.130859	1339.901001	2.910606
425.847656	856.933289	17015.101563	1325.114746	2.897491
426.206940	855.967346	16572.255859	1311.591675	2.899058
426.566193	857.007629	16194.871094	1292.198608	2.837364
426.925385	851.657776	15757.229492	1282.836548	2.892736
427.284576	853.366699	15351.460938	1270.130737	2.874613
427.643677	849.280090	15041.024414	1263.146362	2.916247
428.002777	851.583496	14839.590820	1249.623169	2.845578
428.361847	849.651611	14661.264648	1248.657227	2.888914
428.720856	843.038757	14491.112305	1241.746948	2.921351
429.079865	846.605225	14390.281250	1242.415649	2.922474
429.438812	849.057190	14395.855469	1240.781128	2.891635
429.797760	861.837219	14389.315430	1245.536499	2.836443
430.156616	860.648438	14300.598633	1243.010132	2.844964
430.515503	864.512207	14215.596680	1236.768799	2.788213
430.874268	864.586426	14167.151367	1225.994995	2.716834
431.233093	869.341797	14231.795898	1229.784302	2.697428
431.591827	861.763000	14410.937500	1243.233032	2.815449
431.950562	857.750671	14602.268555	1245.313599	2.819764
432.309204	861.242859	14746.711914	1245.016357	2.763850
432.667877	863.694824	14890.339844	1245.833618	2.724378
433.026459	862.431702	14957.805664	1254.378540	2.780677
433.385010	855.744385	15065.395508	1257.276367	2.825769
433.743561	860.202637	15064.801758	1251.480835	2.754588
434.102051	856.933350	15080.331055	1256.013306	2.805799
434.460510	861.763000	15096.752930	1263.963501	2.825436
434.818939	860.128357	15102.027344	1272.136841	2.892932
435.177338	865.255188	15137.097656	1273.028442	2.857187
435.535675	861.094238	15153.000000	1270.576538	2.865134
435.894012	858.047852	15209.692383	1265.375366	2.838194
436.252289	863.917786	15402.210938	1270.576538	2.797156
436.610535	858.865173	15477.182617	1273.177124	2.834197
436.968719	859.979675	15718.516602	1287.071777	2.874389
437.326935	853.515381	15927.753906	1290.340942	2.897828
437.685028	861.837341	16253.276367	1291.232544	2.789831
438.043152	863.471985	16453.744141	1296.136597	2.775222
438.401215	860.054016	16758.681641	1302.675171	2.784021
438.759277	861.094238	17103.150391	1310.774292	2.768615
439.117249	857.527771	17664.134766	1318.055908	2.740161
439.475250	859.831116	18097.169922	1323.851563	2.691950
439.833130	855.521545	18533.847656	1343.987549	2.763078
440.191071	848.314209	18634.972656	1349.783081	2.819354
440.548889	849.205811	18664.173828	1358.699585	2.859920
440.906708	842.815735	18497.142578	1357.287720	2.914141
441.264496	849.057129	18280.773438	1358.402222	2.921945
441.622223	847.051025	18014.843750	1350.080444	2.930076
441.979950	851.211914	17751.291016	1331.578979	2.842396
442.337616	856.190247	17539.232422	1322.068237	2.792524
442.695251	863.397644	17315.728516	1305.498779	2.687164
443.052887	867.781433	17246.328125	1310.254272	2.701539
443.410461	863.769104	17368.408203	1317.238647	2.747528
443.768005	856.561768	17624.826172	1334.922607	2.852775
444.125458	855.670105	17941.431641	1341.535522	2.843686
444.482941	858.939453	18289.689453	1341.461304	2.768222
444.840393	864.735046	18804.681641	1356.990601	2.743907
445.197754	865.923889	19259.189453	1372.371216	2.753439
445.555084	863.397644	19625.130859	1384.631226	2.778174
445.912415	862.877502	19827.158203	1387.083130	2.764174
446.269714	862.580261	19923.529297	1392.655884	2.780951
446.626953	868.153015	19916.248047	1396.519531	2.773855
446.984161	869.564758	19735.619141	1396.965454	2.795501
447.341309	873.651428	19534.185547	1393.324585	2.784878
447.698456	866.815613	19237.048828	1384.259766	2.816753
448.055542	857.973572	19033.830078	1371.776855	2.826845
448.412598	855.670166	18634.677734	1360.334106	2.838538
448.769653	856.784668	18245.033203	1352.161011	2.848915
449.126617	861.911560	17729.447266	1347.925659	2.881358
449.483582	863.026123	17413.289063	1333.659546	2.843661
449.840515	869.341858	17147.880859	1328.681152	2.821748
450.197388	867.038513	16983.744141	1313.003296	2.767096
450.554230	858.122131	16852.080078	1311.368774	2.833862
450.911041	855.224304	16802.966797	1298.885864	2.781971
451.267822	856.338867	16860.849609	1299.703247	2.770246
451.624573	857.527649	16937.750000	1297.176880	2.734099
451.981262	855.744446	16920.216797	1301.783813	2.776558
452.337921	854.184082	16774.880859	1301.412231	2.809099
452.694580	859.682434	16441.259766	1286.848755	2.741483
453.051147	858.047791	16202.526367	1281.499146	2.759633
453.407715	862.134460	15820.238281	1275.406128	2.762861
453.764221	867.930115	15705.291992	1279.790039	2.775830
454.120728	859.459534	15360.528320	1268.495972	2.820733
454.477142	853.366699	15346.929688	1252.520874	2.754010
454.833557	850.840393	15225.148438	1253.115356	2.798569
455.189911	859.236633	15285.854492	1260.917114	2.784301
455.546265	869.416077	15355.102539	1281.350464	2.843734
455.902557	871.645203	15451.770508	1283.802490	2.826843
456.258820	877.886658	15710.195313	1284.619751	2.742210
456.615051	871.719543	15994.182617	1289.152222	2.760349
456.971252	862.877502	16346.672852	1296.731079	2.801985
457.327393	860.128357	16940.500000	1306.539063	2.776122
457.683502	860.574158	17630.474609	1324.817505	2.768313
458.039612	860.797058	18645.896484	1346.885376	2.733121
458.395630	863.323425	19582.630859	1372.594116	2.720564
458.751648	871.050781	20366.896484	1391.987183	2.672038
459.107605	878.555359	20962.953125	1407.070679	2.631472
459.463562	880.710144	21098.257813	1415.912598	2.647218
459.819458	872.982666	20902.841797	1411.454468	2.688345
460.175323	870.233398	20235.380859	1401.572266	2.743789
460.531158	869.193176	19410.843750	1388.940796	2.803136
460.886932	866.889893	18617.142578	1370.365234	2.836441
461.242676	863.323303	17937.568359	1344.730591	2.819494
461.598419	858.716553	17458.093750	1324.223022	2.804361
461.954102	862.283020	16962.046875	1319.541992	2.840159
462.309723	861.614441	16559.773438	1308.842407	2.848920
462.665344	861.688660	16248.221680	1299.480347	2.845291
463.020905	857.750671	16121.460938	1281.870605	2.778616
463.376373	860.054016	16093.820313	1286.625854	2.800173
463.731873	855.670105	16139.293945	1291.455688	2.851324
464.087341	857.230469	16154.452148	1292.124390	2.842960
464.442749	864.660828	16311.454102	1296.211060	2.793785
464.798126	868.524475	16425.062500	1290.861206	2.714850
465.153503	873.279968	16653.322266	1303.864136	2.728663
465.508820	858.716614	16807.126953	1298.142700	2.755297
465.864105	852.623718	16913.158203	1300.149048	2.786491
466.219330	850.320313	17120.312500	1296.879761	2.744681
466.574524	856.487488	17132.498047	1311.294434	2.794339
466.929657	857.824890	16990.134766	1314.192261	2.828903
467.284790	858.567871	16721.009766	1316.198364	2.884994
467.639893	851.806335	16473.435547	1305.647339	2.905209
467.994934	852.697998	16324.159180	1300.297607	2.893066
468.349945	843.781738	16159.504883	1290.118164	2.914237
468.704926	847.719727	16044.187500	1279.195679	2.839317
469.059875	849.577332	15925.303711	1265.523926	2.759048
469.414764	859.979675	15827.075195	1266.341309	2.715033
469.769653	863.323242	15769.043945	1271.542480	2.738675
470.124451	864.883606	15826.479492	1284.619629	2.805423
470.479248	857.081848	15895.507813	1286.551636	2.855816
470.834015	857.676270	15971.295898	1284.842651	2.826367
471.188721	863.769104	16176.817383	1292.421509	2.799263
471.543365	869.193176	16457.830078	1292.421509	2.714980
471.898010	860.945618	16775.029297	1301.560669	2.768711
472.252625	853.812683	17046.679688	1302.749634	2.772436
472.607178	851.063416	17288.683594	1314.489380	2.819301
472.961700	859.385254	17334.230469	1323.628662	2.817892
473.316193	859.459534	17357.189453	1329.424316	2.848663
473.670654	858.716553	17251.976563	1327.269531	2.858205
474.025055	853.812500	17337.648438	1320.805176	2.833034
474.379456	851.955017	17399.169922	1314.860962	2.797486
474.733795	854.481262	17610.560547	1317.238647	2.761728
475.088104	857.824951	17906.806641	1330.390259	2.771810
475.442383	863.843445	18268.066406	1344.210571	2.760061
475.796570	861.540039	18597.748047	1354.984497	2.782131
476.150787	862.431641	18979.960938	1363.900879	2.767868
476.504944	860.054016	19358.904297	1372.594238	2.770660
476.859070	862.654602	19669.712891	1388.271973	2.794788
477.213135	865.403809	19863.865234	1393.473267	2.779538
477.567200	869.936279	20082.613281	1399.343140	2.755508
477.921173	869.564758	20408.132813	1398.748657	2.708407
478.275146	860.722717	20719.609375	1406.773438	2.749654
478.629089	862.654602	21060.289063	1421.485352	2.766813
478.983002	861.911621	21487.826172	1432.779297	2.767721
479.336823	863.546204	22084.625000	1435.305664	2.694300
479.690643	855.744446	22793.400391	1451.057739	2.713660
480.044403	848.017029	23708.068359	1480.778931	2.767981
480.398163	844.376160	24935.843750	1522.537109	2.814943
480.751862	842.072754	26623.333984	1565.335449	2.805381
481.105499	850.245911	28925.158203	1619.576538	2.740278
481.459137	857.081848	32312.767578	1701.606567	2.684808
481.812744	861.391418	36803.921875	1815.586914	2.654781
482.166290	859.905457	42061.503906	1950.446411	2.646842
482.519806	861.688660	47213.511719	2101.503906	2.674793
482.873291	858.567932	51251.636719	2239.335449	2.739995
483.226715	861.019958	53707.046875	2337.935303	2.794752
483.580139	855.893066	54228.203125	2368.993896	2.834992
483.933502	859.831116	53218.425781	2329.538818	2.807004
484.286804	860.425476	50886.218750	2257.539551	2.792787
484.640106	862.060242	47806.816406	2176.623779	2.800235
484.993347	854.109863	44890.582031	2091.398682	2.809691
485.346558	846.605225	42907.070313	2013.009399	2.773160
485.699738	844.747559	42382.792969	1982.173828	2.738276
486.052887	845.193420	42950.242188	2002.012329	2.747459
486.405975	854.109802	44070.058594	2046.742676	2.759705
486.759064	860.871399	45052.269531	2081.516357	2.762178
487.112061	861.540039	45353.339844	2094.073486	2.770248
487.464996	854.927185	44850.015625	2089.466797	2.806085
487.817963	845.639343	43498.964844	2040.798340	2.802030
488.170868	845.565002	41534.847656	1983.065308	2.795577
488.523743	845.787903	39325.753906	1921.542603	2.795623
488.876587	850.171692	37407.781250	1881.642212	2.821493
489.229401	857.527771	36355.800781	1856.825073	2.815059
489.582153	866.815613	36279.644531	1847.165649	2.768347
489.934845	867.632996	37214.667969	1857.419434	2.723156
490.287537	859.905457	38522.394531	1893.456177	2.744245
490.640198	854.332703	39756.269531	1919.982300	2.739323
490.992798	852.400696	40155.644531	1928.304199	2.737442
491.345337	852.995178	39787.769531	1916.192993	2.730715
491.697876	856.338867	38403.734375	1884.763062	2.739003
492.050354	866.889893	36333.062500	1830.670532	2.717464
492.402832	868.450195	33684.542969	1757.036499	2.707776
492.755219	865.255188	30965.437500	1681.247681	2.710922
493.107605	858.419250	28562.041016	1614.895508	2.730604
493.459930	864.215027	26730.923828	1559.019531	2.686095
493.812225	867.855774	25575.591797	1534.053833	2.696314
494.164490	869.341797	24926.484375	1523.131348	2.717653
494.516724	870.456360	24698.521484	1517.038696	2.713533
494.868896	866.369690	24697.259766	1509.162476	2.697309
495.221039	863.620544	24953.529297	1515.924194	2.707788
495.573120	859.608215	25137.279297	1518.598999	2.714390
495.925201	873.056946	25429.437500	1535.837280	2.699015
496.277222	872.982666	25528.705078	1539.032227	2.701400
496.629211	875.583252	25531.083984	1544.976563	2.714986
496.981140	864.214905	25317.908203	1537.546265	2.753495
497.333069	862.357422	25053.390625	1528.258423	2.752677
497.684967	867.261414	24719.994141	1514.438110	2.713218
498.036804	862.283142	24303.525391	1495.416626	2.700938
498.388580	860.574158	23828.509766	1475.726440	2.678309
498.740326	855.372864	23330.978516	1466.884277	2.720778
499.092072	852.995300	22814.056641	1469.707886	2.808209
499.443756	853.515381	22392.835938	1471.342407	2.868368
499.795410	851.732117	22078.236328	1463.392090	2.881586
500.147003	859.608215	21804.505859	1443.553223	2.788006
500.498566	861.985840	21530.328125	1430.847534	2.752333
500.850098	860.648438	21323.617188	1426.389282	2.764706
501.201599	853.440979	21245.822266	1421.782593	2.787029
501.553009	854.778503	21216.548828	1418.067383	2.766404
501.904449	848.388367	21179.099609	1418.959106	2.806448
502.255859	853.589600	21190.021484	1414.203735	2.756699
502.607178	855.447205	21231.259766	1415.615356	2.749182
502.958405	863.620544	21345.832031	1409.596802	2.665612
503.309692	859.385254	21389.150391	1422.451172	2.742681
503.660919	855.967346	21534.857422	1427.875488	2.765662
504.012115	857.527771	21559.007813	1433.968140	2.784537
504.363251	862.134460	21574.015625	1431.813477	2.750494
504.714294	870.753601	21397.771484	1430.996094	2.729293
505.065369	874.245789	21245.154297	1425.646362	2.706804
505.416443	876.177673	21115.123047	1413.163452	2.653230
505.767395	877.217834	21102.937500	1409.894043	2.633658
506.118317	869.713379	21123.076172	1412.271851	2.678856
506.469238	862.357422	21265.513672	1417.175781	2.719277
506.820160	854.778564	21454.167969	1424.606079	2.766235
507.170929	855.670166	21649.212891	1427.875488	2.751841
507.521729	859.756836	21878.585938	1438.649414	2.754162
507.872498	852.623779	22105.728516	1442.884399	2.777291
508.223236	849.948914	22413.859375	1449.125977	2.778610
508.573883	842.741516	22650.515625	1452.989746	2.798306
508.924500	847.125305	22826.537109	1462.351929	2.799104
509.275116	849.280090	22971.427734	1474.091797	2.824372
509.625702	858.419373	23135.044922	1481.373413	2.796447
509.976196	855.967346	23315.673828	1481.150391	2.783576
510.326660	857.081848	23567.115234	1485.831421	2.768598
510.677124	849.948914	23782.000000	1486.945923	2.777759
511.027557	857.304871	23969.984375	1493.484741	2.752515
511.377869	860.574158	24092.359375	1492.667358	2.720812
511.728180	869.193176	24097.265625	1494.376343	2.691498
512.078430	871.496582	24071.482422	1491.627075	2.672978
512.428650	874.691589	23890.478516	1487.168945	2.661119
512.778931	874.914551	23706.062500	1486.054321	2.676781
513.129028	863.620544	23471.412109	1482.785156	2.738722
513.479126	847.868347	23356.912109	1471.268188	2.769553
513.829285	841.924133	23324.812500	1468.073242	2.785003
514.179382	846.902527	23297.171875	1460.419922	2.732784
514.529297	852.475098	23259.203125	1465.249634	2.734779
514.879272	857.750671	23349.406250	1463.466431	2.693069
515.229187	860.574036	23510.197266	1479.887329	2.734321
515.579163	865.998230	23929.634766	1497.794312	2.739360
515.928955	859.310974	24435.490234	1511.911743	2.768051
516.278748	858.196472	25191.296875	1526.252319	2.745461
516.628540	853.738281	26101.726563	1545.496582	2.739855
516.978333	862.283020	27075.615234	1568.753296	2.695080
517.327942	865.775330	28049.873047	1586.585938	2.651589
517.677612	866.295410	28671.859375	1607.019165	2.663941
518.027222	859.385254	29045.826172	1624.405884	2.714144
518.376831	856.784668	29023.384766	1622.102661	2.717112
518.726379	855.967285	28766.224609	1604.418579	2.681635
519.075867	850.617493	28107.755859	1581.459106	2.681285
519.425293	852.772278	27366.212891	1571.279663	2.709974
519.774658	857.453369	26573.849609	1569.199219	2.767673
520.124084	862.580322	25984.923828	1561.620239	2.782543
520.473389	857.602051	25571.578125	1547.354126	2.790939
520.822693	860.425537	25350.156250	1528.927124	2.729722
521.171997	867.929993	25231.939453	1526.772339	2.704162
521.521240	869.638977	25265.822266	1531.156250	2.711560
521.870361	855.447205	25364.423828	1537.694824	2.783664
522.219482	856.636047	25634.884766	1540.072632	2.758212
522.568604	861.837219	25910.326172	1554.412964	2.764940
522.917664	870.010559	26411.646484	1566.152710	2.725519
523.266724	864.289307	27055.478516	1577.446655	2.722890
523.615662	853.589661	28042.439453	1587.180298	2.698130
523.964600	855.149963	29200.150391	1618.907715	2.694506
524.313538	851.434814	30544.583984	1649.371704	2.687276
524.662354	856.487488	31874.380859	1692.764648	2.696112
525.011169	856.933289	33110.855469	1728.652710	2.702677
525.359985	863.620605	34355.574219	1769.073364	2.703493
525.708740	862.506042	35670.953125	1801.469360	2.697516
526.057434	868.301575	37312.152344	1839.958130	2.666174
526.406067	870.827881	39598.449219	1902.446899	2.663781
526.754700	870.976501	42586.160156	1987.226196	2.675884
527.103333	868.895996	46052.312500	2084.265625	2.689858
527.451782	869.564758	49387.386719	2188.437988	2.718328
527.800293	872.759766	51813.890625	2269.205078	2.741292
528.148743	873.354187	53126.964844	2300.635010	2.731449
528.497131	876.251953	52756.191406	2294.542236	2.733793
528.845642	870.976563	51098.355469	2237.477783	2.720630
529.193909	868.078796	48251.667969	2170.679688	2.749055
529.542175	856.636169	44746.136719	2062.197998	2.746811
529.890503	865.552429	41195.433594	1978.607056	2.759876
530.238770	866.295410	38145.457031	1904.081543	2.783824
530.586914	870.679199	36224.730469	1851.401001	2.774001
530.934998	865.552307	35243.941406	1807.859741	2.740988
531.283142	860.945618	35410.746094	1793.296265	2.698570
531.631226	856.190247	36159.199219	1810.088501	2.702031
531.979248	856.115967	37524.660156	1840.106934	2.683474
532.327148	857.156250	38751.917969	1857.196655	2.638994
532.675110	861.911621	39608.777344	1885.951660	2.642898
533.023071	860.871338	39682.480469	1878.670044	2.621732
533.370850	863.471863	38808.089844	1874.583374	2.664703
533.718689	865.478088	37394.253906	1829.853149	2.640042
534.066467	859.608154	35615.152344	1796.713989	2.696277
534.414246	851.880676	34079.835938	1756.219116	2.721619
534.761963	843.038635	32965.296875	1731.996460	2.767420
535.109619	849.354309	32510.562500	1723.971680	2.762426
535.457153	857.304871	32423.033203	1720.108032	2.733354
535.804749	863.917725	32419.318359	1711.191772	2.685037
536.152344	861.391418	32227.617188	1712.677734	2.714022
536.499817	862.580261	31797.404297	1702.126831	2.713921
536.847229	860.648438	31156.171875	1689.792603	2.736854
537.194641	862.506042	30302.804688	1662.226196	2.716413
537.542114	856.041687	29473.734375	1644.244995	2.754252
537.889404	858.567932	28804.859375	1637.409180	2.786922
538.236694	860.054016	28500.962891	1630.201782	2.786261
538.583984	861.242859	28865.271484	1628.269897	2.738988
538.931213	857.156250	29873.705078	1646.548340	2.720489
539.278381	859.905457	31560.228516	1682.882324	2.680678
539.625488	861.837219	33556.523438	1742.027344	2.692150
539.972595	866.295410	35983.769531	1793.370483	2.639925
540.319641	866.518250	38350.386719	1864.775391	2.663165
540.666687	868.153015	40254.832031	1914.706909	2.657127
541.013611	861.094177	41222.253906	1956.762085	2.714659
541.360596	859.979675	41145.355469	1951.412476	2.709253
541.707458	856.710388	40204.609375	1942.273071	2.758884
542.054260	857.453430	38619.433594	1900.515015	2.762200
542.401062	851.880676	36793.890625	1856.527832	2.795189
542.747864	855.967346	34850.425781	1799.091797	2.774348
543.094666	866.518311	33026.742188	1751.017944	2.750291
543.441284	872.908386	31238.572266	1705.767578	2.742766
543.787903	868.747375	29787.958984	1669.062012	2.767415
544.134460	854.332703	28598.226563	1647.588745	2.859209
544.481079	856.190247	27867.013672	1624.406250	2.844104
544.827637	854.109680	27402.916016	1605.830444	2.831467
545.174072	860.796875	27145.978516	1588.666382	2.769125
545.520508	858.567871	27043.591797	1580.864624	2.758435
545.866943	863.174805	26986.898438	1577.818359	2.735611
546.213318	861.465820	26906.873047	1577.521118	2.749258
546.559631	860.276917	26614.789063	1575.589233	2.777425
546.905823	863.620605	26023.562500	1562.214844	2.776613
547.252136	862.803223	25157.416016	1549.360352	2.825964
547.598389	863.026123	24205.744141	1521.274048	2.819928
547.944458	864.066345	23260.837891	1493.782104	2.811636
548.290588	866.815491	22328.787109	1460.791504	2.767574
548.636658	865.552429	21486.490234	1438.575073	2.778839
548.982727	854.704163	20787.820313	1418.216187	2.827014
549.328735	865.626648	20343.046875	1400.309082	2.745140
549.674622	865.329407	19964.771484	1401.720703	2.808414
550.020569	874.097168	19763.484375	1396.371094	2.764907
550.366455	871.719543	19581.738281	1390.649780	2.773542
550.712280	872.016663	19570.443359	1369.770630	2.662010
551.058044	866.964172	19622.158203	1374.005859	2.703474
551.403748	862.877441	19733.835938	1375.640625	2.717208
551.749512	864.215027	19927.916016	1390.798340	2.762230
552.095154	862.357361	20021.314453	1381.659180	2.710491
552.440735	857.081848	20107.728516	1389.832397	2.767442
552.786316	857.304688	19960.757813	1391.912964	2.798490
553.131897	864.214905	19780.794922	1398.600220	2.824957
553.477417	865.255188	19434.322266	1388.346313	2.817003
553.822815	860.499817	19024.765625	1365.238281	2.778744
554.168213	861.391418	18579.099609	1356.098999	2.792165
554.513672	862.654602	18211.298828	1341.015503	2.757339
554.859009	865.180908	17987.796875	1329.944336	2.714325
555.204285	854.927063	17808.800781	1320.656616	2.747039
555.549500	847.125305	17686.648438	1316.272705	2.785990
555.894714	849.354309	17543.244141	1319.839233	2.818306
556.239990	853.069519	17470.947266	1319.541992	2.807052
556.585022	866.221130	17356.892578	1316.049683	2.727776
556.930115	866.741211	17266.541016	1307.430664	2.687163
557.275146	871.422363	17095.125000	1299.034546	2.635725
557.620178	859.682434	16999.126953	1300.297607	2.730052
557.965149	856.338867	16920.140625	1298.514282	2.752620
558.310059	852.995178	16897.255859	1303.864136	2.810157
558.654968	857.676331	16849.404297	1304.978638	2.797086
558.999756	856.858948	16811.064453	1308.545288	2.831143
559.344604	860.722717	16869.912109	1302.303833	2.758298
559.689331	855.149963	16985.082031	1291.827271	2.707248
560.033997	855.744446	17104.041016	1296.508179	2.712677
560.378723	853.292480	17194.244141	1307.282104	2.778233
560.723389	857.973572	17175.593750	1320.656616	2.835481
561.067932	854.332703	17177.824219	1325.486206	2.886353
561.412476	855.595886	17083.978516	1320.730835	2.866182
561.757019	864.363525	16998.083984	1311.517212	2.771547
562.101501	871.347961	16922.666016	1301.932251	2.682548
562.445862	878.406738	16867.013672	1299.331665	2.632655
562.790222	867.558594	16846.804688	1307.430786	2.752772
563.134644	873.205566	16866.865234	1307.876587	2.717771
563.478943	866.518372	16947.707031	1303.418335	2.716839
563.823181	876.920715	17067.408203	1297.622681	2.598452
564.167358	873.354187	17272.632813	1301.932251	2.613396
564.511536	870.233398	17623.193359	1308.991089	2.618986
564.855774	859.533875	18052.958984	1318.873291	2.671599
565.199768	850.766174	18490.306641	1326.377930	2.696282
565.543823	845.193542	18771.689453	1346.588135	2.796947
565.887817	843.558838	18973.199219	1351.863647	2.803722
566.231812	850.246094	18935.083984	1356.619141	2.799987
566.575745	859.459656	18794.724609	1339.157837	2.674609
566.919617	863.397644	18526.267578	1333.213745	2.659908
567.263428	860.054016	18229.875000	1322.662720	2.663290
567.607239	858.865234	17995.525391	1320.210815	2.692156
567.950989	858.493652	17783.314453	1313.895020	2.690731
568.294678	861.985901	17660.048828	1319.170410	2.721650
568.638367	855.447266	17570.587891	1318.130249	2.768047
568.981995	859.979736	17569.621094	1325.486206	2.785856
569.325623	857.379150	17676.320313	1321.622559	2.760242
569.669128	862.431641	17820.689453	1315.604004	2.672281
570.012573	854.481262	18073.169922	1315.826782	2.679330
570.356140	852.995178	18333.007813	1327.269409	2.713238
570.699524	857.304871	18598.861328	1341.907104	2.731453
571.042908	856.859070	18897.857422	1357.139038	2.773017
571.386230	858.196472	19088.591797	1356.470337	2.733204
571.729492	852.103577	19182.955078	1367.913086	2.813887
572.072815	856.264648	19088.740234	1360.185669	2.763865
572.416016	855.075684	18906.103516	1364.569458	2.822520
572.759094	858.493713	18721.833984	1350.897827	2.756506
573.102234	862.208801	18518.837891	1344.433472	2.731125
573.445374	861.985840	18389.255859	1334.625488	2.696596
573.788391	859.087952	18219.474609	1337.003174	2.752907
574.131409	857.899170	18120.427734	1338.117676	2.781855
574.474365	850.394592	18036.912109	1337.523315	2.834366
574.817261	853.886902	17989.505859	1337.151733	2.820235
575.160156	846.679443	17823.958984	1334.328247	2.872361
575.502930	858.642273	17576.904297	1335.368530	2.851530
575.845703	857.602051	17289.351563	1320.507935	2.817143
576.188477	871.868164	16963.533203	1310.625610	2.726613
576.531250	863.249023	16609.927734	1297.176880	2.755679
576.873901	862.505920	16194.054688	1297.176880	2.835140
577.216431	853.292480	15885.625000	1289.672363	2.902942
577.559082	857.750671	15548.141602	1281.276001	2.883009
577.901611	852.772400	15320.776367	1265.895386	2.855425
578.244080	850.246033	15048.604492	1258.613770	2.876162
578.586487	853.143860	14858.241211	1248.359985	2.821945
578.928955	873.205566	14633.624023	1256.459106	2.785188
579.271301	880.412903	14452.399414	1255.864624	2.766373
579.613647	887.991760	14253.713867	1257.127686	2.761811
579.955872	875.063171	14088.910156	1238.923462	2.753629
580.298157	874.914551	13951.229492	1219.753540	2.637127
580.640320	866.444031	13852.480469	1212.026001	2.661181
580.982483	868.598816	13810.793945	1212.694702	2.658713
581.324524	860.202576	13727.352539	1222.428345	2.815120
581.666626	862.654602	13658.770508	1217.227173	2.770939
582.008728	859.682556	13576.147461	1216.335571	2.804655
582.350647	861.391418	13515.070313	1217.672974	2.815636
582.692566	859.979675	13497.088867	1221.833862	2.863425
583.034424	855.298584	13474.277344	1214.775146	2.848698
583.376343	857.007568	13451.838867	1209.202515	2.796345
583.718201	854.109802	13407.554688	1204.001343	2.787215
584.059937	855.818787	13337.562500	1206.899048	2.812750
584.401611	848.834290	13277.301758	1208.013672	2.889973
584.743347	852.400696	13239.703125	1211.728638	2.900776
585.085022	847.571106	13211.394531	1204.521362	2.887054
585.426514	856.710266	13210.428711	1202.886719	2.802204
585.768127	858.716492	13204.187500	1195.679321	2.729445
586.109619	868.970215	13179.593750	1200.954834	2.696733
586.451172	870.159180	13155.593750	1194.639160	2.641176
586.792542	859.459534	13182.863281	1204.001343	2.795833
587.133850	856.413269	13224.174805	1209.871216	2.857898
587.475220	850.989075	13306.057617	1208.088013	2.867097
587.816589	861.242859	13366.614258	1203.629761	2.737919
588.157776	866.518372	13481.856445	1198.651489	2.632772
588.498962	866.964172	13550.067383	1211.951782	2.720057
588.840210	864.883728	13633.211914	1211.505859	2.714703
589.181335	864.883606	13704.617188	1221.833862	2.780044
589.522400	867.112793	13749.718750	1227.480835	2.797323
589.863403	861.911621	13736.566406	1230.304321	2.861379
590.204407	859.013855	13670.511719	1225.920532	2.863886
590.545410	856.041687	13609.062500	1216.855591	2.829243
590.886353	861.688660	13469.152344	1219.901978	2.841280
591.227112	856.264587	13356.807617	1217.078613	2.886387
591.567932	863.174744	13236.882813	1218.564575	2.872137
591.908752	861.391418	13178.405273	1207.419189	2.809348
592.249512	867.929993	13180.635742	1204.372803	2.732485
592.590149	869.267517	13190.442383	1197.314087	2.662462
592.930786	867.632813	13296.250000	1200.657715	2.679501
593.271423	865.552429	13364.458008	1197.016846	2.651947
593.612000	858.939453	13555.639648	1197.091064	2.663303
593.952576	856.190247	13715.614258	1205.710327	2.718007
594.292969	853.069580	13909.840820	1217.821655	2.793586
594.633484	854.555603	14076.948242	1226.366333	2.811978
594.973877	862.357422	14295.471680	1229.784302	2.735232
595.314209	866.592590	14551.964844	1237.288940	2.708705
595.654480	874.988831	14878.153320	1251.555054	2.689151
595.994812	871.570862	15230.573242	1260.397095	2.707892
596.335022	865.180908	15496.426758	1268.718994	2.758057
596.675171	861.614441	15530.606445	1270.130615	2.784896
597.015320	861.763000	15370.484375	1270.279297	2.815660
597.355408	865.032288	15016.729492	1256.607544	2.766984
597.695496	851.955017	14609.476563	1240.929810	2.827361
598.035461	848.239929	14124.575195	1215.220825	2.764173
598.375366	849.874512	13700.531250	1206.453247	2.774790
598.715271	857.750671	13324.410156	1196.645264	2.718407
599.055176	858.939453	12976.301758	1191.221069	2.742194
599.395081	858.122070	12710.075195	1175.617554	2.678845
599.734802	859.979675	12494.746094	1165.586792	2.626672
600.074524	863.769226	12424.233398	1170.342163	2.651909
600.414246	863.620544	12390.424805	1178.515503	2.731849
600.753906	869.713379	12425.346680	1183.567993	2.716031
601.093506	871.942444	12502.101563	1182.305054	2.668602
601.433044	871.199402	12676.043945	1184.979858	2.658065
601.772583	865.552429	12889.441406	1195.307983	2.742503
602.112122	861.614319	13200.918945	1212.546143	2.844016
602.451538	863.620544	13546.128906	1218.044434	2.794588
602.790894	859.385254	13925.890625	1221.536743	2.771602
603.130310	856.413147	14286.481445	1227.629517	2.764069
603.469604	848.462708	14645.511719	1241.301270	2.847265
603.808838	849.354309	14984.778320	1249.697510	2.832198
604.148010	841.478271	15200.702148	1255.864624	2.885855
604.487305	847.571106	15211.252930	1257.945068	2.857025
604.826416	853.292419	15069.112305	1264.632324	2.893536
605.165527	862.951721	14749.833008	1257.647827	2.842223
605.504456	868.524475	14422.604492	1247.691284	2.797437
605.843445	860.128357	13974.708008	1234.539673	2.854924
606.182434	854.555664	13543.454102	1216.261230	2.850567
606.521423	851.657898	13118.218750	1207.270630	2.899042
606.860229	857.379150	12835.051758	1188.843506	2.767352
607.199036	862.951843	12694.768555	1190.478149	2.768183
607.537903	862.431641	12715.796875	1188.546265	2.751241
607.876648	860.722656	12847.609375	1189.883667	2.746009
608.215271	857.304749	13072.375000	1189.809448	2.722086
608.553955	848.165527	13311.183594	1199.022949	2.815188
608.892578	840.809570	13497.832031	1211.505859	2.928780
609.231140	841.552551	13573.027344	1218.638916	2.961843
609.569641	841.552551	13539.144531	1216.335571	2.951607
609.908081	845.044861	13407.628906	1208.533691	2.893424
610.246521	850.023132	13174.762695	1201.995239	2.855818
610.584961	854.109802	12892.487305	1195.753784	2.837957
610.923340	855.670105	12567.190430	1192.558716	2.876557
611.261597	853.366699	12208.976563	1188.472046	2.951012
611.599854	858.047852	11893.338867	1182.156250	2.937017
611.938110	862.654602	11640.487305	1181.561890	2.958918
612.276245	867.112793	11510.829102	1178.218140	2.922901
612.614319	866.964172	11346.916992	1179.852905	2.985593
612.952393	865.775391	11201.581055	1169.896362	2.942402
613.290466	861.985901	11065.977539	1158.973755	2.910507
613.628479	857.007629	10914.326172	1140.249512	2.816276
613.966370	857.750549	10798.934570	1137.871826	2.817786
614.304260	863.397644	10687.183594	1134.899780	2.763722
614.642151	859.905334	10577.809570	1138.243286	2.864177
614.979980	865.626648	10493.847656	1131.481812	2.761208
615.317749	864.140625	10422.368164	1132.001953	2.802416
615.655396	872.685486	10411.222656	1130.144409	2.699145
615.993164	865.775391	10411.445313	1132.596436	2.795205
616.330811	862.506042	10402.751953	1129.847168	2.802246
616.668396	862.803223	10396.659180	1132.447754	2.828284
617.005859	866.369812	10375.483398	1129.475708	2.766881
617.343445	868.524475	10348.881836	1132.373535	2.783113
617.680908	870.902161	10360.696289	1127.692505	2.705963
618.018311	871.719543	10343.904297	1135.419800	2.783943
618.355652	869.193298	10339.743164	1127.023682	2.722444
618.692993	866.741272	10284.610352	1133.785278	2.835504
619.030273	858.345032	10270.493164	1131.481812	2.901960
619.367554	865.775330	10235.868164	1137.723267	2.902297
619.704712	859.013733	10215.806641	1128.361084	2.878629
620.041870	863.397644	10201.837891	1129.847168	2.853255
620.379028	857.973450	10187.051758	1121.228027	2.821871
620.716064	863.471863	10191.287109	1126.429321	2.819068
621.053040	858.567932	10139.573242	1121.302368	2.830884
621.389954	858.493652	10100.339844	1123.159912	2.863781
621.726929	857.379089	10061.925781	1121.376587	2.868120
622.063843	862.134460	10058.656250	1123.457031	2.841537
622.400635	860.871338	10054.124023	1117.067017	2.786779
622.737427	861.911560	10031.165039	1116.844116	2.780298
623.074219	866.369690	10044.985352	1107.779297	2.630131
623.410889	867.409973	10069.504883	1116.026978	2.701744
623.747559	868.747375	10123.597656	1119.444946	2.708823
624.084167	863.174744	10168.922852	1127.543945	2.840924
624.420715	862.951843	10276.512695	1127.989746	2.815490
624.757324	857.973572	10392.202148	1128.955566	2.842202
625.093750	860.202576	10570.528320	1130.887329	2.787597
625.430176	858.196472	10762.229492	1145.004883	2.895875
625.766602	860.871338	10971.687500	1152.286499	2.882212
626.102905	855.447266	11168.887695	1156.893311	2.922847
626.439209	860.054016	11272.987305	1162.020264	2.899915
626.775452	853.515320	11345.356445	1157.116333	2.893687
627.111694	856.933289	11274.621094	1154.441406	2.855798
627.447876	852.029297	11182.485352	1146.490967	2.850423
627.783997	859.088074	11010.846680	1142.478638	2.791542
628.120056	868.598816	10890.401367	1145.376465	2.761755
628.456055	872.611145	10719.875977	1142.404419	2.739779
628.792053	875.434631	10551.358398	1142.107056	2.756041
629.128052	864.883606	10370.876953	1140.546753	2.899888
629.463928	865.700989	10274.581055	1138.020508	2.894282
629.799744	871.570984	10210.680664	1134.230957	2.812474
630.135559	870.382080	10118.619141	1132.076172	2.829664
630.471375	858.716492	9986.583008	1128.212524	2.952454
630.807068	849.280090	9881.742188	1119.073364	2.986930
631.142700	852.400818	9832.776367	1111.197144	2.881798
631.478333	860.574036	9760.851563	1112.534546	2.830929
631.813965	863.992004	9680.975586	1119.073242	2.893067
632.149475	864.066406	9604.370117	1124.051636	2.974556
632.484924	875.508972	9625.768555	1120.039185	2.794548
632.820435	875.806152	9688.926758	1120.187866	2.772930
633.155884	870.753601	9752.381836	1117.067017	2.773291
633.491150	861.391418	9782.993164	1123.085571	2.933264
633.826477	853.961182	9738.932617	1122.416870	3.021458
634.161804	857.973450	9683.502930	1121.153687	2.982033
634.497009	856.487488	9560.606445	1111.642944	2.931433
634.832153	855.001465	9479.541992	1101.240601	2.855098
635.167297	850.840515	9390.898438	1100.794800	2.926845
635.502380	847.051025	9326.031250	1090.764038	2.874320
635.837463	848.165527	9205.958008	1092.175659	2.919552
636.172424	856.115967	9075.706055	1089.426514	2.838470
636.507324	856.858948	8967.297852	1091.358398	2.891329
636.842224	857.601990	8897.378906	1094.330566	2.944467
637.177124	856.264465	8819.733398	1092.324341	2.964285
637.511963	856.115906	8731.089844	1094.702026	3.029675
637.846741	860.053955	8657.975586	1092.547241	2.981477
638.181396	855.818787	8580.106445	1086.082886	2.981040
638.516113	858.567932	8505.877930	1081.624634	2.916800
638.850769	863.174744	8434.844727	1079.767090	2.860563
639.185303	868.895996	8376.219727	1073.897095	2.730681
639.519836	866.072510	8331.860352	1077.240845	2.828480
639.854370	865.255188	8286.165039	1069.439087	2.751467
640.188843	862.060120	8241.954102	1066.021118	2.763739
640.523254	862.283020	8235.788086	1059.928345	2.680480
640.857605	865.106628	8180.357910	1071.965454	2.827775
641.191895	860.351257	8134.067871	1065.203979	2.816342
641.526184	863.992004	8052.111816	1064.535156	2.789925
641.860413	853.515381	8003.146484	1052.052124	2.776881
642.194580	863.843506	7961.165527	1062.677490	2.801535
642.528748	857.602051	7924.904785	1061.711548	2.888082
642.862793	864.660828	7860.187500	1062.677490	2.830618
643.196838	862.951843	7817.240723	1065.129517	2.907237
643.530823	866.072571	7778.677246	1062.528931	2.842002
643.864746	861.168518	7778.380371	1059.408203	2.865890
644.198669	859.905457	7800.894043	1051.160645	2.755446
644.532532	861.168518	7813.153809	1050.789063	2.727574
644.866333	860.871338	7856.843750	1052.869507	2.744410
645.200073	860.054016	7851.791504	1047.222534	2.676996
645.533813	861.465637	7861.525391	1044.175903	2.610124
645.867554	864.660828	7854.243652	1045.810669	2.591712
646.201172	864.735046	7863.902832	1055.618774	2.727235
646.534729	862.431641	7875.122559	1053.092407	2.718796
646.868225	857.230469	7875.345215	1050.269043	2.750576
647.201782	845.936523	7882.850098	1047.891235	2.869933
647.535217	837.688904	7888.645996	1052.349487	3.044418
647.868591	837.540283	7877.796875	1049.674561	3.013161
648.201965	846.679504	7844.881348	1050.566284	2.913417
648.535278	853.441101	7805.426270	1051.234985	2.845142
648.868591	860.797058	7806.021484	1055.692993	2.806186
649.201782	857.899170	7815.458496	1054.281372	2.822573
649.534912	859.162415	7823.408203	1059.333862	2.874273
649.868103	852.029297	7817.538574	1054.504272	2.906822
650.201172	859.682434	7808.695313	1055.247192	2.814281
650.534180	862.728943	7797.698730	1051.977905	2.728908
650.867188	869.564697	7786.404785	1056.807617	2.707059
651.200134	872.908386	7791.011719	1055.767334	2.643195
651.533020	868.821716	7775.853516	1054.355591	2.686159
651.865845	863.546204	7756.535156	1054.504272	2.770323
652.198608	852.400879	7725.923340	1058.813843	3.003016
652.531433	850.989075	7703.482910	1063.569214	3.102230
652.864136	855.001465	7674.505371	1064.609497	3.073655
653.196777	960.659851	7738.107910	1158.156616	2.914028
653.529358	970.987976	7688.919434	1159.865356	2.811541
653.861938	965.563904	7605.031250	1146.193726	2.720547
654.194519	864.214905	7416.377441	1047.965454	2.804426
654.526978	858.419250	7354.260254	1039.866577	2.793285
654.859375	865.849609	7317.628906	1060.076782	3.010443
655.191833	872.165344	7312.799316	1057.476196	2.877214
655.524170	870.753601	7331.003906	1054.875610	2.850075
655.856445	867.484192	7360.056152	1043.432983	2.710001
656.188660	872.016785	7389.703125	1052.795166	2.773659
656.520874	873.725647	7414.891113	1051.903687	2.723949
656.853088	870.382019	7468.018066	1057.476196	2.835776
657.185181	860.054016	7542.246094	1049.674561	2.837700
657.517212	859.608154	7684.387207	1059.259644	2.925391
657.849243	863.397644	7870.069824	1060.894287	2.818694
658.181274	864.660828	8090.823730	1066.764160	2.796828
658.513123	861.837219	8305.038086	1061.562988	2.683332
658.844971	860.499817	8495.847656	1060.374146	2.617750
659.176819	857.453430	8597.494141	1057.401978	2.583301
659.508667	856.858948	8610.422852	1068.175903	2.725417
659.840393	858.047852	8565.246094	1072.113892	2.777482
660.172058	856.264465	8474.745117	1074.863159	2.869321
660.503662	861.019836	8325.545898	1067.507202	2.766249
660.835266	860.648376	8131.392578	1056.064453	2.687704
661.166931	864.140625	7932.484375	1046.776733	2.583860
661.498413	865.923889	7770.504395	1049.526001	2.659135
661.829773	866.964172	7590.914551	1048.485718	2.699626
662.161194	867.632813	7397.281738	1051.309204	2.812960
662.492615	862.283020	7204.763672	1050.714844	2.970948
662.823975	858.047852	7073.767578	1055.024414	3.169007
663.155212	855.075684	6978.511230	1052.052246	3.216765
663.486450	857.601990	6918.400879	1035.705566	2.938616
663.817627	860.722717	6845.435547	1033.030762	2.879136
664.148743	856.859070	6794.686035	1027.681030	2.876843
664.479858	854.555664	6741.114746	1035.482788	3.073563
664.810913	855.744446	6707.826660	1030.801636	2.991366
665.141907	860.351257	6692.669434	1027.160767	2.860089
665.472778	858.790833	6682.117676	1021.959656	2.801986
665.803711	859.905457	6709.981934	1022.256836	2.775201
666.134583	864.958008	6705.894531	1026.789307	2.770640
666.465454	865.478088	6707.603516	1027.755249	2.777708
666.796143	861.688660	6688.730469	1025.005981	2.802748
667.126831	863.323303	6687.765625	1025.823364	2.789968
667.457458	871.273743	6676.842285	1024.411621	2.637776
667.788147	870.456360	6677.140137	1021.959656	2.609119
668.118774	871.125183	6690.439941	1027.012207	2.678787
668.449219	865.255188	6714.514160	1026.046265	2.748914
668.779663	866.369690	6698.242188	1036.151367	2.911272
669.110107	853.886902	6696.458984	1025.600464	2.939006
669.440552	851.732117	6684.570313	1024.262939	2.957922
669.770874	853.218201	6651.654297	1011.482910	2.729438
670.101135	857.304749	6600.384766	1014.380676	2.735047
670.431396	859.608154	6544.138184	1014.232178	2.720084
670.761597	855.298645	6495.172363	1014.529297	2.823302
671.091797	856.710388	6464.411621	1010.442688	2.741450
671.421875	861.688660	6430.529297	1007.767761	2.623151
671.751892	869.936218	6409.947266	1008.065125	2.493296
672.081909	877.812317	6359.050293	1006.950500	2.356004
672.411865	874.765930	6297.824219	1015.718262	2.599130
672.741821	874.171570	6253.391113	1018.318848	2.679706
673.071716	869.341858	6228.871094	1028.201050	2.964051
673.401550	867.781494	6196.103516	1022.925598	2.911688
673.731262	863.100403	6186.295410	1022.405334	2.992656
674.060974	857.379089	6149.218750	1012.374512	2.928952
674.390625	858.047852	6154.568848	1009.922546	2.867443
674.720276	854.184082	6125.888184	1005.018555	2.861209
675.049927	864.140686	6114.593750	1004.944336	2.681743
675.379395	862.283142	6082.197754	1003.012451	2.696008
675.708923	864.660828	6049.132813	1000.040344	2.611250
676.038330	856.710388	6032.117676	1000.783386	2.783800
676.367737	858.865173	6023.943848	1007.173340	2.871363
676.697083	859.385254	6017.925781	1011.260010	2.944142
677.026428	858.939453	6021.046875	1013.860596	3.001122
677.355652	853.515320	6042.000000	1012.002991	3.054604
677.684875	857.007568	6119.126465	1013.191895	2.968088
678.013977	858.716553	6189.044922	1015.495300	2.941259
678.343079	868.301575	6271.446777	1017.352844	2.758602
678.672180	871.347961	6332.003418	1016.312561	2.654711
679.001221	867.335693	6393.005859	1018.095886	2.728360
679.330139	861.688660	6458.169434	1013.117676	2.705790
679.659058	860.574036	6539.085449	1017.204285	2.758298
679.987976	861.837219	6641.028809	1023.520020	2.797672
680.316772	859.236633	6673.796387	1033.402344	2.995338
680.645630	853.663879	6664.434082	1028.275513	3.004966
680.974304	859.310974	6617.846191	1016.758484	2.734159
681.302979	855.447266	6579.060059	1011.854492	2.732666
681.631653	864.735107	6511.593262	1007.247742	2.523751
681.960266	866.295471	6424.733887	1011.185730	2.606672
682.288757	871.273682	6342.108887	1013.860657	2.606311
682.617249	863.694824	6273.155762	1024.560303	2.973780
682.945679	860.871277	6194.617676	1024.411621	3.066144
683.274109	870.159180	6107.832031	1016.609863	2.796102
683.602478	875.806152	5982.111816	1004.869934	2.527537
683.930725	873.799988	5889.233887	999.817383	2.512592
684.259033	860.797058	5797.915527	985.699890	2.529873
684.587280	853.292419	5775.104980	988.746277	2.752113
684.915344	852.400818	5749.321777	985.848450	2.725133
685.243469	858.493652	5757.717285	997.885559	2.845184
685.571533	860.797058	5726.361816	992.238525	2.701464
685.899536	861.837219	5715.365234	992.535706	2.692855
686.227539	856.710388	5685.347168	990.009460	2.760594
686.555420	853.961182	5689.507813	990.975342	2.833478
686.883301	851.955078	5703.253906	990.083801	2.847252
687.211121	855.818787	5739.662109	990.678223	2.761338
687.538940	858.345032	5762.398926	995.284912	2.792381
687.866638	858.790833	5760.169434	1002.343750	2.928828
688.194336	854.035583	5730.597656	1002.418030	3.042768
688.521973	853.069519	5688.467285	1002.418030	3.088650
688.849609	848.091248	5614.387207	1005.761658	3.308028
689.177063	855.967285	5538.970215	1010.071106	3.290705
689.504578	858.122070	5481.237793	1008.436523	3.251367
689.832031	859.162354	5419.417480	994.170410	2.960537
690.159485	856.264587	5334.638184	981.687500	2.800635
690.486816	849.651672	5257.214844	982.133362	3.005781
690.814087	859.236755	5214.639160	985.477051	2.898476
691.141296	859.013855	5184.026855	987.260254	2.965226
691.468506	861.465759	5136.695801	982.876465	2.839864
691.795715	861.168457	5086.913086	979.830017	2.808063
692.122803	861.242859	5056.597656	981.464661	2.865593
692.449829	859.905334	5037.873047	982.950684	2.945101
692.776855	859.311035	5000.127441	988.151855	3.111484
693.103821	855.372986	4978.653809	980.052917	3.023804
693.430664	870.159180	4948.486816	980.052979	2.694580
693.757568	868.970398	4925.378418	961.848694	2.289669
694.084351	874.988831	4892.462402	968.313049	2.322958
694.411133	865.329407	4884.512207	969.576172	2.593730
694.737854	862.654602	4866.977051	982.059082	2.981890
695.064575	861.837219	4853.379395	988.077576	3.162696
695.391174	861.465759	4840.302246	977.080750	2.905749
695.717773	863.843445	4865.342285	975.743347	2.796450
696.044250	860.202637	4924.264160	964.597961	2.568744
696.370789	861.317078	4988.981934	972.696960	2.698375
696.697205	855.447205	5103.333496	975.371765	2.823159
697.023621	859.236633	5240.868164	979.086914	2.735289
697.349915	858.567871	5431.751953	985.997070	2.786444
697.676208	865.106628	5631.179688	992.461426	2.672112
698.002380	862.580261	5847.623535	1005.910156	2.875199
698.328674	862.580261	6068.154785	1006.653259	2.767668
698.654724	857.007629	6193.429199	1008.213562	2.833471
698.980896	856.190247	6271.520996	1013.191895	2.899207
699.306946	846.753723	6227.830566	1018.393066	3.189684
699.632935	848.908630	6165.416504	1006.653320	2.967073
699.958862	847.496887	6021.195313	991.644104	2.786154
700.284729	857.007629	5855.500000	985.254089	2.565703
700.610596	856.264587	5660.826660	991.644043	2.817727
700.936340	856.413086	5468.160156	999.371582	3.099877
701.262146	853.292419	5286.192871	995.730774	3.213209
701.587830	852.029297	5140.410645	988.449036	3.181148
701.913513	859.236633	5010.009766	981.390320	2.942914
702.239075	864.289246	4898.109863	973.662842	2.711415
702.564697	867.558533	4795.349121	971.879639	2.655974
702.890137	856.784668	4704.104980	956.870544	2.601444
703.215698	855.670105	4617.468262	955.161621	2.644786
703.541016	856.338867	4551.562012	957.464905	2.736669
703.866455	857.676331	4497.469238	961.848816	2.862044
704.191711	853.441101	4474.435059	958.876648	2.911785
704.517029	857.824890	4440.776367	959.322449	2.832792
704.842163	866.518311	4402.213379	961.031433	2.673113
705.167419	872.016785	4358.969238	958.207825	2.471816
705.492493	862.580322	4329.396973	958.059265	2.754081
705.817566	858.493652	4311.415527	953.898254	2.763011
706.142578	852.549500	4290.462402	953.972656	2.950138
706.467590	859.459534	4281.099609	949.291504	2.625407
706.792480	858.865173	4264.827637	952.189270	2.740021
707.117371	856.561707	4269.805664	955.235779	2.890918
707.442200	862.505920	4272.629395	957.613464	2.788976
707.766907	866.146790	4293.136719	961.923035	2.794763
708.091675	871.793762	4303.613281	971.879700	2.916410
708.416321	864.289246	4315.130371	973.662903	3.169478
708.741028	857.750671	4326.721191	972.102539	3.296421
709.065552	854.555664	4347.675293	964.746582	3.154513
709.390137	851.360596	4378.213379	964.597961	3.210720
709.714600	843.707336	4398.423828	969.576233	3.540898
710.039063	850.394592	4435.872559	966.529785	3.239043
710.363403	852.920898	4449.395508	969.204773	3.233274
710.687744	861.317139	4503.488281	962.814636	2.786731
711.012085	861.019836	4547.698242	969.204651	2.934479
711.336304	857.750549	4610.483887	964.449402	2.843230
711.660461	862.654602	4633.963379	962.443115	2.645992
711.984619	854.407043	4624.378418	963.929199	2.905119
712.308716	858.939453	4563.970215	963.186218	2.813654
712.632751	858.196472	4507.648926	960.511292	2.803566
712.956726	864.883606	4446.869141	956.201721	2.549371
713.280701	861.837219	4411.798340	957.316223	2.689579
713.604553	869.639099	4364.541504	955.384338	2.453437
713.928467	860.499817	4343.811035	952.858093	2.651451
714.252258	856.116028	4322.783691	947.508301	2.636315
714.575989	850.097473	4321.223145	952.709473	2.956159
714.899719	856.115967	4296.703613	960.511230	3.034228
715.223267	866.741272	4296.257813	964.449219	2.849030
715.546936	857.676331	4296.332031	960.511230	2.990555
715.870422	857.081848	4301.756348	953.229675	2.791202
716.193970	855.967285	4273.446777	956.053162	2.928646
716.517395	862.803223	4241.570801	961.923035	2.933609
716.840820	857.081848	4202.784668	966.009705	3.255754
717.164124	849.725891	4173.509766	957.167664	3.232514
717.487488	848.314148	4115.033691	953.303955	3.213922
717.810730	852.475098	4048.384033	949.588684	3.038684
718.133972	853.961182	3965.610352	954.121277	3.218875
718.457092	856.487488	3895.840576	953.675476	3.197654
718.780212	858.939453	3834.020508	956.053162	3.264237
719.103210	857.156250	3797.463623	952.040771	3.227027
719.426208	858.196472	3760.163818	950.703308	3.187728
719.749207	857.824890	3729.699463	939.780823	2.853744
720.072083	859.459473	3700.647217	927.520813	2.395524
720.394958	849.874512	3674.120850	930.641602	2.859775
720.717773	851.583435	3637.861084	929.675598	2.802742
721.040527	847.199646	3609.254639	942.827332	3.462193
721.363281	854.109680	3583.991455	940.300964	3.157326
721.685913	853.663879	3581.093994	948.399963	3.473456
722.008545	857.750488	3554.567627	946.690918	3.297978
722.331055	855.075623	3540.524658	937.477356	3.068453
722.653503	862.951843	3525.738281	935.322571	2.717857
722.976013	862.208801	3522.766357	926.629211	2.421312
723.298401	868.747375	3524.549561	938.071838	2.610302
723.620789	856.636047	3522.840576	931.236023	2.797984
723.943115	861.614441	3511.917969	939.780945	2.949342
724.265381	859.756836	3492.525146	930.716003	2.695230
724.587585	866.518372	3484.797607	928.189636	2.355412
724.909790	862.208801	3487.769531	925.366028	2.405476
725.231873	862.060242	3480.636719	925.886230	2.437431
725.553894	861.391418	3481.156982	937.105896	2.890124
725.875916	912.140137	3536.512451	980.870300	2.618918
726.197937	905.378601	3554.270752	985.105469	3.009819
726.519775	903.669678	3559.323486	981.761902	2.940603
726.841675	859.831116	3525.887451	936.288574	2.867811
727.163513	866.666992	3556.425781	929.527039	2.337014
727.485291	860.722717	3600.487061	925.588928	2.367584
727.806946	856.115967	3641.873291	928.858337	2.611224
728.128662	853.292480	3655.842529	932.870605	2.839490
728.450256	857.824890	3657.997070	935.545593	2.775569
728.771790	857.676331	3653.984619	939.706543	2.933518
729.093323	871.793762	3661.563721	942.827209	2.546211
729.414795	874.691589	3664.387451	941.415466	2.391798
729.736145	877.143616	3659.037354	940.746765	2.286326
730.057495	860.871277	3652.276123	934.059509	2.621914
730.378845	867.112793	3647.669189	933.242188	2.378279
730.700134	868.598877	3660.375000	935.248352	2.387350
731.021301	872.982727	3694.108398	934.653992	2.186052
731.342468	868.153015	3740.918945	938.591980	2.451956
731.663574	870.604980	3782.751709	937.774597	2.306533
731.984680	866.444031	3790.627686	953.080994	2.962775
732.305664	857.304871	3778.590576	955.161438	3.349777
732.626648	845.416321	3744.039795	950.628967	3.629745
732.947571	844.301819	3728.584717	942.009949	3.387606
733.268433	853.143860	3698.863525	937.031555	2.947855
733.589233	850.989075	3683.111328	940.746765	3.169273
733.909973	851.880676	3664.981689	941.118347	3.172217
734.230713	849.725891	3627.458984	943.496033	3.375779
734.551331	853.143860	3576.561768	935.842773	3.036585
734.871948	853.143860	3513.627197	933.167786	3.007872
735.192505	855.967346	3479.001953	927.372253	2.722225
735.513062	866.444031	3428.104736	926.629211	2.349460
735.833435	874.022949	3376.538330	921.948181	1.915082
736.153931	869.193176	3326.904297	925.068848	2.273484
736.474304	862.654602	3316.204834	926.183411	2.589261
736.794617	860.128235	3307.288330	932.350586	2.951272
737.114807	861.317139	3314.718750	924.325867	2.568219
737.434998	863.100403	3310.037842	929.750000	2.723796
737.755188	867.855774	3321.034424	932.053284	2.616911
738.075256	876.400635	3334.037354	939.334961	2.560766
738.395325	875.508972	3353.653076	931.533203	2.260733
738.715271	873.279846	3379.584961	924.771667	2.054491
739.035278	865.552307	3373.269531	925.068848	2.373335
739.355164	866.444031	3371.560547	930.418701	2.553760
739.675049	867.261414	3347.337646	936.437256	2.789263
739.994873	863.323303	3343.547852	938.889221	3.046737
740.314636	857.973572	3314.272705	934.876892	3.130862
740.634277	853.589661	3282.619873	926.703613	3.010006
740.953979	856.784668	3243.388428	919.570496	2.630760
741.273499	862.431641	3206.756836	915.781067	2.275684
741.593140	864.660828	3185.654541	910.059753	1.956012
741.912598	860.722656	3161.506104	907.310547	2.024871
742.232117	859.979675	3133.048828	907.756348	2.101857
742.551453	857.527649	3096.937500	907.459045	2.229668
742.870850	854.406982	3054.733643	914.443604	2.728532
743.190063	855.150085	3022.188721	911.471436	2.599001
743.509338	856.487366	2987.861328	915.186523	2.754052
743.828552	865.626709	2969.434326	911.917236	2.200321
744.147705	864.437805	2956.876953	914.963684	2.414688
744.466797	871.199402	2938.672607	920.907898	2.404312
744.785828	873.948547	2936.815186	923.508484	2.402479
745.104858	877.440735	2918.387939	923.805664	2.271736
745.423706	869.639099	2923.514893	918.232971	2.365960
745.742615	871.348083	2901.149658	916.821289	2.240278
746.061401	869.341858	2905.905029	921.279480	2.550258
746.380249	869.193298	2894.536865	929.750000	2.989947
746.698975	861.837219	2905.385010	918.158752	2.756066
747.017639	862.357361	2895.577148	916.449768	2.660431
747.336304	860.425537	2880.641846	908.573730	2.383319
747.654907	855.818665	2873.063232	921.279480	3.245061
747.973389	849.354431	2874.994873	929.452698	3.954220
748.291931	843.707336	2886.437500	933.316406	4.386731
748.610352	846.828125	2882.499756	936.214294	4.390992
748.928711	859.162292	2884.431641	927.818115	3.389960
749.247070	870.159180	2885.843506	925.291809	2.735182
749.565308	872.685547	2872.914795	916.078308	2.169389
749.883545	869.044678	2862.215088	915.112305	2.311274
750.201782	865.403809	2855.899414	910.059753	2.243459
750.519836	859.533875	2860.802979	908.796570	2.461573
750.837952	850.617493	2854.264404	909.836731	2.955572
751.155884	849.725891	2842.301758	908.573669	2.953352
751.473877	853.515320	2814.364014	911.248535	2.944297
751.791809	854.184021	2807.973877	904.932800	2.597453
752.109619	862.580261	2797.125977	906.567444	2.273773
752.427490	865.775208	2805.225342	902.852356	1.911735
752.745300	865.329529	2818.079346	909.390930	2.256377
753.062988	856.413269	2831.305420	906.121582	2.517014
753.380615	857.081970	2835.614990	910.951355	2.722693
753.698303	860.276855	2819.862549	904.932861	2.278849
754.015808	859.682434	2813.843750	908.573730	2.501907
754.333374	857.602051	2804.407471	906.344543	2.503717
754.650757	854.927185	2794.599609	907.756348	2.723613
754.968262	856.933350	2787.615234	909.613953	2.728601
755.285583	857.899231	2789.621094	907.236267	2.554044
755.602905	863.397644	2793.930908	907.013367	2.259258
755.920105	860.276855	2782.042236	908.425049	2.505415
756.237305	861.465759	2779.218994	908.945129	2.475781
756.554443	859.831055	2775.875000	908.350769	2.532286
756.871582	866.666992	2783.751221	907.979309	2.154956
757.188599	864.437927	2797.125732	909.836853	2.349005
757.505615	863.917786	2818.748047	912.288818	2.474436
757.822510	865.775330	2842.599365	911.471497	2.311595
758.139465	867.484192	2878.635986	914.740784	2.349728
758.456238	857.899170	2896.542969	921.279480	3.108945
758.773010	853.069519	2920.245361	927.372314	3.594411
759.089783	847.868347	2918.908203	927.520813	3.846013
759.406433	854.035461	2933.620117	930.344421	3.669433
759.723145	852.103699	2934.957275	926.183411	3.556645
760.039673	853.218201	2942.461914	927.446594	3.552884
760.356201	854.852844	2958.437256	922.171082	3.200168
760.672668	856.784668	2968.319336	919.867676	2.987543
760.989136	865.923889	2968.319336	914.740723	2.321962
761.305481	873.279968	2964.901611	912.734680	1.886322
761.621826	872.016785	2954.350342	922.765442	2.437105
761.938049	865.106628	2970.325439	926.332031	2.908268
762.254333	854.852844	2997.966064	920.462097	3.061399
762.570496	855.224304	3102.658936	911.248535	2.492808
762.886597	854.852783	3252.824463	917.712891	2.621387
763.202637	854.852844	3466.519287	927.446594	2.779595
763.518677	858.939453	3713.278564	938.220459	2.777561
763.834656	863.397644	3929.425049	946.319519	2.704538
764.150574	866.518311	4060.049072	950.183167	2.619823
764.466370	857.750671	4075.281250	942.529968	2.634918
764.782288	853.961182	3969.028320	932.796326	2.530769
765.097961	858.642273	3809.351807	924.920227	2.246170
765.413696	863.100403	3602.196045	929.229797	2.414278
765.729309	867.632813	3428.178955	924.920227	2.237312
766.044861	865.552429	3272.960693	925.068848	2.472220
766.360474	871.199402	3163.884521	914.072021	1.869974
766.675903	867.558594	3080.219482	905.007141	1.692467
766.991394	864.512207	3021.891602	901.143372	1.697947
767.306763	859.088074	2969.731201	905.155762	2.182637
767.622131	855.670105	2921.508789	909.539551	2.607631
767.937378	855.447266	2868.605225	913.551941	2.886245
768.252625	863.620544	2809.757080	912.734619	2.523671
768.567810	863.323303	2751.727295	911.248596	2.537873
768.882996	865.106628	2710.489014	903.223877	2.065547
769.197998	856.116028	2681.733887	902.109375	2.519331
769.513062	851.286316	2685.003174	905.007141	2.929614
769.828064	852.920898	2667.541992	915.632507	3.455907
770.142944	861.168518	2663.752686	913.997803	2.930753
770.457825	865.552429	2624.594971	908.722351	2.454172
770.772705	861.911621	2595.988525	900.326172	2.215274
771.087402	851.286316	2564.409912	895.496399	2.580671
771.402100	853.069519	2550.143799	904.338440	3.021018
771.716736	861.317139	2524.955078	908.499451	2.836092
772.031372	862.877502	2495.382568	911.397217	2.972102
772.345947	868.524475	2466.850342	907.979248	2.468506
772.660461	865.032227	2452.955811	901.812073	2.316223
772.974854	869.267517	2453.624512	906.047363	2.321437
773.289246	865.478027	2454.961914	902.257996	2.313957
773.603638	868.821716	2441.810303	901.440613	2.073689
773.917908	859.310852	2422.491455	893.564453	2.191276
774.232178	862.506042	2401.463867	890.369446	1.810537
774.546265	856.338867	2395.891113	893.193054	2.393825
774.860474	858.865173	2390.764404	901.589172	2.788956
775.174561	860.054016	2387.718018	903.223877	2.825874
775.488586	861.242859	2383.928467	899.360107	2.503291
775.802551	865.998230	2371.148682	898.319885	2.147404
776.116516	864.289246	2343.210693	902.629456	2.592444
776.430359	866.518311	2335.557617	905.230164	2.635182
776.744202	873.354187	2327.904297	905.007141	2.176134
777.057922	874.765930	2338.232422	904.635742	2.041031
777.371704	877.292175	2332.436768	905.973145	1.971005
777.685303	869.267578	2325.006592	903.000977	2.317270
777.998962	868.450195	2319.210938	903.892578	2.443021
778.312500	861.762939	2308.214111	905.973083	3.056456
778.626038	861.168640	2297.811768	903.298157	2.932497
778.939453	858.419434	2286.146240	900.549011	2.950815
779.252869	855.298645	2285.031494	902.406555	3.294875
779.566223	853.441101	2284.139893	898.840027	3.173200
779.879578	848.982910	2290.901367	897.131042	3.339172
780.192749	848.908630	2284.363037	888.511963	2.758941
780.505920	849.280090	2281.019043	891.781250	2.968499
780.819031	851.360535	2267.718994	897.502625	3.257797
781.132141	864.363525	2269.353516	906.344543	2.987994
781.445190	866.815613	2273.737549	909.019470	2.999730
781.758118	863.174744	2281.836670	909.093750	3.236783
782.071045	864.215027	2273.663330	903.298157	2.772938
782.383911	871.050842	2261.626465	904.189758	2.383108
782.696838	880.115723	2240.004150	897.651184	1.289478
783.009583	871.645203	2216.747314	892.375671	1.541182
783.322266	863.917725	2198.246094	889.329285	1.904446
783.634888	861.540100	2185.168701	890.741028	2.206127
783.947510	856.710388	2178.110107	891.707031	2.648453
784.260132	851.880676	2167.187256	893.490234	3.163487
784.572571	847.422546	2153.738525	891.261169	3.355897
784.885010	854.035461	2143.707764	894.456116	3.134180
785.197449	863.546204	2141.404297	891.038269	2.151418
785.509766	866.295410	2151.955566	888.586243	1.733804
785.822083	866.592590	2155.224854	888.734863	1.718277
786.134277	861.540039	2158.865479	892.301453	2.371141
786.446533	856.413269	2146.977051	898.542908	3.264437
786.758606	854.927063	2150.617920	899.657410	3.452239
787.070740	855.967285	2144.376709	901.514954	3.535186
787.382690	861.391418	2160.723145	901.663574	3.099451
787.694641	865.032227	2184.871338	897.056824	2.426402
788.006653	869.936218	2237.180664	899.508789	2.162932
788.318481	877.738098	2289.712646	901.217712	1.662892
788.630310	862.431641	2332.510986	905.824463	2.951733
788.942017	856.636047	2345.959717	897.576843	2.748952
789.253784	848.239929	2347.222900	893.490234	3.018734
789.565430	853.218079	2327.606934	893.787415	2.751603
789.877014	852.177917	2303.012695	901.589172	3.405712
790.188538	856.264465	2249.812256	905.675842	3.545725
790.500061	863.397644	2213.552490	896.610901	2.459959
790.811462	860.722656	2175.732178	889.403625	2.181046
791.122925	852.326477	2160.351563	886.580078	2.618726
791.434204	847.422546	2135.014160	891.706848	3.439313
791.745483	848.016907	2117.032959	885.614075	2.962702
792.056702	848.834290	2094.296631	878.703918	2.398276
792.367920	849.354431	2080.104736	883.459290	2.771062
792.678955	848.982910	2059.745605	889.849365	3.375265
792.990112	848.165527	2041.690063	892.821533	3.741524
793.301086	850.617493	2021.925415	892.227051	3.552402
793.612122	850.171631	2030.470337	891.038269	3.462398
793.922974	857.081848	2033.219727	889.477844	2.754438
794.233826	855.818787	2042.358887	883.905273	2.367091
794.544556	863.769226	2043.622070	890.592468	2.273440
794.855286	856.710388	2052.018311	891.335449	2.896748
795.166016	855.372864	2052.984131	897.651184	3.530221
795.476624	851.731995	2060.785889	892.747131	3.392333
795.787292	852.177917	2080.178955	892.970032	3.321831
796.097778	852.400818	2120.451172	890.369446	2.994252
796.408264	853.589661	2148.686035	888.809143	2.719449
796.718689	855.818665	2161.614502	893.415833	2.879253
797.029053	854.481262	2163.175049	895.422058	3.128371
797.339355	855.001465	2150.618164	896.759521	3.223026
797.649658	856.190247	2144.005127	892.227051	2.798290
797.959839	863.174744	2121.937256	888.066101	1.977447
798.270020	864.883728	2105.590576	894.604797	2.395495
798.580078	863.843445	2079.733154	899.434387	2.927152
798.890137	858.642273	2055.213379	897.948425	3.284899
799.200195	856.264587	2039.386841	884.202393	2.361362
799.510071	854.704285	2023.040161	874.320129	1.678956
799.820007	851.360596	2012.786499	861.540039	0.876461
800.129883	850.246094	1996.885742	864.512146	1.244162
800.439575	856.933289	1993.096313	867.112732	0.895949
800.749329	863.620605	1985.740234	875.063171	1.019728
801.058960	871.496582	1971.250977	869.787659	-0.155391
801.368591	865.700989	1967.090210	876.846497	1.011950
801.678162	867.484192	1956.242065	883.682312	1.487761
801.987671	867.781494	1958.173828	896.759583	2.657584
802.297119	872.834167	1956.093384	895.124939	2.057750
802.606506	863.917786	1958.248169	893.787415	2.729489
802.915894	856.561829	1950.446411	887.991882	2.873251
803.225159	852.029297	1930.087524	889.923645	3.515056
803.534424	853.738220	1918.570679	892.524231	3.642452
803.843628	857.156189	1916.118530	893.118652	3.396009
804.152771	861.614319	1924.068970	891.186829	2.783414
804.461792	864.586426	1932.836548	892.821472	2.643112
804.770874	861.019958	1937.814941	892.895813	2.960253
805.079773	860.499817	1948.143066	888.734863	2.595984
805.388733	859.385254	1955.870605	881.081726	1.978729
805.697571	864.363586	1971.994263	885.465576	1.905147
806.006470	865.032227	1978.607056	886.505798	1.928346
806.315125	864.289246	1989.009399	892.227112	2.483984
806.623901	872.091003	1989.083862	894.456116	2.002261
806.932495	875.731750	1970.136597	895.050598	1.765238
807.241150	877.515137	1950.446411	890.889648	1.246539
807.549622	868.970398	1948.886108	886.208679	1.596262
807.858154	861.094238	1942.867554	885.019714	2.211690
808.166565	858.790833	1939.895508	885.094055	2.432995
808.474915	850.394714	1917.233276	882.344788	2.994837
808.783264	848.016907	1907.648071	880.190002	3.036254
809.091492	846.307922	1887.586426	882.641907	3.489362
809.399719	845.936523	1866.855957	883.905090	3.719056
809.707825	847.645325	1850.435059	887.100098	3.934501
810.015930	854.555603	1843.301880	884.128113	2.990910
810.323975	863.471863	1835.128540	886.728699	2.393524
810.632080	865.329407	1836.466187	884.648193	1.989296
810.939880	868.450195	1833.568237	881.453186	1.347295
811.247864	861.317139	1829.481445	871.570984	1.059102
811.555664	858.196472	1818.930542	870.010559	1.229694
811.863464	852.698059	1811.946167	867.781494	1.572423
812.171143	852.475098	1810.980103	867.484314	1.565899
812.478882	859.088074	1803.475708	871.348083	1.298197
812.786438	865.329590	1785.345825	879.001160	1.486014
813.094055	874.468750	1769.742188	876.623474	0.240678
813.401489	872.091064	1765.581177	871.199402	-0.099795
813.708984	861.391418	1779.698853	870.604980	1.003320
814.016357	852.326477	1788.986694	879.595703	2.911325
814.323730	849.280090	1791.513062	889.849426	4.305659
814.630981	852.549377	1772.342773	887.471680	3.796755
814.938232	858.865173	1755.476074	888.511902	3.306532
815.245361	856.933289	1742.993164	885.614075	3.236890
815.552490	862.951843	1750.497681	888.734863	2.904979
815.859619	857.824890	1766.026978	889.552185	3.493418
816.166565	863.174622	1785.494263	893.638855	3.303002
816.473572	860.276917	1798.497437	902.109375	4.458702
816.780457	865.998230	1806.893555	901.366394	3.758990
817.087341	866.592712	1808.156738	899.062927	3.448540
817.394043	867.484314	1814.769897	890.518066	2.431553
817.700806	863.397644	1823.166016	900.474670	3.863122
818.007507	863.323242	1833.642578	900.028992	3.782852
818.314209	862.357361	1836.168823	896.610901	3.517472
818.620667	866.295410	1844.416382	893.713074	2.803095
818.927246	863.620544	1868.936157	892.747131	2.897258
819.233704	859.162415	1909.654175	891.186768	3.048511
819.540161	857.304871	1949.480469	882.270508	2.285863
819.846497	866.072571	2009.071289	879.446960	1.170114
820.152832	870.010559	2075.052002	884.053711	1.165367
820.458984	865.775391	2181.379395	891.929871	1.988021
820.765259	854.927063	2282.208008	897.131042	2.956949
821.071350	860.202576	2411.717529	901.069092	2.633975
821.377502	865.998230	2606.465088	904.858459	2.232748
821.683472	870.382080	2999.377930	912.957520	1.999790
821.989441	866.815613	3786.243408	940.523865	2.524750
822.295349	862.580322	4969.811523	976.337708	2.769685
822.601196	863.992004	6462.998535	1013.340515	2.667411
822.907043	859.682434	7811.296387	1045.513672	2.673210
823.212769	859.831055	8566.137695	1062.900513	2.635108
823.518494	855.967285	8475.339844	1074.714478	2.870934
823.824097	854.035461	7689.662598	1054.281372	2.929445
824.129700	850.617615	6587.382324	1027.829590	3.089058
824.435242	848.016907	5502.710938	987.483215	2.996251
824.740723	850.320313	4587.747559	965.786804	3.089465
825.046082	854.184082	3935.072021	941.266846	2.826548
825.351501	858.716553	3481.379639	935.025391	2.909594
825.656799	859.979736	3193.382568	926.257751	2.840402
825.962036	860.053955	3010.746338	931.533386	3.323554
826.267212	859.756775	2931.762451	932.945007	3.532241
826.572449	862.283020	2958.808594	937.477478	3.586622
826.877502	867.558533	3127.550049	942.752930	3.327198
827.182495	869.787598	3428.402100	951.149109	3.179905
827.487488	864.660828	3785.352295	953.972656	3.057900
827.792419	857.379150	4044.817139	951.594971	2.955848
828.097290	854.629944	4083.157227	946.245178	2.837679
828.402100	862.283142	3899.183838	942.901550	2.654628
828.706848	867.112793	3574.183838	938.591980	2.640462
829.011597	866.592712	3198.955078	928.263916	2.644152
829.316223	863.843445	2841.633057	911.842957	2.426927
829.620789	866.369690	2563.146484	902.406494	2.123839
829.925354	869.490417	2350.195068	895.124817	1.731230
830.229797	873.354187	2196.536865	893.787415	1.544248
830.534302	874.022949	2059.448486	888.883484	1.253603
830.838562	871.645264	1968.056030	884.871094	1.206284
831.142944	868.078674	1904.601563	887.694580	1.892472
831.447144	860.128235	1862.694824	888.809143	2.860749
831.751404	854.481262	1832.750977	891.781250	3.812853
832.055542	853.886902	1818.782104	893.936035	4.150620
832.359619	852.697998	1818.410522	892.078552	4.077876
832.663635	860.202637	1858.756836	892.152771	3.199640
832.967651	862.208740	1923.623047	887.768860	2.408119
833.271545	863.174622	2060.860107	888.957825	2.152752
833.575439	860.053955	2234.505615	891.484070	2.286738
833.879211	859.831055	2483.419922	894.753357	2.150933
834.183044	859.385254	2719.999756	904.189758	2.408049
834.486694	860.128235	2898.549072	911.099915	2.500547
834.790344	852.029297	2953.681641	924.177246	3.432915
835.093933	856.264648	2899.143555	924.251465	3.327991
835.397522	857.527649	2717.696289	920.387878	3.379276
835.700928	863.843445	2489.289795	909.465332	2.806730
836.004395	867.781494	2263.112305	894.604736	1.922357
836.307739	866.666931	2107.373779	882.419128	1.269615
836.611023	868.598816	1980.762085	877.960938	0.841794
836.914307	869.787659	1881.344849	880.561523	1.065077
837.217529	868.153015	1800.726440	889.552185	2.294636
837.520691	868.375793	1737.271851	889.180664	2.394403
837.823730	865.552429	1680.058716	882.047607	2.025175
838.126831	870.382080	1623.960083	879.892883	1.262086
838.429749	868.673096	1593.421875	881.378906	1.753133
838.732727	865.032227	1562.957642	886.134277	3.023540
839.035522	863.471924	1550.623413	879.224060	2.292382
839.338379	854.852783	1544.827759	870.604980	2.283010
839.641113	855.595886	1569.942261	870.233398	2.049078
839.943848	855.447266	1604.121460	876.772156	2.848354
840.246460	861.911560	1657.842285	880.338623	2.315159
840.549072	860.202637	1711.265991	880.487244	2.383443
840.851563	859.013672	1756.442017	879.224121	2.252040
841.154053	860.351135	1759.339966	879.892883	2.173748
841.456482	863.249023	1710.523071	879.149841	1.876703
841.758850	868.821716	1640.307007	876.252014	0.963116
842.061157	865.700989	1569.050659	870.010559	0.612721
842.363403	863.249023	1516.221313	867.484314	0.648617
842.665588	856.338867	1475.057617	866.146790	1.585199
842.967712	859.013733	1440.655640	866.666992	1.315803
843.269775	860.574158	1419.033325	870.084900	1.703033
843.571777	860.351257	1404.618652	869.936279	1.761087
843.873840	859.756836	1391.169922	871.273682	2.167212
844.175659	853.961121	1375.789429	872.462585	3.545508
844.477600	856.710266	1366.278442	868.301575	2.274732
844.779297	858.790833	1367.690308	881.527527	4.467816
845.081116	861.317139	1354.390015	878.778320	3.541298
845.382751	860.202637	1343.616089	880.190125	4.134657
845.684387	861.465759	1317.535767	866.815491	1.173007
845.985962	862.728821	1302.378052	864.660828	0.439443
846.287537	852.549500	1276.595093	863.620544	2.610815
846.588989	847.422546	1263.666382	867.855774	4.908956
846.890381	851.509216	1263.517700	867.112732	3.787183
847.191711	866.369812	1271.468140	876.251953	2.439443
847.493042	868.450195	1271.319580	874.171448	1.420126
847.794250	867.781433	1275.331909	875.211731	1.823160
848.095459	864.363586	1272.434082	868.078674	0.910403
848.396606	867.335632	1264.186523	869.638977	0.580406
848.697693	869.341797	1256.087524	868.598816	-0.192111
848.998657	866.146790	1247.914185	863.620544	-0.661724
849.299622	853.738281	1254.527100	864.066345	2.576934
849.600464	847.199646	1242.564453	864.958008	4.491640
849.901367	845.564941	1240.186646	865.552429	5.064974
850.202087	853.218079	1234.093872	864.363586	2.926284
850.502808	854.555664	1230.527344	862.580322	2.134378
850.803467	852.920959	1225.177490	861.019958	2.175650
851.104065	851.955017	1221.833862	855.744446	1.024505
851.404663	855.595886	1232.533447	854.109680	-0.394284
851.705139	858.790833	1235.728516	864.214844	1.438968
852.005615	860.648438	1227.183716	864.214905	0.973022
852.306030	859.682434	1221.685303	868.895996	2.545163
852.606384	861.094238	1215.592651	863.471924	0.670718
852.906616	862.060242	1218.267456	865.923889	1.084663
853.206909	855.893066	1207.047729	866.964172	3.152772
853.506958	854.258362	1210.614258	866.592590	3.461211
853.807129	856.413269	1211.134277	862.506042	1.717624
854.107178	860.722717	1218.416016	855.818787	-1.370988
854.407166	861.911621	1209.425415	856.636047	-1.518090
854.707092	862.951843	1212.100220	863.397644	0.127682
855.007019	860.648438	1197.908569	866.889832	1.850617
855.306763	853.812561	1204.447144	871.793884	5.128223
855.606567	849.948792	1200.137573	865.626709	4.476990
855.906250	856.264465	1200.137573	864.289246	2.333646
856.205933	865.849609	1195.828003	860.871277	-1.508684
856.505493	870.679260	1190.255249	862.283020	-2.627306
856.805054	874.468750	1199.914673	863.471863	-3.379021
857.104492	873.354187	1197.611206	862.877502	-3.230982
857.403931	867.187073	1197.016846	863.546204	-1.103863
857.703308	859.162415	1191.072632	862.134460	0.895437
858.002563	858.345032	1189.586548	869.193176	3.274995
858.301819	858.047852	1190.403931	868.450195	3.129879
858.601013	857.676270	1186.094360	869.564758	3.619925
858.900208	857.156189	1181.413330	854.258484	-0.893644
859.199219	856.264465	1183.642334	859.236755	0.907908
859.498291	853.143799	1183.716675	860.722656	2.292644
859.797302	859.013855	1181.859009	874.320068	4.741039
860.096191	864.215027	1177.029419	874.988770	3.444133
860.395020	867.632874	1169.376343	877.069336	3.127313
860.693787	868.895996	1162.020386	867.558533	-0.456278
860.992554	865.106506	1162.391724	865.775330	0.224977
861.291260	874.394348	1168.038696	863.026062	-3.871447
861.589844	869.564758	1179.630005	865.032227	-1.461799
861.888428	875.806152	1176.583618	863.917786	-3.952546
862.186890	871.273682	1173.240112	859.385254	-3.937003
862.485413	864.809326	1172.942749	863.546204	-0.409927
862.783813	860.351135	1172.719849	862.283020	0.618463
863.082153	856.115967	1177.029419	866.592590	3.264626
863.380371	862.283020	1181.338989	863.397644	0.349351
863.678589	858.493652	1181.784790	863.397644	1.516896
863.976746	855.447266	1186.763062	863.917725	2.556612
864.274902	856.338867	1180.521606	857.973572	0.504254
864.572937	865.626648	1177.029419	858.865234	-2.171276
864.870911	864.512146	1173.537109	863.026123	-0.480875
865.168884	868.673096	1166.552612	867.558594	-0.374145
865.466736	860.722656	1164.546509	863.694824	0.978254
865.764587	872.982605	1160.608398	859.385254	-4.727445
866.062317	868.747375	1163.803467	866.592590	-0.730297
866.360107	879.372742	1165.512451	871.199402	-2.856416
866.657715	875.360352	1159.419678	874.171570	-0.418498
866.955322	874.468750	1158.082153	866.221191	-2.908029
867.252808	865.329407	1151.915161	863.323303	-0.700001
867.550293	863.917725	1158.007935	868.004395	1.389597
867.847717	859.311035	1151.246338	868.598816	3.181452
868.145081	854.629944	1155.333008	871.868164	5.732639
868.442383	847.348328	1149.834595	865.403809	5.969025
868.739624	844.450439	1151.915039	863.769104	6.283216
869.036804	851.880676	1152.658081	860.499817	2.865621
869.333984	855.149963	1156.967651	862.877441	2.560313
869.631042	860.945618	1164.174927	868.747375	2.572891
869.928101	859.979675	1164.620850	867.558594	2.487818
870.224976	864.066345	1159.271118	861.391418	-0.906126
870.521851	866.444031	1167.890259	861.837219	-1.528237
870.818726	859.608215	1162.391724	865.329529	1.889572
871.115479	860.945618	1159.270996	874.320129	4.483196
871.412231	854.332703	1153.772583	875.286072	6.997521
871.708862	858.345032	1153.995483	876.994934	6.308092
872.005493	857.602051	1166.404175	866.815491	2.983606
872.302063	868.895996	1162.688843	858.493652	-3.540707
872.598572	865.329407	1170.564941	853.961182	-3.724411
872.895020	863.249023	1166.329834	857.453430	-1.912227
873.191406	850.246033	1166.998657	860.202637	3.143337
873.487671	848.908691	1169.970703	857.304749	2.615089
873.783997	848.462830	1173.685913	859.608154	3.426978
874.080200	862.654602	1171.307983	859.831055	-0.914796
874.376343	867.335632	1158.453735	861.242859	-2.092887
874.672424	865.255127	1159.196655	857.081848	-2.780580
874.968445	858.419250	1154.292725	856.933289	-0.502229
875.264465	859.385254	1166.627075	864.066406	1.523605
875.560364	858.345032	1162.614624	865.032288	2.197806
875.856201	860.276855	1163.729248	863.471924	1.052906
876.152039	865.923889	1160.088379	867.781433	0.631464
876.447754	869.936218	1160.162720	865.924011	-1.382440
876.743469	871.942383	1159.865601	862.431702	-3.303200
877.039063	870.233398	1164.175171	853.292480	-5.763359
877.334595	870.307800	1160.608521	855.298645	-5.170209
877.630127	866.964172	1173.314331	863.174744	-1.236960
877.925537	862.283020	1168.484619	868.078674	1.892758
878.221008	855.447205	1170.193481	863.471924	2.549583
878.516296	852.400818	1166.404175	862.951843	3.360163
878.811646	855.521484	1180.447266	866.964172	3.521631
879.106812	861.094238	1198.205688	872.313965	3.328195
879.401978	862.951721	1218.267334	869.936218	1.965716
879.697083	854.184082	1249.920410	860.648438	1.633501
879.992126	860.574036	1293.313110	866.369690	1.339295
880.287109	862.654602	1350.452026	872.759766	2.071590
880.582031	871.868164	1428.024048	875.657532	0.681350
880.876892	862.580322	1588.443726	879.372742	2.313441
881.171753	854.555664	1869.902344	875.880432	2.100245
881.466492	856.933289	2324.486084	888.660583	2.161919
881.761230	862.357422	2904.641846	900.994812	1.891871
882.055786	867.335632	3481.973877	923.954346	2.165451
882.350403	866.444031	3834.912109	934.059570	2.277792
882.644958	860.945618	3864.038330	930.418762	2.313386
882.939453	859.905334	3605.613525	927.520813	2.462588
883.233826	856.190247	3198.880615	921.799622	2.800599
883.528137	856.710388	2781.522217	912.808899	2.914493
883.822449	855.447205	2416.398926	902.629578	3.022667
884.116577	857.750488	2144.302246	895.645020	2.945434
884.410828	861.168457	1926.000977	886.877258	2.414352
884.704956	865.106628	1757.110718	877.217834	1.357752
884.999023	864.289246	1621.136841	869.862000	0.736311
885.292969	865.329529	1520.828125	872.685486	1.122193
885.586914	865.626709	1450.686401	877.217957	1.981208
885.880798	876.623535	1400.903442	884.276672	1.459743
886.174622	874.022949	1370.439453	876.994934	0.598688
886.468384	871.942383	1345.325073	878.258057	1.334158
886.762085	860.053955	1317.387207	873.874268	3.021935
887.055664	860.053955	1283.059448	876.994934	4.004908
887.349304	858.939453	1253.189575	869.638977	2.713892
887.642822	849.725891	1237.511841	864.957947	3.927954
887.936340	845.862244	1228.744141	864.660706	4.909729
888.229736	845.119141	1212.100464	863.546204	5.021254
888.523071	851.657715	1188.620728	861.094238	2.800463
888.816284	854.704163	1166.181274	859.013855	1.383631
889.109619	859.088074	1147.679810	859.905457	0.283232
889.402710	860.351135	1147.605591	859.831116	-0.181031
889.695862	861.391418	1140.472534	860.425537	-0.346093
889.988892	861.985840	1136.459961	856.041687	-2.165652
890.281921	867.781555	1116.992798	850.617554	-6.887331
>>>>>End Processed Spectral Data<<<<<
