Jaz Data File
++++++++++++++++++++++++++++++++++++
Date: Fri Jun 04 14:40:40 2021
User: jaz
Dark Spectrum Present: Yes
Reference Spectrum Present: Yes
Processed Spectrum Present: Yes
Spectrometers: JAZA3586
Integration Time (usec): 48700 (JAZA3586)
Spectra Averaged: 10 (JAZA3586)
Boxcar Smoothing: 1 (JAZA3586)
Correct for Electrical Dark: No (JAZA3586)
Strobe/Lamp Enabled: Yes (JAZA3586)
Correct for Detector Non-linearity: No (JAZA3586)
Correct for Stray Light: No (JAZA3586)
Number of Pixels in Processed Spectrum: 2048
>>>>>Begin Processed Spectral Data<<<<<
W	D	R	S	P
191.335022	0.000000	0.000000	0.000000	0.000000
191.713211	285.396759	276.108887	260.208130	271.199127
192.091385	568.861633	553.852478	537.283020	210.395676
192.469528	852.549500	835.682617	810.122559	251.539917
192.847641	856.413147	848.388489	820.896484	442.594086
193.225739	861.539978	859.905334	826.617737	2136.382568
193.603790	859.831055	868.004395	837.168762	-277.270905
193.981842	860.648376	872.091003	849.428711	-98.051483
194.359863	872.536865	876.772156	855.967346	-391.225098
194.737854	888.140442	882.121887	857.156250	514.811157
195.115829	894.010254	882.196228	855.447205	326.417511
195.493774	891.632629	883.236511	852.400696	467.262756
195.871704	889.626465	885.911316	853.589661	969.996216
196.249603	890.666687	886.431458	857.230469	789.478333
196.627457	879.967102	886.802979	854.629883	-370.650635
197.005310	885.539856	885.094055	852.623718	7383.598145
197.383133	886.505676	886.357178	849.651611	24817.796875
197.760910	889.032043	888.437683	855.521484	5638.087891
198.138687	880.858704	887.248779	864.512146	-255.811646
198.516449	869.638977	883.013611	867.335632	-17.221741
198.894180	870.604980	874.394470	866.295410	-113.724289
199.271866	872.239563	868.598877	857.007629	418.380859
199.649536	870.010559	866.518372	852.995300	487.237823
200.027191	879.818542	869.936279	853.366760	267.669281
200.404816	881.601746	872.462585	854.184082	300.002014
200.782410	893.267334	885.242615	856.190247	462.035950
201.159988	885.465637	894.530457	857.676270	-306.562836
201.537537	888.437683	898.319885	857.081848	-317.296021
201.915070	885.911377	897.948425	856.710388	-242.592606
202.292557	885.539795	901.663574	846.679443	-241.012680
202.670029	878.406738	907.533386	848.239807	-103.571587
203.047485	867.335632	917.044128	846.530945	-41.853382
203.424911	861.317139	918.381653	844.747620	-29.036467
203.802292	861.688660	923.657166	838.506287	-37.409927
204.179688	871.868164	911.545715	838.283386	-84.644279
204.557037	874.617371	907.459167	838.506165	-109.955025
204.934357	872.388184	900.251709	847.199646	-90.399681
205.311661	866.295410	897.948425	855.595886	-33.802544
205.688934	860.945618	905.527161	861.242859	0.666736
206.066177	855.744446	908.202148	854.629883	-2.124689
206.443390	858.344971	914.815125	849.577332	-15.526147
206.820587	861.168457	906.864746	844.821960	-35.772045
207.197769	866.889832	910.356934	839.695007	-62.564152
207.574921	863.397644	914.666504	838.283264	-48.985641
207.952042	866.146790	911.471436	832.041931	-75.245728
208.329147	865.923889	909.242371	833.082092	-75.814743
208.706223	884.425293	920.833679	844.599060	-109.387527
209.083267	882.939270	932.945007	849.502991	-66.864883
209.460297	879.892883	929.155579	846.828125	-67.119263
209.837280	856.710388	910.654114	831.521790	-46.694214
210.214264	854.704285	898.914368	825.651855	-65.714485
210.591217	851.955078	900.177490	824.611572	-56.702900
210.968124	856.487488	907.533508	832.116211	-47.743736
211.345016	857.230469	912.140320	850.468933	-12.313885
211.721893	859.385254	912.883240	855.298645	-7.638809
212.098724	857.973450	907.533447	844.004639	-28.185658
212.475555	858.939453	910.951355	826.543457	-62.285736
212.852356	854.258362	917.192810	826.840637	-43.565529
213.229126	857.676270	925.366150	836.500000	-31.284246
213.605865	854.332703	926.777832	841.255432	-18.051277
213.982590	853.069519	917.564270	837.911804	-23.502245
214.359283	853.292480	909.390930	834.716797	-33.112652
214.735931	855.224304	903.149597	828.252441	-56.278973
215.112579	867.112793	900.920471	834.122375	-97.582619
215.489197	868.673096	903.818298	838.803467	-84.989204
215.865799	873.651428	898.988586	842.147034	-124.340675
216.242355	866.072510	905.527283	836.797302	-74.199409
216.618896	859.608154	902.109375	826.692078	-77.447365
216.995407	854.704163	903.669739	830.110046	-50.227360
217.371902	855.670166	900.623352	826.914978	-63.966965
217.748367	856.487488	909.168152	833.825134	-43.018353
218.124802	854.184082	913.403381	838.654785	-26.223372
218.501236	850.766113	919.496277	844.821960	-8.648536
218.877609	851.806396	911.917297	838.877747	-21.507996
219.253983	854.629883	916.969910	837.317383	-27.771082
219.630295	855.893066	918.084473	834.122375	-35.005947
220.006592	861.317200	922.542664	832.041809	-47.815712
220.382889	863.026123	921.948181	831.224609	-53.972172
220.759140	865.478088	920.313477	832.636230	-59.891720
221.135391	861.391418	917.861511	825.577576	-63.420902
221.511581	855.744385	909.391052	824.908752	-57.479118
221.887772	853.218201	905.601563	828.103821	-47.943428
222.263931	848.239929	907.087646	838.357605	-16.793045
222.640060	851.360596	910.877136	838.208984	-22.097406
223.016159	853.069519	914.369385	834.196594	-30.787872
223.392212	861.317139	915.112305	828.698242	-60.635368
223.768265	863.471985	921.799561	825.949036	-64.331406
224.144302	863.694824	931.607605	830.853027	-48.358788
224.520294	852.475098	937.551758	837.168762	-17.991228
224.896286	850.617493	936.288574	839.620667	-12.836101
225.272217	851.657715	923.359863	844.376160	-10.155282
225.648148	861.762939	915.855286	842.369934	-35.851662
226.024048	861.317078	916.152527	840.363770	-38.211246
226.399902	863.249023	924.400146	832.264832	-50.668232
226.775772	867.930115	928.783997	832.041809	-58.974556
227.151581	864.437805	929.452698	828.103821	-55.885632
227.527374	856.264465	936.882996	833.676514	-28.018312
227.903137	852.400818	950.406067	832.190491	-20.621677
228.278870	856.487488	964.077820	837.466003	-17.679548
228.654572	859.236633	970.393555	838.357666	-18.783327
229.030273	850.097412	975.966248	846.159424	-3.128644
229.405930	849.577332	980.572998	846.085144	-2.665880
229.781555	850.617615	984.436768	840.883850	-7.273820
230.157181	855.075745	980.127136	833.453613	-17.290596
230.532761	863.917725	986.740051	837.540283	-21.476097
230.908325	863.694824	981.018799	837.614563	-22.229269
231.283859	870.604980	986.368652	842.667175	-24.133482
231.659332	870.902161	977.155090	834.196594	-34.545464
232.034821	873.131287	977.972412	842.964355	-28.773949
232.410263	871.942383	967.124207	844.078918	-29.273933
232.785690	864.289246	970.244934	851.880676	-11.711093
233.161087	872.908386	965.935364	847.719727	-27.076725
233.536469	869.044617	972.548340	844.524719	-23.689871
233.911804	868.970398	976.634949	843.038757	-24.085588
234.287140	857.007568	989.192139	844.970520	-9.106243
234.662430	855.967346	1003.012390	847.719727	-5.608907
235.037704	856.115906	1002.269348	845.713562	-7.117413
235.412933	861.094238	997.142578	830.258545	-22.665247
235.788162	862.506042	987.408875	825.131653	-29.922771
236.163345	858.939453	990.009460	827.360779	-24.092983
236.538513	860.425476	1001.006348	831.744629	-20.401670
236.913635	859.682434	1002.863831	834.345215	-17.695889
237.288742	863.694824	1007.693542	834.419617	-20.330187
237.663834	862.728943	1003.755432	841.924133	-14.752413
238.038879	861.985840	1017.278564	842.147034	-12.775104
238.413910	857.750671	1017.798645	843.633118	-8.820827
238.788910	860.202637	1031.098755	853.292480	-4.043483
239.163879	856.338867	1029.761353	856.710449	0.214264
239.538834	858.790833	1047.668335	857.602051	-0.629393
239.913757	850.914734	1058.145020	851.063416	0.071747
240.288651	856.636047	1068.175903	848.908630	-3.652937
240.663528	854.035461	1081.476196	848.091309	-2.613495
241.038361	858.865051	1105.698853	844.747620	-5.719408
241.413177	860.574036	1145.450806	852.623718	-2.790792
241.787979	862.208740	1179.407104	853.292480	-2.810941
242.162735	861.911621	1210.762817	859.608215	-0.660283
242.537476	865.478088	1226.069214	854.332703	-3.090865
242.912170	863.917725	1236.174316	853.961121	-2.674662
243.286865	863.546204	1226.217651	852.103577	-3.155095
243.661514	860.499756	1218.267334	857.973572	-0.706096
244.036148	862.580261	1204.224121	861.242859	-0.391461
244.410751	863.620422	1188.323242	860.128235	-1.075503
244.785339	865.329529	1190.626831	855.521545	-3.015083
245.159882	859.533875	1193.450317	855.595886	-1.179333
245.534378	858.196472	1231.196045	855.447205	-0.737070
245.908890	851.583496	1279.269897	861.465820	2.310647
246.283356	858.047852	1364.495239	856.264648	-0.352100
246.657791	859.979675	1436.643188	862.951843	0.515408
247.032196	863.397522	1490.809937	860.499817	-0.461850
247.406586	861.019836	1516.295532	868.821716	1.190626
247.780960	856.190247	1524.691772	864.735046	1.278202
248.155289	857.156250	1506.190430	864.883606	1.190593
248.529602	853.143860	1454.029907	863.917786	1.793007
248.903870	858.419373	1390.500977	867.484314	1.703675
249.278122	856.784668	1344.953491	863.100403	1.293760
249.652344	862.208801	1310.179810	855.001404	-1.608898
250.026550	856.636047	1302.749634	849.800293	-1.532290
250.400711	860.425476	1289.598145	854.332703	-1.419656
250.774857	862.654541	1293.536011	859.310974	-0.775983
251.148987	868.895996	1305.870239	861.168457	-1.768420
251.523071	866.444031	1334.402466	858.642151	-1.667216
251.897125	868.450195	1356.767700	867.187012	-0.258681
252.271164	865.552429	1366.798462	866.889832	0.266816
252.645187	859.088074	1370.736450	868.821777	1.902421
253.019165	858.122070	1373.485718	858.196472	0.014437
253.393112	855.893066	1350.749146	863.100403	1.456451
253.767044	854.704163	1323.257202	851.434875	-0.697741
254.140930	847.571228	1291.529907	851.583496	0.903748
254.514801	849.725891	1287.740356	838.877747	-2.476664
254.888657	850.766113	1286.180054	847.422546	-0.767905
255.262466	856.636047	1296.582397	847.422546	-2.094233
255.636276	861.317139	1312.780518	853.961121	-1.629372
256.010010	866.444092	1328.532715	856.264587	-2.202933
256.383759	864.512207	1350.303345	863.843445	-0.137665
256.757446	855.521484	1385.819946	868.970276	2.536080
257.131134	860.425476	1429.064331	867.558533	1.254409
257.504791	864.363525	1475.726440	866.369812	0.328166
257.878418	872.016785	1532.791016	872.834167	0.123701
258.252014	863.026123	1620.393677	878.555359	2.050423
258.625580	864.437805	1738.757935	885.762695	2.439025
258.999115	860.425476	1871.165405	886.654297	2.595012
259.372650	865.626648	1995.250977	896.313721	2.716573
259.746124	860.128235	2099.052002	895.644958	2.866740
260.119598	859.236633	2145.416748	888.883484	2.305031
260.493042	856.561768	2131.002197	891.409729	2.734374
260.866425	855.595886	2069.850830	892.672913	3.053480
261.239838	853.366699	1969.690796	895.050598	3.734032
261.613159	851.806396	1870.570923	882.196228	2.983008
261.986511	851.955017	1784.974243	876.029053	2.580229
262.359802	864.437805	1743.141968	870.010559	0.634201
262.733063	864.289246	1725.680664	873.502747	1.069607
263.106293	868.301575	1710.448608	871.570862	0.388209
263.479523	864.512146	1688.900757	876.549133	1.460111
263.852692	868.227234	1670.919556	872.462585	0.527643
264.225861	865.923828	1669.210571	867.632874	0.212757
264.598969	859.087952	1683.105103	860.499817	0.171339
264.972076	858.939453	1713.123535	864.957947	0.704590
265.345154	867.261414	1753.024048	870.010559	0.310370
265.718201	872.611145	1803.921509	878.852539	0.670173
266.091217	875.880554	1864.998169	877.366455	0.150225
266.464203	868.375916	1914.335327	879.744141	1.086871
266.837158	861.242920	1953.121216	877.292175	1.469876
267.210114	855.670166	1975.709351	883.607910	2.494354
267.583038	853.961182	1996.662720	886.059875	2.809018
267.955902	854.778503	2018.136230	888.809143	2.925209
268.328766	856.636047	2027.572632	884.276672	2.360557
268.701569	859.831055	2039.089478	886.654480	2.274601
269.074371	864.735046	2050.458008	883.756653	1.604220
269.447144	863.546204	2079.658936	888.066162	2.016257
269.819885	856.636047	2144.970947	887.471680	2.393448
270.192596	853.886902	2249.366211	894.827637	2.933812
270.565277	855.818787	2384.894287	899.880310	2.881579
270.937927	861.242859	2497.091553	902.183655	2.502725
271.310577	858.716553	2576.075195	908.870911	2.920436
271.683136	853.738281	2623.034424	903.075256	2.788509
272.055725	859.088074	2629.201660	906.567566	2.682285
272.428284	860.128357	2606.910889	900.326111	2.301245
272.800812	864.363586	2559.728760	906.493164	2.484985
273.173279	848.908630	2499.766602	903.298157	3.294622
273.545776	847.645447	2463.878418	904.115540	3.493933
273.918152	844.524719	2429.104492	905.824463	3.868517
274.290558	858.047852	2429.698975	909.985352	3.304646
274.662964	857.676270	2432.225342	912.660339	3.492052
275.035278	861.614319	2451.989990	914.666504	3.335827
275.407593	859.979675	2486.540771	910.208313	3.088027
275.779907	866.072510	2536.620605	912.957520	2.806565
276.152161	861.465759	2573.326172	913.552002	3.042669
276.524384	855.670105	2602.006836	920.982239	3.739951
276.896606	854.555481	2617.090576	928.784119	4.211470
277.268799	860.053955	2636.557617	926.777893	3.755913
277.640930	862.728943	2650.749512	921.353760	3.278755
278.013031	854.035461	2660.928955	915.781006	3.417221
278.385162	848.239929	2669.622314	910.431213	3.414510
278.757233	847.719727	2690.427490	911.099915	3.439514
279.129272	855.595886	2722.303223	911.322937	2.985313
279.501282	857.527649	2758.414063	918.901794	3.228712
279.873230	855.149963	2824.989502	925.143250	3.553248
280.245178	857.899231	2913.632568	925.440369	3.285501
280.617126	861.242859	3045.148438	924.697327	2.905550
280.988983	859.756836	3160.763672	928.189514	2.974032
281.360870	855.595886	3264.936279	931.681824	3.157957
281.732697	855.149963	3330.099609	940.449524	3.446517
282.104492	860.722717	3359.523438	939.483582	3.151947
282.476288	867.558594	3360.489014	941.341125	2.959671
282.848053	865.478210	3356.922607	936.437195	2.848106
283.219757	866.889832	3371.188477	943.050110	3.041182
283.591461	859.385254	3360.786377	940.226563	3.231841
283.963135	864.214905	3375.646729	935.916992	2.855028
284.334747	859.682434	3429.739258	934.951111	2.928678
284.706360	864.586426	3528.487549	948.548523	3.151847
285.077942	853.738281	3632.734375	959.768250	3.815405
285.449524	852.623718	3717.811279	963.780579	3.879567
285.821014	847.125305	3747.086670	957.613464	3.809987
286.192535	858.642334	3776.212891	954.195557	3.275095
286.563995	861.242859	3757.934326	953.229675	3.175582
286.935425	855.298645	3747.903564	951.446350	3.323914
287.306824	849.577332	3664.312744	945.725037	3.415870
287.678223	848.834290	3598.183594	941.935547	3.386302
288.049561	859.608154	3548.920898	934.802551	2.796045
288.420898	866.295410	3557.168701	932.424988	2.457551
288.792145	863.694824	3590.827393	930.418701	2.446668
289.163452	856.413147	3682.368164	936.214355	2.823867
289.534668	848.462708	3799.395264	958.430847	3.726555
289.905914	843.855957	3913.821533	966.381165	3.991094
290.277039	845.119141	4008.854736	970.765076	3.971442
290.648193	846.307922	4049.424072	968.461670	3.813591
291.019318	857.453369	4035.455078	965.563904	3.401840
291.390381	858.939453	3967.245361	960.288391	3.260584
291.761475	850.394714	3905.648438	950.183167	3.266127
292.132507	842.518555	3865.599365	949.365784	3.534382
292.503510	841.775574	3869.462891	953.526672	3.690972
292.874481	856.338867	3919.394287	962.666016	3.471277
293.245422	858.344971	4021.337158	966.901184	3.432073
293.616364	863.769104	4173.063965	975.743347	3.383628
293.987213	861.911621	4315.353027	971.136536	3.162785
294.358093	869.416199	4431.191406	971.656677	2.870492
294.728943	863.694824	4520.354004	961.848816	2.684253
295.099731	858.270691	4621.926270	968.758850	2.935661
295.470490	855.893005	4741.999512	972.696960	3.005681
295.841248	854.109680	4839.781738	986.368652	3.318361
296.211975	854.332703	4931.174316	985.997070	3.229568
296.582642	854.035461	5024.498535	986.145813	3.167762
296.953308	854.481262	5072.572754	985.328430	3.102047
297.323883	857.602051	5060.238281	995.062195	3.270808
297.694519	855.224304	4945.069336	997.662598	3.482731
298.065063	858.865051	4815.708496	990.455261	3.325636
298.435608	857.304688	4661.827637	977.898132	3.169739
298.806122	865.626709	4501.259277	966.083984	2.763131
299.176575	867.484192	4355.179688	966.158264	2.829206
299.547028	873.428467	4249.669922	958.950928	2.533067
299.917450	863.917725	4222.847168	960.139709	2.864662
300.287872	858.122131	4213.707520	960.808411	3.060160
300.658234	857.304871	4205.088379	962.888977	3.153851
301.028564	860.351135	4170.537109	957.093262	2.922559
301.398865	865.775208	4120.085938	948.325623	2.536648
301.769135	864.586426	4060.718018	942.604309	2.441010
302.139374	858.716614	4012.792969	949.737366	2.885813
302.509583	860.202637	3981.214111	953.824036	2.999713
302.879791	861.762939	3947.406250	951.892151	2.920921
303.249939	870.530579	3911.592529	944.461914	2.431103
303.620087	870.233398	3870.874268	936.882996	2.221179
303.990173	865.923889	3849.995361	937.551697	2.400338
304.360260	863.100403	3832.014404	940.152344	2.595290
304.730286	858.493652	3816.856689	936.139954	2.624637
305.100281	857.304871	3816.856445	936.288635	2.668775
305.470276	858.865173	3832.237061	936.139954	2.598894
305.840179	858.270691	3875.852783	942.827209	2.802128
306.210144	862.728821	3897.772217	947.434021	2.790906
306.579987	863.843445	3933.139893	955.012878	2.970369
306.949890	866.592590	3980.842529	962.888916	3.092119
307.319702	864.883606	4083.157227	967.941467	3.202271
307.689484	858.939453	4176.109863	965.638123	3.216557
308.059265	858.122070	4290.907715	963.854797	3.080085
308.429016	852.475098	4371.897949	957.984924	2.997930
308.798737	851.063416	4456.305664	966.381165	3.198613
309.168396	848.537048	4485.061035	968.758972	3.305957
309.538055	852.995178	4500.664063	968.610352	3.169563
309.907684	854.035461	4493.828613	964.003479	3.021271
310.277313	855.670105	4502.596191	964.077820	2.972578
310.646851	853.663879	4487.289551	971.879578	3.253381
311.016388	851.880676	4478.001953	973.291321	3.348223
311.385895	856.858948	4430.596680	968.907410	3.135330
311.755371	856.784668	4378.064941	965.712402	3.093413
312.124817	864.809326	4305.173828	955.755859	2.643514
312.494232	864.140625	4249.595215	952.486511	2.609572
312.863617	859.979675	4241.348145	952.486572	2.735783
313.232971	856.487488	4282.883301	955.904541	2.901505
313.602295	857.156250	4369.371582	957.316345	2.851764
313.971619	863.917786	4461.729492	954.641418	2.521634
314.340820	861.094238	4485.432129	962.814636	2.806592
314.710083	862.803223	4462.918457	965.266602	2.846114
315.079285	860.722717	4383.191895	968.981750	3.073385
315.448486	869.713379	4302.573730	962.443115	2.701238
315.817596	861.391418	4185.101074	969.724792	3.259411
316.186707	864.363525	4083.974609	965.638184	3.145556
316.555786	859.385254	3999.641357	960.362732	3.215581
316.924866	857.973450	3958.031982	945.056335	2.809072
317.293884	854.406982	3950.898682	942.084290	2.831505
317.662872	861.985840	3984.037842	940.226624	2.506069
318.031830	862.060242	4022.452148	944.981995	2.623781
318.400757	871.793762	4063.690186	941.266846	2.176546
318.769684	861.837219	4083.305908	946.245117	2.620168
319.138550	864.958008	4085.014893	941.415527	2.374415
319.507416	863.769226	4045.634521	948.399902	2.659782
319.876190	865.998230	3984.854736	943.198730	2.475282
320.244995	866.295410	3915.976563	949.514465	2.728779
320.613770	854.035461	3862.032471	949.663086	3.179113
320.982483	847.348206	3874.143799	958.950928	3.687157
321.351166	845.342102	3919.989014	952.709473	3.492023
321.719818	850.171692	4009.374756	951.594910	3.210405
322.088440	853.961121	4130.785645	942.381348	2.698351
322.457062	858.419250	4306.214355	955.384460	2.812383
322.825623	859.608154	4492.268066	958.207825	2.714256
323.194183	860.128235	4623.857910	968.833191	2.888224
323.562653	863.992004	4686.123535	968.164368	2.725504
323.931183	863.397644	4685.380859	968.312988	2.745050
324.299591	867.484192	4640.427734	970.096375	2.719685
324.668060	862.357361	4578.310547	971.656677	2.941354
325.036407	862.505920	4507.202637	967.718689	2.886736
325.404755	852.326477	4425.544434	960.288330	3.021418
325.773102	856.710449	4352.356445	947.211121	2.588954
326.141388	859.459534	4277.384766	948.399902	2.602174
326.509674	869.193176	4202.413574	944.313293	2.253680
326.877899	868.747375	4130.042480	944.313293	2.317052
327.246124	865.403809	4071.417725	942.901550	2.417262
327.614288	863.397644	4031.665283	951.446350	2.779080
327.982422	850.914734	4026.241455	957.539246	3.357907
328.350525	850.171692	4035.232178	954.715637	3.282322
328.718628	852.475159	4077.138672	950.331787	3.034631
329.086700	856.115967	4121.794922	949.811584	2.869101
329.454712	853.886902	4182.871582	957.019043	3.098006
329.822693	863.100403	4222.623535	959.545349	2.870793
330.190674	867.707214	4254.945313	958.356445	2.676199
330.558563	868.375916	4288.530273	953.006653	2.474471
330.926483	854.852844	4364.541504	949.885925	2.707735
331.294312	858.865234	4461.729980	952.263672	2.592338
331.662231	861.391418	4574.595703	961.254333	2.689400
332.029999	861.391418	4676.910645	963.111816	2.665965
332.397766	851.286316	4745.566406	971.285156	3.081413
332.765503	857.453369	4793.194824	970.765076	2.879043
333.133240	863.843445	4793.714355	969.947754	2.699944
333.500916	868.375916	4788.884766	960.139832	2.340612
333.868561	862.580322	4764.810547	953.824036	2.338245
334.236176	854.852783	4753.442383	952.337891	2.500522
334.603790	853.515320	4739.473145	957.464844	2.675004
334.971344	856.487488	4710.346680	967.198486	2.872731
335.338867	862.803223	4690.730957	972.548340	2.866959
335.706360	869.787598	4678.768066	975.446106	2.773932
336.073853	870.530762	4684.786621	968.833191	2.577237
336.441284	864.660828	4699.201172	972.399719	2.809695
336.808655	862.654602	4726.990723	971.730957	2.822641
337.176086	858.865173	4771.869629	980.052917	3.097051
337.543396	859.459534	4797.355469	977.229309	2.990678
337.910706	855.744446	4822.246582	973.588562	2.970983
338.277954	854.629883	4805.008301	961.923035	2.716022
338.645264	856.190247	4788.735840	960.139832	2.643315
339.012421	852.846619	4745.269043	960.659912	2.769825
339.379669	850.617493	4678.693848	962.517395	2.923136
339.746796	857.379089	4575.189941	965.861084	2.917900
340.113953	862.506042	4503.562500	966.826965	2.865128
340.481018	861.614319	4470.869141	974.628723	3.131239
340.848114	855.372864	4491.228027	975.297546	3.298390
341.215118	856.784668	4525.407227	978.641113	3.321586
341.582153	862.654602	4643.697266	979.978516	3.102951
341.949066	862.877441	4816.079590	978.715393	2.930231
342.316010	862.060120	5034.083984	976.189148	2.735579
342.682922	862.357422	5301.499512	980.127258	2.652987
343.049835	863.992004	5631.403809	995.210693	2.752409
343.416656	858.419250	5955.660645	1006.058899	2.896462
343.783478	854.629883	6167.943359	1016.164063	3.040178
344.150269	858.493652	6294.629395	1018.095886	2.935950
344.516998	858.493652	6289.576660	1022.925598	3.027609
344.883728	865.106628	6209.701172	1018.616028	2.872236
345.250427	858.345032	6067.263184	1014.232178	2.992697
345.617065	861.094238	5902.756348	1012.151672	2.996183
345.983704	850.468933	5777.185547	1006.355957	3.164116
346.350281	854.258362	5644.927246	998.479980	3.010469
346.716827	854.852783	5525.670410	987.334534	2.836372
347.083405	860.499817	5441.336914	985.402649	2.726638
347.449860	868.450195	5382.117676	988.374756	2.656921
347.816376	869.936279	5388.358887	990.158020	2.660702
348.182770	872.908386	5394.600586	992.461426	2.643989
348.549194	864.289246	5432.420898	997.662598	2.919648
348.915558	864.363464	5488.742188	1005.092957	3.043209
349.281921	861.019836	5551.602051	1002.938171	3.025602
349.648193	857.230469	5608.369141	996.176514	2.924479
350.014526	861.465759	5634.895996	990.455261	2.702239
350.380737	859.608215	5684.975098	997.068176	2.848695
350.746948	866.146790	5733.197754	998.628601	2.722014
351.113159	870.010559	5808.169434	1003.309753	2.699370
351.479309	865.552429	5858.694824	1006.801941	2.828870
351.845428	861.465759	5971.709473	1015.792542	3.019950
352.211517	861.094238	6089.702637	1023.891602	3.113589
352.577576	870.307800	6214.605469	1017.873047	2.761172
352.943604	872.313965	6339.359375	1019.953552	2.700537
353.309601	865.998230	6488.113281	1023.965820	2.809754
353.675537	868.227295	6669.411621	1036.448608	2.899775
354.041473	866.592590	6786.810059	1045.736450	3.025968
354.407379	862.134460	6910.970215	1046.256714	3.043929
354.773254	859.162354	7025.173340	1056.807617	3.205399
355.139038	863.026123	7221.184082	1057.996460	3.066459
355.504913	864.883728	7473.888184	1075.754883	3.190665
355.870636	863.843445	7776.894531	1081.847656	3.153517
356.236389	855.372986	8064.892090	1101.389282	3.412382
356.602081	860.425598	8297.383789	1103.544067	3.269058
356.967804	857.081970	8454.683594	1107.407715	3.294800
357.333405	859.905334	8523.041992	1103.544067	3.179360
357.699036	852.326477	8527.425781	1103.321167	3.270247
358.064606	857.899170	8471.996094	1102.132324	3.207644
358.430176	866.815491	8415.377930	1098.640015	3.071108
358.795654	866.221130	8460.627930	1100.646240	3.086813
359.161163	863.992004	8672.687500	1100.497559	3.028746
359.526581	852.698059	9106.616211	1117.958618	3.213753
359.892029	855.001465	9672.727539	1138.243408	3.212188
360.257416	851.063416	10247.013672	1164.918091	3.340319
360.622772	855.818787	10675.443359	1178.366821	3.284729
360.988098	861.614441	10902.958008	1191.221191	3.282496
361.353394	859.162415	10931.639648	1195.902222	3.343168
361.718658	853.292480	10714.006836	1188.472046	3.399141
362.083893	843.930359	10267.595703	1168.112915	3.440090
362.449097	845.936523	9650.958008	1144.187622	3.387284
362.814209	854.778503	8992.338867	1128.955566	3.369278
363.179382	859.236633	8413.892578	1116.695557	3.407950
363.544434	860.574158	8003.220703	1103.618286	3.402718
363.909546	856.858948	7792.646484	1092.101440	3.391720
364.274536	852.846680	7670.121094	1076.423462	3.279563
364.639587	860.277039	7557.478516	1075.680420	3.216319
365.004517	860.425537	7468.314941	1072.559692	3.210316
365.369507	867.187073	7412.142578	1076.423462	3.196911
365.734344	863.992004	7429.678223	1074.194336	3.201529
366.099274	865.106628	7431.906738	1069.141724	3.107070
366.464081	867.707214	7383.833496	1065.723999	3.038873
366.828918	864.883728	7317.480469	1067.804565	3.144794
367.193665	862.877441	7218.732422	1075.457642	3.344636
367.558411	862.951843	7148.665527	1075.531860	3.381955
367.923126	861.688660	7045.012207	1071.519531	3.393497
368.287781	860.945618	7012.839844	1069.587646	3.391509
368.652435	854.481262	6984.381348	1068.695923	3.494587
369.017059	858.419250	7010.907715	1063.123413	3.327177
369.381653	854.035461	7039.365234	1057.550659	3.290289
369.746185	858.419250	7107.277832	1055.470215	3.153391
370.110687	856.190247	7201.568359	1061.786011	3.240087
370.475220	857.304871	7276.019531	1068.993164	3.297986
370.839661	852.177917	7330.854980	1083.556519	3.571386
371.204041	857.230530	7349.802246	1095.147827	3.664454
371.568451	858.865173	7360.501465	1097.525513	3.670774
371.932770	859.756836	7348.464355	1090.912476	3.562430
372.297150	854.852844	7327.288574	1084.225220	3.543834
372.661377	859.831055	7350.916504	1083.259399	3.442080
373.025696	860.945618	7389.925781	1087.717529	3.473313
373.389862	856.115906	7456.128906	1082.144897	3.424675
373.754059	851.137695	7523.298828	1081.847656	3.457800
374.118225	857.824890	7653.626465	1078.652710	3.249474
374.482361	864.958008	7827.643066	1090.541016	3.239885
374.846436	864.809387	8064.669434	1100.200317	3.269382
375.210510	856.413269	8378.002930	1118.255981	3.481215
375.574524	852.400879	8699.362305	1128.807007	3.522461
375.938538	847.051086	9010.170898	1141.067017	3.601759
376.302460	843.410217	9210.639648	1147.531372	3.634670
376.666412	850.840515	9331.975586	1155.110107	3.587605
377.030304	853.961243	9320.235352	1153.846924	3.542121
377.394196	859.831116	9176.980469	1154.961426	3.548455
377.757996	854.704163	8933.564453	1153.252563	3.695427
378.121796	854.629883	8618.447266	1141.215454	3.691297
378.485565	852.326477	8347.835938	1126.651978	3.659865
378.849304	850.023193	8149.373535	1111.717285	3.585170
379.212982	853.069580	8015.703125	1106.664673	3.540529
379.576630	853.366760	7958.564941	1098.788696	3.454118
379.940277	857.899231	7944.669922	1095.370728	3.350913
380.303864	858.865051	7948.385254	1091.729858	3.284634
380.667450	860.054016	7972.756348	1100.794800	3.384660
381.030945	853.366760	7965.845703	1097.971313	3.439090
381.394501	855.075745	8019.417969	1095.147827	3.350930
381.757935	856.784668	8056.569824	1090.764038	3.249810
382.121399	860.202637	8159.033203	1092.918701	3.188402
382.484741	855.818665	8314.102539	1114.392212	3.466931
382.848145	854.407043	8489.829102	1121.525269	3.498408
383.211487	862.357422	8625.282227	1129.104126	3.436162
383.574768	859.905334	8698.545898	1119.667725	3.313870
383.938019	858.716553	8729.233398	1126.354980	3.400519
384.301270	850.914795	8736.365234	1133.562378	3.584419
384.664459	858.270691	8733.690430	1141.364136	3.594646
385.027649	854.035461	8766.977539	1133.933716	3.537221
385.390778	852.326477	8884.227539	1141.066895	3.594920
385.753876	846.530945	9023.099609	1143.147339	3.627639
386.116943	851.063293	9143.469727	1152.583862	3.636105
386.479980	853.366699	9177.204102	1146.713989	3.524183
386.842987	853.069519	9177.352539	1149.463135	3.560590
387.205994	859.013733	9151.420898	1147.159790	3.474818
387.568909	853.961121	9146.516602	1152.360962	3.598406
387.931793	864.066345	9083.061523	1153.921265	3.526647
388.294678	856.859070	9042.937500	1150.949219	3.592564
388.657471	867.187073	9031.124023	1148.497070	3.445764
389.020294	863.694885	9118.355469	1152.360962	3.497007
389.383057	870.679382	9338.588867	1169.673462	3.530908
389.745819	865.849609	9545.596680	1173.983032	3.550028
390.108521	870.902161	9809.964844	1179.481445	3.452032
390.471191	873.428467	10043.275391	1186.391602	3.412959
390.833801	874.022888	10259.421875	1197.908569	3.450953
391.196442	871.496582	10410.479492	1200.434814	3.448358
391.558960	866.072571	10405.798828	1197.165527	3.470675
391.921509	871.199402	10360.696289	1202.515137	3.491394
392.284027	864.586426	10288.177734	1207.865112	3.642758
392.646484	863.026062	10256.970703	1213.809204	3.734141
393.008911	858.345032	10237.949219	1210.168457	3.750941
393.371307	861.614319	10240.772461	1208.756714	3.701210
393.733673	863.992004	10208.227539	1197.685547	3.571117
394.096008	859.979736	10132.811523	1193.153076	3.593005
394.458344	859.385254	9977.517578	1187.357422	3.596922
394.820587	853.515381	9737.594727	1190.701050	3.795393
395.182831	860.574036	9514.463867	1186.688843	3.768419
395.545013	860.053955	9273.797852	1177.475220	3.772652
395.907196	866.666931	9123.185547	1162.466064	3.582613
396.269287	866.666931	9022.059570	1154.515747	3.529552
396.631409	863.769104	8992.858398	1156.967651	3.606782
396.993469	860.797058	8993.377930	1158.230713	3.657310
397.355530	854.778503	8997.688477	1154.069702	3.675482
397.717499	856.933289	9031.570313	1156.224609	3.661218
398.079468	857.973572	9075.854492	1158.750977	3.660036
398.441376	855.447205	9113.155273	1159.939819	3.687374
398.803284	848.091248	9092.424805	1148.274292	3.641083
399.165131	842.815735	9047.323242	1145.153442	3.685019
399.526978	840.215149	9011.062500	1149.463013	3.784771
399.888763	844.227478	8977.774414	1162.614624	3.914493
400.250519	848.239807	8991.223633	1160.236938	3.831484
400.612244	858.865051	9024.213867	1162.986206	3.724534
400.973938	865.106628	9151.568359	1158.082153	3.535593
401.335602	869.044617	9247.939453	1174.874634	3.650004
401.697205	862.877502	9426.637695	1179.704346	3.699623
402.058807	861.688660	9572.122070	1187.060181	3.735423
402.420349	856.710388	9831.438477	1188.546387	3.697449
402.781860	863.026123	10029.009766	1193.896118	3.609760
403.143341	861.985901	10244.785156	1206.750610	3.674433
403.504822	856.710388	10425.861328	1210.985718	3.702265
403.866241	855.595764	10578.479492	1230.750366	3.858470
404.227631	852.920898	10687.703125	1227.852417	3.812301
404.588959	855.744385	10681.461914	1241.895630	3.930006
404.950287	853.218201	10591.778320	1233.276489	3.902613
405.311554	854.481262	10445.625977	1237.066040	3.988938
405.672821	858.939453	10333.280273	1230.601685	3.922829
406.034027	854.258301	10220.042969	1219.381958	3.898484
406.395203	855.224304	10060.811523	1208.682373	3.839604
406.756348	860.722656	9937.022461	1194.193359	3.674082
407.117493	864.735107	9876.985352	1188.026245	3.587241
407.478516	862.728821	9956.713867	1184.831299	3.541929
407.839600	859.013672	10035.102539	1188.249146	3.587972
408.200592	862.580261	10174.717773	1196.125366	3.581832
408.561554	863.694824	10279.187500	1205.858765	3.634053
408.922485	859.236755	10428.684570	1208.682373	3.651680
409.283417	851.360596	10531.667969	1221.759644	3.826315
409.644257	850.097473	10641.115234	1232.384888	3.904471
410.005096	859.459534	10669.945313	1243.456055	3.914144
410.365906	862.208740	10630.861328	1235.579956	3.822136
410.726715	867.112793	10595.865234	1224.063110	3.669025
411.087433	861.317139	10529.958984	1215.666870	3.664938
411.448120	867.781494	10513.389648	1213.214844	3.581250
411.808807	875.434631	10469.475586	1210.985840	3.497496
412.169434	872.016785	10434.850586	1202.515259	3.456073
412.530029	872.685486	10479.655273	1203.555542	3.444063
412.890564	852.252197	10580.260742	1208.830933	3.665485
413.251099	850.171692	10755.318359	1218.044556	3.713957
413.611572	844.896240	10895.973633	1218.787476	3.719912
413.972076	851.657776	11037.222656	1230.527344	3.719672
414.332489	852.475098	11170.671875	1239.220825	3.748191
414.692871	847.645325	11398.409180	1254.304199	3.854307
415.053223	847.571106	11586.023438	1251.257813	3.759264
415.413574	851.583496	11868.002930	1257.870728	3.688015
415.773834	856.561768	12095.666992	1256.756226	3.560732
416.134094	859.088074	12429.286133	1272.954224	3.577001
416.494263	856.487488	12718.620117	1280.235962	3.572279
416.854462	855.372864	13097.118164	1303.864136	3.663622
417.214630	858.270752	13489.734375	1306.687622	3.549999
417.574738	849.057190	13884.801758	1324.817505	3.649660
417.934784	852.400879	14369.776367	1341.684204	3.619662
418.294861	853.292480	14948.964844	1370.142212	3.666726
418.654846	857.081848	15622.890625	1390.278198	3.611020
419.014832	854.035461	16269.843750	1405.361694	3.576369
419.374756	850.394592	16903.869141	1423.714478	3.571313
419.734680	854.778503	17566.871094	1451.800781	3.572397
420.094543	849.577332	18107.498047	1470.153687	3.595893
420.454376	847.199646	18415.781250	1491.775757	3.668914
420.814148	847.051025	18568.101563	1501.658081	3.693952
421.173920	854.704102	18654.664063	1520.456543	3.740191
421.533691	853.441101	18760.099609	1527.366699	3.763548
421.893341	855.595886	18810.847656	1526.177734	3.734739
422.253021	847.794128	18759.208984	1518.970581	3.747200
422.612640	847.273926	18708.310547	1509.014038	3.704937
422.972260	845.193420	18660.980469	1514.809570	3.758555
423.331757	854.704163	18759.654297	1502.846802	3.619908
423.691315	866.815613	18877.796875	1509.236816	3.566831
424.050781	866.889832	18920.966797	1505.596069	3.537740
424.410248	859.682434	18715.814453	1511.317383	3.649362
424.769653	849.948914	18385.167969	1506.487671	3.744115
425.128998	852.400879	17947.525391	1498.537231	3.779653
425.488373	856.338867	17470.130859	1474.463257	3.720550
425.847656	856.933289	17015.101563	1446.153931	3.646581
426.206940	855.967346	16572.255859	1434.637085	3.681975
426.566193	857.007629	16194.871094	1429.881714	3.735032
426.925385	851.657776	15757.229492	1424.903320	3.845848
427.284576	853.366699	15351.460938	1393.027344	3.722287
427.643677	849.280090	15041.024414	1379.430054	3.735622
428.002777	851.583496	14839.590820	1375.714844	3.747005
428.361847	849.651611	14661.264648	1372.519897	3.785715
428.720856	843.038757	14491.112305	1369.770630	3.859386
429.079865	846.605225	14390.281250	1356.247559	3.762954
429.438812	849.057190	14395.855469	1356.693359	3.747278
429.797760	861.837219	14389.315430	1348.445801	3.597186
430.156616	860.648438	14300.598633	1346.142212	3.612318
430.515503	864.512207	14215.596680	1345.325073	3.601302
430.874268	864.586426	14167.151367	1348.594360	3.638456
431.233093	869.341797	14231.795898	1352.606812	3.616589
431.591827	861.763000	14410.937500	1353.052612	3.625974
431.950562	857.750671	14602.268555	1352.086792	3.596606
432.309204	861.242859	14746.711914	1350.080444	3.520498
432.667877	863.694824	14890.339844	1352.606689	3.485594
433.026459	862.431702	14957.805664	1356.321777	3.503916
433.385010	855.744385	15065.395508	1367.021362	3.598097
433.743561	860.202637	15064.801758	1375.937866	3.630762
434.102051	856.933350	15080.331055	1389.460938	3.744025
434.460510	861.763000	15096.752930	1408.928101	3.843804
434.818939	860.128357	15102.027344	1422.228394	3.946805
435.177338	865.255188	15137.097656	1437.831909	4.011933
435.535675	861.094238	15153.000000	1435.008423	4.015659
435.894012	858.047852	15209.692383	1433.596680	4.010334
436.252289	863.917786	15402.210938	1428.989868	3.886784
436.610535	858.865173	15477.182617	1425.052124	3.873133
436.968719	859.979675	15718.516602	1428.395508	3.825517
437.326935	853.515381	15927.753906	1424.457397	3.787535
437.685028	861.837341	16253.276367	1426.760742	3.670374
438.043152	863.471985	16453.744141	1434.265503	3.661216
438.401215	860.054016	16758.681641	1450.537720	3.714055
438.759277	861.094238	17103.150391	1456.853394	3.668003
439.117249	857.527771	17664.134766	1461.905884	3.596074
439.475250	859.831116	18097.169922	1469.633423	3.537683
439.833130	855.521545	18533.847656	1484.196899	3.556193
440.191071	848.314209	18634.972656	1491.998657	3.618917
440.548889	849.205811	18664.173828	1498.685913	3.645699
440.906708	842.815735	18497.142578	1503.738281	3.743686
441.264496	849.057129	18280.773438	1506.413452	3.771036
441.622223	847.051025	18014.843750	1492.147095	3.757595
441.979950	851.211914	17751.291016	1479.292847	3.716438
442.337616	856.190247	17539.232422	1458.562500	3.610686
442.695251	863.397644	17315.728516	1452.692505	3.581832
443.052887	867.781433	17246.328125	1439.466431	3.490450
443.410461	863.769104	17368.408203	1440.432495	3.493947
443.768005	856.561768	17624.826172	1446.896973	3.520550
444.125458	855.670105	17941.431641	1458.785278	3.529928
444.482941	858.939453	18289.689453	1470.822388	3.510365
444.840393	864.735046	18804.681641	1488.952271	3.479482
445.197754	865.923889	19259.189453	1508.716797	3.494719
445.555084	863.397644	19625.130859	1524.691895	3.524697
445.912415	862.877502	19827.158203	1525.880737	3.496063
446.269714	862.580261	19923.529297	1529.298706	3.497824
446.626953	868.153015	19916.248047	1530.115845	3.475218
446.984161	869.564758	19735.619141	1533.682495	3.520173
447.341309	873.651428	19534.185547	1521.571167	3.472139
447.698456	866.815613	19237.048828	1512.208984	3.513256
448.055542	857.973572	19033.830078	1498.091431	3.521803
448.412598	855.670166	18634.677734	1494.153320	3.591219
448.769653	856.784668	18245.033203	1492.147095	3.653976
449.126617	861.911560	17729.447266	1476.915161	3.646079
449.483582	863.026123	17413.289063	1473.720215	3.689936
449.840515	869.341858	17147.880859	1462.649048	3.644720
450.197388	867.038513	16983.744141	1461.163086	3.686390
450.554230	858.122131	16852.080078	1442.513062	3.653823
450.911041	855.224304	16802.966797	1425.571899	3.576353
451.267822	856.338867	16860.849609	1430.698853	3.588738
451.624573	857.527649	16937.750000	1433.225220	3.580159
451.981262	855.744446	16920.216797	1436.717407	3.616508
452.337921	854.184082	16774.880859	1422.748535	3.571228
452.694580	859.682434	16441.259766	1421.708130	3.606988
453.051147	858.047791	16202.526367	1417.918823	3.648681
453.407715	862.134460	15820.238281	1405.956055	3.635632
453.764221	867.930115	15705.291992	1392.358765	3.534514
454.120728	859.459534	15360.528320	1394.439087	3.689242
454.477142	853.366699	15346.929688	1395.182251	3.738319
454.833557	850.840393	15225.148438	1399.194702	3.814822
455.189911	859.236633	15285.854492	1389.758179	3.677380
455.546265	869.416077	15355.102539	1393.473145	3.617758
455.902557	871.645203	15451.770508	1387.677612	3.539287
456.258820	877.886658	15710.195313	1395.553711	3.490131
456.615051	871.719543	15994.182617	1400.977905	3.499816
456.971252	862.877502	16346.672852	1410.637085	3.537631
457.327393	860.128357	16940.500000	1422.525513	3.497414
457.683502	860.574158	17630.474609	1438.351929	3.445326
458.039612	860.797058	18645.896484	1472.382690	3.438753
458.395630	863.323425	19582.630859	1509.756836	3.453298
458.751648	871.050781	20366.896484	1538.289185	3.422465
459.107605	878.555359	20962.953125	1557.682251	3.381365
459.463562	880.710144	21098.257813	1555.750366	3.338883
459.819458	872.982666	20902.841797	1560.282837	3.431378
460.175323	870.233398	20235.380859	1558.425293	3.553765
460.531158	869.193176	19410.843750	1542.896118	3.633457
460.886932	866.889893	18617.142578	1518.821899	3.672804
461.242676	863.323303	17937.568359	1490.809937	3.675048
461.598419	858.716553	17458.093750	1468.073242	3.670961
461.954102	862.283020	16962.046875	1444.667969	3.617351
462.309723	861.614441	16559.773438	1423.863159	3.581622
462.665344	861.688660	16248.221680	1416.878540	3.608284
463.020905	857.750671	16121.460938	1415.244019	3.652411
463.376373	860.054016	16093.820313	1408.630981	3.601059
463.731873	855.670105	16139.293945	1406.179077	3.601953
464.087341	857.230469	16154.452148	1410.859985	3.619151
464.442749	864.660828	16311.454102	1410.191406	3.531675
464.798126	868.524475	16425.062500	1413.015015	3.500075
465.153503	873.279968	16653.322266	1409.745605	3.399647
465.508820	858.716614	16807.126953	1421.262573	3.527286
465.864105	852.623718	16913.158203	1428.024048	3.582697
466.219330	850.320313	17120.312500	1440.655640	3.628369
466.574524	856.487488	17132.498047	1440.729858	3.589592
466.929657	857.824890	16990.134766	1439.020874	3.602683
467.284790	858.567871	16721.009766	1435.602905	3.637744
467.639893	851.806335	16473.435547	1432.630737	3.718078
467.994934	852.697998	16324.159180	1423.342896	3.688371
468.349945	843.781738	16159.504883	1410.711548	3.701620
468.704926	847.719727	16044.187500	1408.408203	3.689597
469.059875	849.577332	15925.303711	1405.213257	3.685633
469.414764	859.979675	15827.075195	1402.686890	3.626002
469.769653	863.323242	15769.043945	1402.389648	3.616507
470.124451	864.883606	15826.479492	1406.104614	3.617402
470.479248	857.081848	15895.507813	1402.241089	3.625108
470.834015	857.676270	15971.295898	1404.247070	3.616412
471.188721	863.769104	16176.817383	1407.962280	3.553787
471.543365	869.193176	16457.830078	1422.228394	3.547682
471.898010	860.945618	16775.029297	1429.212769	3.570844
472.252625	853.812683	17046.679688	1431.293335	3.566266
472.607178	851.063416	17288.683594	1436.568726	3.561983
472.961700	859.385254	17334.230469	1437.311890	3.507934
473.316193	859.459534	17357.189453	1440.581055	3.522433
473.670654	858.716553	17251.976563	1438.054810	3.534003
474.025055	853.812500	17337.648438	1440.135254	3.556956
474.379456	851.955017	17399.169922	1448.160034	3.603054
474.733795	854.481262	17610.560547	1456.036133	3.590069
475.088104	857.824951	17906.806641	1458.562500	3.523598
475.442383	863.843445	18268.066406	1471.936890	3.493942
475.796570	861.540039	18597.748047	1478.178345	3.476720
476.150787	862.431641	18979.960938	1491.255493	3.470803
476.504944	860.054016	19358.904297	1498.537476	3.451477
476.859070	862.654602	19669.712891	1510.128540	3.442718
477.213135	865.403809	19863.865234	1536.803345	3.533968
477.567200	869.936279	20082.613281	1545.645142	3.516995
477.921173	869.564758	20408.132813	1562.809082	3.548081
478.275146	860.722717	20719.609375	1565.261108	3.547724
478.629089	862.654602	21060.289063	1575.589233	3.529793
478.983002	861.911621	21487.826172	1589.929688	3.529628
479.336823	863.546204	22084.625000	1605.830444	3.497863
479.690643	855.744446	22793.400391	1631.687866	3.537039
480.044403	848.017029	23708.068359	1660.888672	3.555861
480.398163	844.376160	24935.843750	1695.365234	3.532326
480.751862	842.072754	26623.333984	1740.689819	3.485543
481.105499	850.245911	28925.158203	1816.181274	3.440564
481.459137	857.081848	32312.767578	1918.421997	3.374080
481.812744	861.391418	36803.921875	2071.931396	3.367988
482.166290	859.905457	42061.503906	2244.313721	3.360084
482.519806	861.688660	47213.511719	2429.996338	3.383486
482.873291	858.567932	51251.636719	2583.802979	3.423556
483.226715	861.019958	53707.046875	2709.671631	3.498185
483.580139	855.893066	54228.203125	2774.017822	3.593858
483.933502	859.831116	53218.425781	2782.488281	3.672095
484.286804	860.425476	50886.218750	2713.906982	3.705052
484.640106	862.060242	47806.816406	2609.660156	3.722673
484.993347	854.109863	44890.582031	2503.110107	3.744624
485.346558	846.605225	42907.070313	2431.482178	3.768092
485.699738	844.747559	42382.792969	2396.559814	3.735882
486.052887	845.193420	42950.242188	2390.987305	3.671279
486.405975	854.109802	44070.058594	2418.405029	3.619717
486.759064	860.871399	45052.269531	2446.342773	3.587738
487.112061	861.540039	45353.339844	2467.073486	3.608605
487.464996	854.927185	44850.015625	2442.330566	3.608137
487.817963	845.639343	43498.964844	2410.900391	3.669728
488.170868	845.565002	41534.847656	2356.956543	3.714471
488.523743	845.787903	39325.753906	2287.483398	3.746614
488.876587	850.171692	37407.781250	2223.211670	3.755826
489.229401	857.527771	36355.800781	2169.788086	3.696687
489.582153	866.815613	36279.644531	2157.008057	3.643291
489.934845	867.632996	37214.667969	2171.348389	3.586855
490.287537	859.905457	38522.394531	2193.267822	3.540293
490.640198	854.332703	39756.269531	2237.180664	3.554702
490.992798	852.400696	40155.644531	2254.047363	3.566237
491.345337	852.995178	39787.769531	2256.127686	3.603803
491.697876	856.338867	38403.734375	2210.580322	3.606752
492.050354	866.889893	36333.062500	2147.051514	3.609529
492.402832	868.450195	33684.542969	2072.822998	3.670068
492.755219	865.255188	30965.437500	1983.734009	3.715854
493.107605	858.419250	28562.041016	1908.019531	3.788676
493.459930	864.215027	26730.923828	1844.639282	3.790294
493.812225	867.855774	25575.591797	1801.618042	3.779230
494.164490	869.341797	24926.484375	1766.398438	3.728858
494.516724	870.456360	24698.521484	1736.454590	3.634362
494.868896	866.369690	24697.259766	1719.810913	3.581239
495.221039	863.620544	24953.529297	1715.129883	3.534714
495.573120	859.608215	25137.279297	1718.399048	3.537369
495.925201	873.056946	25429.437500	1734.597046	3.508416
496.277222	872.982666	25528.705078	1735.711548	3.499102
496.629211	875.583252	25531.083984	1735.860229	3.489189
496.981140	864.214905	25317.908203	1730.807617	3.543811
497.333069	862.357422	25053.390625	1725.457886	3.567853
497.684967	867.261414	24719.994141	1714.981079	3.553973
498.036804	862.283142	24303.525391	1696.999634	3.560889
498.388580	860.574158	23828.509766	1684.516968	3.587361
498.740326	855.372864	23330.978516	1668.764771	3.618999
499.092072	852.995300	22814.056641	1652.418335	3.640184
499.443756	853.515381	22392.835938	1641.941528	3.660404
499.795410	851.732117	22078.236328	1627.006714	3.652390
500.147003	859.608215	21804.505859	1612.517578	3.594715
500.498566	861.985840	21530.328125	1598.400024	3.563006
500.850098	860.648438	21323.617188	1601.817993	3.622004
501.201599	853.440979	21245.822266	1594.759399	3.635272
501.553009	854.778503	21216.548828	1589.558105	3.608624
501.904449	848.388367	21179.099609	1575.737915	3.577590
502.255859	853.589600	21190.021484	1588.072144	3.611659
502.607178	855.447205	21231.259766	1595.353516	3.631297
502.958405	863.620544	21345.832031	1602.783813	3.608806
503.309692	859.385254	21389.150391	1590.301147	3.560274
503.660919	855.967346	21534.857422	1587.403320	3.537114
504.012115	857.527771	21559.007813	1594.164917	3.558379
504.363251	862.134460	21574.015625	1598.697266	3.556233
504.714294	870.753601	21397.771484	1594.536499	3.526001
505.065369	874.245789	21245.154297	1585.248535	3.490285
505.416443	876.177673	21115.123047	1583.168335	3.493219
505.767395	877.217834	21102.937500	1588.072144	3.514606
506.118317	869.713379	21123.076172	1585.620117	3.534755
506.469238	862.357422	21265.513672	1596.988281	3.600574
506.820160	854.778564	21454.167969	1589.112305	3.564833
507.170929	855.670166	21649.212891	1592.455933	3.543339
507.521729	859.756836	21878.585938	1589.335327	3.471071
507.872498	852.623779	22105.728516	1597.062622	3.502730
508.223236	849.948914	22413.859375	1610.660034	3.527705
508.573883	842.741516	22650.515625	1625.297729	3.588428
508.924500	847.125305	22826.537109	1635.997192	3.589140
509.275116	849.280090	22971.427734	1628.864258	3.523998
509.625702	858.419373	23135.044922	1623.811646	3.435854
509.976196	855.967346	23315.673828	1630.499023	3.448539
510.326660	857.081848	23567.115234	1648.703125	3.485778
510.677124	849.948914	23782.000000	1659.699829	3.531088
511.027557	857.304871	23969.984375	1667.278687	3.504457
511.377869	860.574158	24092.359375	1670.845215	3.487769
511.728180	869.193176	24097.265625	1664.752441	3.424990
512.078430	871.496582	24071.482422	1669.359009	3.439064
512.428650	874.691589	23890.478516	1668.838989	3.450446
512.778931	874.914551	23706.062500	1667.427246	3.471191
513.129028	863.620544	23471.412109	1660.220093	3.523562
513.479126	847.868347	23356.912109	1647.514282	3.552554
513.829285	841.924133	23324.812500	1654.573120	3.614522
514.179382	846.902527	23297.171875	1646.845581	3.563178
514.529297	852.475098	23259.203125	1651.080688	3.564133
514.879272	857.750671	23349.406250	1650.040527	3.522594
515.229187	860.574036	23510.197266	1665.643921	3.554451
515.579163	865.998230	23929.634766	1677.978149	3.520607
515.928955	859.310974	24435.490234	1688.157715	3.515611
516.278748	858.196472	25191.296875	1695.216675	3.439842
516.628540	853.738281	26101.726563	1723.377441	3.444390
516.978333	862.283020	27075.615234	1763.575195	3.438297
517.327942	865.775330	28049.873047	1805.927734	3.458465
517.677612	866.295410	28671.859375	1829.407227	3.463738
518.027222	859.385254	29045.826172	1839.883911	3.478618
518.376831	856.784668	29023.384766	1833.791016	3.468670
518.726379	855.967285	28766.224609	1828.887207	3.485887
519.075867	850.617493	28107.755859	1809.419922	3.517620
519.425293	852.772278	27366.212891	1801.618164	3.578735
519.774658	857.453369	26573.849609	1779.996094	3.587372
520.124084	862.580322	25984.923828	1758.745483	3.567204
520.473389	857.602051	25571.578125	1738.832153	3.565716
520.822693	860.425537	25350.156250	1725.754883	3.533437
521.171997	867.929993	25231.939453	1719.513550	3.495252
521.521240	869.638977	25265.822266	1715.575562	3.467496
521.870361	855.447205	25364.423828	1713.197754	3.499740
522.219482	856.636047	25634.884766	1718.547729	3.478501
522.568604	861.837219	25910.326172	1717.730347	3.416945
522.917664	870.010559	26411.646484	1728.281250	3.360281
523.266724	864.289307	27055.478516	1750.200684	3.382478
523.615662	853.589661	28042.439453	1787.649048	3.435450
523.964600	855.149963	29200.150391	1831.339233	3.443956
524.313538	851.434814	30544.583984	1874.731934	3.446240
524.662354	856.487488	31874.380859	1911.957520	3.402778
525.011169	856.933289	33110.855469	1948.811646	3.385258
525.359985	863.620605	34355.574219	1985.591431	3.349971
525.708740	862.506042	35670.953125	2033.665405	3.364584
526.057434	868.301575	37312.152344	2100.612305	3.381396
526.406067	870.827881	39598.449219	2180.487549	3.381720
526.754700	870.976501	42586.160156	2282.059326	3.382660
527.103333	868.895996	46052.312500	2393.439209	3.374121
527.451782	869.564758	49387.386719	2510.317383	3.381753
527.800293	872.759766	51813.890625	2603.121582	3.396787
528.148743	873.354187	53126.964844	2664.124023	3.427074
528.497131	876.251953	52756.191406	2672.148682	3.461640
528.845642	870.976563	51098.355469	2624.223633	3.490620
529.193909	868.078796	48251.667969	2537.958008	3.524172
529.542175	856.636169	44746.136719	2430.516602	3.586007
529.890503	865.552429	41195.433594	2325.823730	3.620817
530.238770	866.295410	38145.457031	2219.867920	3.630909
530.586914	870.679199	36224.730469	2138.135010	3.585037
530.934998	865.552307	35243.941406	2085.454346	3.548456
531.283142	860.945618	35410.746094	2076.537842	3.518377
531.631226	856.190247	36159.199219	2093.107666	3.503717
531.979248	856.115967	37524.660156	2122.159912	3.452670
532.327148	857.156250	38751.917969	2167.261719	3.457221
532.675110	861.911621	39608.777344	2191.633057	3.431817
533.023071	860.871338	39682.480469	2202.555664	3.456024
533.370850	863.471863	38808.089844	2172.537354	3.449937
533.718689	865.478088	37394.253906	2146.828613	3.507784
534.066467	859.608154	35615.152344	2104.698975	3.582424
534.414246	851.880676	34079.835938	2055.138916	3.621223
534.761963	843.038635	32965.296875	2019.622192	3.662829
535.109619	849.354309	32510.562500	1996.736938	3.623938
535.457153	857.304871	32423.033203	1972.737183	3.533682
535.804749	863.917725	32419.318359	1953.121216	3.451718
536.152344	861.391418	32227.617188	1943.982056	3.451453
536.499817	862.580261	31797.404297	1943.536133	3.494301
536.847229	860.648438	31156.171875	1920.799438	3.499365
537.194641	862.506042	30302.804688	1895.239380	3.507890
537.542114	856.041687	29473.734375	1874.063110	3.557315
537.889404	858.567932	28804.859375	1856.824829	3.572055
538.236694	860.054016	28500.962891	1848.354492	3.575499
538.583984	861.242859	28865.271484	1856.156250	3.552751
538.931213	857.156250	29873.705078	1889.369507	3.557326
539.278381	859.905457	31560.228516	1943.016113	3.528011
539.625488	861.837219	33556.523438	2013.678101	3.523021
539.972595	866.295410	35983.769531	2109.008545	3.538732
540.319641	866.518250	38350.386719	2206.344971	3.574409
540.666687	868.153015	40254.832031	2286.294678	3.600561
541.013611	861.094177	41222.253906	2330.281982	3.640103
541.360596	859.979675	41145.355469	2347.222900	3.691769
541.707458	856.710388	40204.609375	2349.006348	3.792568
542.054260	857.453430	38619.433594	2333.922852	3.909937
542.401062	851.880676	36793.890625	2290.752930	4.003316
542.747864	855.967346	34850.425781	2228.709961	4.038137
543.094666	866.518311	33026.742188	2159.905762	4.021699
543.441284	872.908386	31238.572266	2102.395752	4.048939
543.787903	868.747375	29787.958984	2055.807861	4.104747
544.134460	854.332703	28598.226563	2018.359253	4.195613
544.481079	856.190247	27867.013672	1997.628540	4.225855
544.827637	854.109680	27402.916016	1991.981567	4.285962
545.174072	860.796875	27145.978516	1990.644165	4.298419
545.520508	858.567871	27043.591797	2001.417969	4.364518
545.866943	863.174805	26986.898438	2001.046509	4.355703
546.213318	861.465820	26906.873047	2003.498657	4.384777
546.559631	860.276917	26614.789063	1984.328491	4.364484
546.905823	863.620605	26023.562500	1950.372070	4.319372
547.252136	862.803223	25157.416016	1910.768677	4.313571
547.598389	863.026123	24205.744141	1868.416016	4.307081
547.944458	864.066345	23260.837891	1816.255493	4.251457
548.290588	866.815491	22328.787109	1773.531616	4.224757
548.636658	865.552429	21486.490234	1718.844849	4.137990
548.982727	854.704163	20787.820313	1677.904175	4.129811
549.328735	865.626648	20343.046875	1625.000488	3.898739
549.674622	865.329407	19964.771484	1592.901733	3.809391
550.020569	874.097168	19763.484375	1583.613892	3.756166
550.366455	871.719543	19581.738281	1568.679077	3.725060
550.712280	872.016663	19570.443359	1568.158813	3.722999
551.058044	866.964172	19622.158203	1558.499512	3.687167
551.403748	862.877441	19733.835938	1564.889648	3.720066
551.749512	864.215027	19927.916016	1556.567871	3.631786
552.095154	862.357361	20021.314453	1558.499634	3.633508
552.440735	857.081848	20107.728516	1560.951538	3.656343
552.786316	857.304688	19960.757813	1554.041382	3.647177
553.131897	864.214905	19780.794922	1537.026001	3.556727
553.477417	865.255188	19434.322266	1518.375977	3.517252
553.822815	860.499817	19024.765625	1510.202759	3.576819
554.168213	861.391418	18579.099609	1499.205933	3.599870
554.513672	862.654602	18211.298828	1480.258789	3.559957
554.859009	865.180908	17987.796875	1465.101074	3.503671
555.204285	854.927063	17808.800781	1464.060913	3.592889
555.549500	847.125305	17686.648438	1464.878052	3.668469
555.894714	849.354309	17543.244141	1458.116577	3.646617
556.239990	853.069519	17470.947266	1437.609009	3.517534
556.585022	866.221130	17356.892578	1437.460449	3.464015
556.930115	866.741211	17266.541016	1437.980469	3.483208
557.275146	871.422363	17095.125000	1447.714233	3.552160
557.620178	859.682434	16999.126953	1436.048706	3.571166
557.965149	856.338867	16920.140625	1426.389282	3.548664
558.310059	852.995178	16897.255859	1420.890991	3.539557
558.654968	857.676331	16849.404297	1419.107788	3.510762
558.999756	856.858948	16811.064453	1418.810547	3.522279
559.344604	860.722717	16869.912109	1422.748413	3.510644
559.689331	855.149963	16985.082031	1428.544067	3.554845
560.033997	855.744446	17104.041016	1431.813477	3.545412
560.378723	853.292480	17194.244141	1425.274780	3.500300
560.723389	857.973572	17175.593750	1424.457520	3.471609
561.067932	854.332703	17177.824219	1425.720703	3.500403
561.412476	855.595886	17083.978516	1424.531860	3.505808
561.757019	864.363525	16998.083984	1420.890991	3.449468
562.101501	871.347961	16922.666016	1414.352173	3.382926
562.445862	878.406738	16867.013672	1405.956055	3.299533
562.790222	867.558594	16846.804688	1402.018066	3.344710
563.134644	873.205566	16866.865234	1401.126465	3.300813
563.478943	866.518372	16947.707031	1412.717651	3.396511
563.823181	876.920715	17067.408203	1413.237793	3.312544
564.167358	873.354187	17272.632813	1420.668091	3.337427
564.511536	870.233398	17623.193359	1421.856934	3.292693
564.855774	859.533875	18052.958984	1445.410767	3.407563
565.199768	850.766174	18490.306641	1466.290039	3.489455
565.543823	845.193542	18771.689453	1479.292847	3.537218
565.887817	843.558838	18973.199219	1476.469360	3.491026
566.231812	850.246094	18935.083984	1470.302124	3.428596
566.575745	859.459656	18794.724609	1467.032837	3.387589
566.919617	863.397644	18526.267578	1461.014282	3.383463
567.263428	860.054016	18229.875000	1450.017578	3.396486
567.607239	858.865234	17995.525391	1439.317993	3.387199
567.950989	858.493652	17783.314453	1426.240723	3.354523
568.294678	861.985901	17660.048828	1422.674316	3.337816
568.638367	855.447266	17570.587891	1426.240723	3.414829
568.981995	859.979736	17569.621094	1431.219116	3.418622
569.325623	857.379150	17676.320313	1435.677124	3.438373
569.669128	862.431641	17820.689453	1433.893921	3.369817
570.012573	854.481262	18073.169922	1436.271606	3.378831
570.356140	852.995178	18333.007813	1444.965210	3.386554
570.699524	857.304871	18598.861328	1454.327148	3.365107
571.042908	856.859070	18897.857422	1474.314575	3.422513
571.386230	858.196472	19088.591797	1479.218628	3.406521
571.729492	852.103577	19182.955078	1491.181274	3.486350
572.072815	856.264648	19088.740234	1475.800781	3.397981
572.416016	855.075684	18906.103516	1470.525024	3.409497
572.759094	858.493713	18721.833984	1456.333374	3.346741
573.102234	862.208801	18518.837891	1461.906128	3.396443
573.445374	861.985840	18389.255859	1464.729614	3.438891
573.788391	859.087952	18219.474609	1467.330078	3.503621
574.131409	857.899170	18120.427734	1461.460083	3.496364
574.474365	850.394592	18036.912109	1446.153809	3.466434
574.817261	853.886902	17989.505859	1443.627563	3.441607
575.160156	846.679443	17823.958984	1444.147583	3.519222
575.502930	858.642273	17576.904297	1449.051758	3.531524
575.845703	857.602051	17289.351563	1448.308716	3.594910
576.188477	871.868164	16963.533203	1435.825806	3.504657
576.531250	863.249023	16609.927734	1425.051880	3.567755
576.873901	862.505920	16194.054688	1411.231567	3.579062
577.216431	853.292480	15885.625000	1403.727051	3.661671
577.559082	857.750671	15548.141602	1395.925293	3.663447
577.901611	852.772400	15320.776367	1396.891113	3.760842
578.244080	850.246033	15048.604492	1392.432983	3.818659
578.586487	853.143860	14858.241211	1388.123413	3.819892
578.928955	873.205566	14633.624023	1389.015137	3.748502
579.271301	880.412903	14452.399414	1378.018188	3.666414
579.613647	887.991760	14253.713867	1367.615845	3.588464
579.955872	875.063171	14088.910156	1335.368530	3.483508
580.298157	874.914551	13951.229492	1333.436646	3.506509
580.640320	866.444031	13852.480469	1326.006348	3.538896
580.982483	868.598816	13810.793945	1324.148804	3.519882
581.324524	860.202576	13727.352539	1323.777344	3.602777
581.666626	862.654602	13658.770508	1332.099121	3.668648
582.008728	859.682556	13576.147461	1332.470703	3.717921
582.350647	861.391418	13515.070313	1322.142578	3.641243
582.692566	859.979675	13497.088867	1313.077637	3.585456
583.034424	855.298584	13474.277344	1315.529663	3.647134
583.376343	857.007568	13451.838867	1320.285034	3.678314
583.718201	854.109802	13407.554688	1311.071411	3.640129
584.059937	855.818787	13337.562500	1301.040649	3.566984
584.401611	848.834290	13277.301758	1302.378052	3.649233
584.743347	852.400696	13239.703125	1302.452393	3.633169
585.085022	847.571106	13211.394531	1302.898193	3.682737
585.426514	856.710266	13210.428711	1298.885864	3.579291
585.768127	858.716492	13204.187500	1305.870239	3.622006
586.109619	868.970215	13179.593750	1310.625732	3.587597
586.451172	870.159180	13155.593750	1315.083862	3.621562
586.792542	859.459534	13182.863281	1317.610229	3.717729
587.133850	856.413269	13224.174805	1318.798950	3.738637
587.475220	850.989075	13306.057617	1328.309692	3.832340
587.816589	861.242859	13366.614258	1324.148804	3.701657
588.157776	866.518372	13481.856445	1328.384033	3.661144
588.498962	866.964172	13550.067383	1321.622437	3.584756
588.840210	864.883728	13633.211914	1327.046509	3.619603
589.181335	864.883606	13704.617188	1330.092896	3.623201
589.522400	867.112793	13749.718750	1332.024780	3.608835
589.863403	861.911621	13736.566406	1335.739990	3.680319
590.204407	859.013855	13670.511719	1329.052734	3.668883
590.545410	856.041687	13609.062500	1320.582275	3.642593
590.886353	861.688660	13469.152344	1314.712402	3.593298
591.227112	856.264587	13356.807617	1313.523560	3.657913
591.567932	863.174744	13236.882813	1312.037476	3.627552
591.908752	861.391418	13178.405273	1312.780396	3.664760
592.249512	867.929993	13180.635742	1321.027954	3.679922
592.590149	869.267517	13190.442383	1315.158081	3.618896
592.930786	867.632813	13296.250000	1312.037476	3.575657
593.271423	865.552429	13364.458008	1305.944702	3.523447
593.612000	858.939453	13555.639648	1316.198364	3.601400
593.952576	856.190247	13715.614258	1321.102417	3.615342
594.292969	853.069580	13909.840820	1322.514038	3.595410
594.633484	854.555603	14076.948242	1328.755493	3.586339
594.973877	862.357422	14295.471680	1337.746094	3.538931
595.314209	866.592590	14551.964844	1346.662476	3.507905
595.654480	874.988831	14878.153320	1355.281616	3.429888
595.994812	871.570862	15230.573242	1363.975098	3.429237
596.335022	865.180908	15496.426758	1370.142090	3.451252
596.675171	861.614441	15530.606445	1372.891479	3.485427
597.015320	861.763000	15370.484375	1369.399048	3.498834
597.355408	865.032288	15016.729492	1363.752075	3.524099
597.695496	851.955017	14609.476563	1348.817261	3.611568
598.035461	848.239929	14124.575195	1338.043335	3.689297
598.375366	849.874512	13700.531250	1322.216919	3.675629
598.715271	857.750671	13324.410156	1307.133545	3.604678
599.055176	858.939453	12976.301758	1295.690918	3.604344
599.395081	858.122070	12710.075195	1289.449585	3.639295
599.734802	859.979675	12494.746094	1284.248169	3.646558
600.074524	863.769226	12424.233398	1263.814941	3.460464
600.414246	863.620544	12390.424805	1260.842773	3.446074
600.753906	869.713379	12425.346680	1262.031616	3.395039
601.093506	871.942444	12502.101563	1272.062500	3.440366
601.433044	871.199402	12676.043945	1273.994507	3.412117
601.772583	865.552429	12889.441406	1274.217407	3.398776
602.112122	861.614319	13200.918945	1282.687866	3.412458
602.451538	863.620544	13546.128906	1294.873535	3.400376
602.790894	859.385254	13925.890625	1314.415161	3.482414
603.130310	856.413147	14286.481445	1326.452148	3.499900
603.469604	848.462708	14645.511719	1332.470703	3.508054
603.808838	849.354309	14984.778320	1344.284790	3.501349
604.148010	841.478271	15200.702148	1354.761475	3.574589
604.487305	847.571106	15211.252930	1359.219604	3.562099
604.826416	853.292419	15069.112305	1350.526245	3.497750
605.165527	862.951721	14749.833008	1338.192017	3.422225
605.504456	868.524475	14422.604492	1335.442871	3.444855
605.843445	860.128357	13974.708008	1324.966187	3.544436
606.182434	854.555664	13543.454102	1315.678345	3.634064
606.521423	851.657898	13118.218750	1303.864136	3.686496
606.860229	857.379150	12835.051758	1295.913696	3.661267
607.199036	862.951843	12694.768555	1285.882935	3.574524
607.537903	862.431641	12715.796875	1279.641479	3.519758
607.876648	860.722656	12847.609375	1283.356567	3.525802
608.215271	857.304749	13072.375000	1301.709351	3.638167
608.553955	848.165527	13311.183594	1310.105591	3.706486
608.892578	840.809570	13497.832031	1329.721558	3.862772
609.231140	841.552551	13573.027344	1349.337402	3.988421
609.569641	841.552551	13539.144531	1378.909790	4.231962
609.908081	845.044861	13407.628906	1412.271851	4.515210
610.246521	850.023132	13174.762695	1429.584351	4.702422
610.584961	854.109802	12892.487305	1457.522095	5.012405
610.923340	855.670105	12567.190430	1465.695313	5.208762
611.261597	853.366699	12208.976563	1474.760376	5.472130
611.599854	858.047852	11893.338867	1468.370239	5.530642
611.938110	862.654602	11640.487305	1459.825562	5.540733
612.276245	867.112793	11510.829102	1440.209595	5.384367
612.614319	866.964172	11346.916992	1433.076660	5.401861
612.952393	865.775391	11201.581055	1402.463867	5.192517
613.290466	861.985901	11065.977539	1386.042969	5.135805
613.628479	857.007629	10914.326172	1342.873047	4.830964
613.966370	857.750549	10798.934570	1335.962891	4.810417
614.304260	863.397644	10687.183594	1317.015625	4.617548
614.642151	859.905334	10577.809570	1310.105591	4.632689
614.979980	865.626648	10493.847656	1281.721802	4.321620
615.317749	864.140625	10422.368164	1263.591919	4.179136
615.655396	872.685486	10411.222656	1250.960571	3.965756
615.993164	865.775391	10411.445313	1236.694458	3.885731
616.330811	862.506042	10402.751953	1230.304321	3.855228
616.668396	862.803223	10396.659180	1225.697632	3.806376
617.005859	866.369812	10375.483398	1229.412842	3.817843
617.343445	868.524475	10348.881836	1222.502563	3.733805
617.680908	870.902161	10360.696289	1210.094116	3.574281
618.018311	871.719543	10343.904297	1196.868164	3.432668
618.355652	869.193298	10339.743164	1192.410034	3.412861
618.692993	866.741272	10284.610352	1194.267578	3.477711
619.030273	858.345032	10270.493164	1208.310913	3.718236
619.367554	865.775330	10235.868164	1208.385132	3.656419
619.704712	859.013733	10215.806641	1210.019897	3.751351
620.041870	863.397644	10201.837891	1198.502930	3.588450
620.379028	857.973450	10187.051758	1197.908569	3.643823
620.716064	863.471863	10191.287109	1186.614380	3.464289
621.053040	858.567932	10139.573242	1185.574219	3.523393
621.389954	858.493652	10100.339844	1184.608276	3.528674
621.726929	857.379089	10061.925781	1184.459595	3.553467
622.063843	862.134460	10058.656250	1189.586548	3.560608
622.400635	860.871338	10054.124023	1190.478149	3.585312
622.737427	861.911560	10031.165039	1195.382202	3.636835
623.074219	866.369690	10044.985352	1192.633057	3.554603
623.410889	867.409973	10069.504883	1198.948608	3.602860
623.747559	868.747375	10123.597656	1198.577148	3.563859
624.084167	863.174744	10168.922852	1199.914551	3.618622
624.420715	862.951843	10276.512695	1200.583374	3.586651
624.757324	857.973572	10392.202148	1209.202515	3.683874
625.093750	860.202576	10570.528320	1220.942261	3.715011
625.430176	858.196472	10762.229492	1221.759644	3.670860
625.766602	860.871338	10971.687500	1225.028931	3.601664
626.102905	855.447266	11168.887695	1224.360229	3.577012
626.439209	860.054016	11272.987305	1226.737915	3.521427
626.775452	853.515320	11345.356445	1227.183716	3.561514
627.111694	856.933289	11274.621094	1220.570801	3.490578
627.447876	852.029297	11182.485352	1224.583130	3.606364
627.783997	859.088074	11010.846680	1217.227173	3.527853
628.120056	868.598816	10890.401367	1215.815430	3.464612
628.456055	872.611145	10719.875977	1215.815430	3.485275
628.792053	875.434631	10551.358398	1207.493530	3.431806
629.128052	864.883606	10370.876953	1204.075562	3.568191
629.463928	865.700989	10274.581055	1201.623657	3.570273
629.799744	871.570984	10210.680664	1210.465698	3.628769
630.135559	870.382080	10118.619141	1210.391479	3.676478
630.471375	858.716492	9986.583008	1196.050903	3.695655
630.807068	849.280090	9881.742188	1196.050903	3.839162
631.142700	852.400818	9832.776367	1190.849731	3.768761
631.478333	860.574036	9760.851563	1191.369873	3.716691
631.813965	863.992004	9680.975586	1177.252319	3.552919
632.149475	864.066406	9604.370117	1171.605347	3.518630
632.484924	875.508972	9625.768555	1162.540405	3.280262
632.820435	875.806152	9688.926758	1162.911987	3.257709
633.155884	870.753601	9752.381836	1170.044922	3.369780
633.491150	861.391418	9782.993164	1182.750610	3.602035
633.826477	853.961182	9738.932617	1183.122192	3.704694
634.161804	857.973450	9683.502930	1168.261719	3.515804
634.497009	856.487488	9560.606445	1155.407349	3.434234
634.832153	855.001465	9479.541992	1152.732422	3.452137
635.167297	850.840515	9390.898438	1147.977051	3.479327
635.502380	847.051025	9326.031250	1144.484863	3.507896
635.837463	848.165527	9205.958008	1137.649048	3.463636
636.172424	856.115967	9075.706055	1135.865845	3.403453
636.507324	856.858948	8967.297852	1131.110352	3.381462
636.842224	857.601990	8897.378906	1121.451050	3.281796
637.177124	856.264465	8819.733398	1127.618164	3.407481
637.511963	856.115906	8731.089844	1121.451050	3.369346
637.846741	860.053955	8657.975586	1125.240601	3.400735
638.181396	855.818787	8580.106445	1108.150757	3.266735
638.516113	858.567932	8505.877930	1106.070313	3.236463
638.850769	863.174744	8434.844727	1101.389160	3.146128
639.185303	868.895996	8376.219727	1105.401611	3.150332
639.519836	866.072510	8331.860352	1104.732788	3.196719
639.854370	865.255188	8286.165039	1111.271484	3.315177
640.188843	862.060120	8241.954102	1110.156982	3.361794
640.523254	862.283020	8235.788086	1109.191040	3.348584
640.857605	865.106628	8180.357910	1103.766968	3.262504
641.191895	860.351257	8134.067871	1097.079590	3.254572
641.526184	863.992004	8052.111816	1093.735962	3.196162
641.860413	853.515381	8003.146484	1088.757690	3.290272
642.194580	863.843506	7961.165527	1092.250000	3.218207
642.528748	857.602051	7924.904785	1094.479126	3.351732
642.862793	864.660828	7860.187500	1085.562744	3.157759
643.196838	862.951843	7817.240723	1080.881714	3.133748
643.530823	866.072571	7778.677246	1086.008545	3.181666
643.864746	861.168518	7778.380371	1093.438843	3.357861
644.198669	859.905457	7800.894043	1094.850586	3.384894
644.532532	861.168518	7813.153809	1085.191284	3.222429
644.866333	860.871338	7856.843750	1072.857056	3.030111
645.200073	860.054016	7851.791504	1063.866455	2.915047
645.533813	861.465637	7861.525391	1066.244141	2.925382
645.867554	864.660828	7854.243652	1075.977661	3.023311
646.201172	864.735046	7863.902832	1090.020996	3.218753
646.534729	862.431641	7875.122559	1085.414185	3.179700
646.868225	857.230469	7875.345215	1084.968384	3.245001
647.201782	845.936523	7882.850098	1085.191284	3.399996
647.535217	837.688904	7888.645996	1092.101318	3.608197
647.868591	837.540283	7877.796875	1093.141602	3.630568
648.201965	846.679504	7844.881348	1087.940308	3.447469
648.535278	853.441101	7805.426270	1083.259399	3.305794
648.868591	860.797058	7806.021484	1081.030273	3.171002
649.201782	857.899170	7815.458496	1092.473022	3.371496
649.534912	859.162415	7823.408203	1097.674072	3.424803
649.868103	852.029297	7817.538574	1105.550171	3.639660
650.201172	859.682434	7808.695313	1097.822754	3.426966
650.534180	862.728943	7797.698730	1094.850586	3.347118
650.867188	869.564697	7786.404785	1095.222168	3.262436
651.200134	872.908386	7791.011719	1087.643311	3.103956
651.533020	868.821716	7775.853516	1088.312012	3.177780
651.865845	863.546204	7756.535156	1078.726929	3.121733
652.198608	852.400879	7725.923340	1089.277954	3.446225
652.531433	850.989075	7703.482910	1083.185059	3.388489
652.864136	855.001465	7674.505371	1087.494751	3.409240
653.196777	960.659851	7738.107910	1303.938477	5.065013
653.529358	970.987976	7688.919434	1311.071533	5.062325
653.861938	965.563904	7605.031250	1308.025024	5.157961
654.194519	864.214905	7416.377441	1084.299561	3.358962
654.526978	858.419250	7354.260254	1082.293335	3.446422
654.859375	865.849609	7317.628906	1079.024048	3.304119
655.191833	872.165344	7312.799316	1072.188232	3.105640
655.524170	870.753601	7331.003906	1062.083130	2.961643
655.856445	867.484192	7360.056152	1062.677490	3.006410
656.188660	872.016785	7389.703125	1073.079956	3.084886
656.520874	873.725647	7414.891113	1076.943481	3.106753
656.853088	870.382019	7468.018066	1073.674316	3.081290
657.185181	860.054016	7542.246094	1074.863159	3.214651
657.517212	859.608154	7684.387207	1085.562866	3.310799
657.849243	863.397644	7870.069824	1092.770142	3.273630
658.181274	864.660828	8090.823730	1097.971313	3.228691
658.513123	861.837219	8305.038086	1097.971313	3.172481
658.844971	860.499817	8495.847656	1108.076538	3.242507
659.176819	857.453430	8597.494141	1110.082642	3.263926
659.508667	856.858948	8610.422852	1112.683228	3.299441
659.840393	858.047852	8565.246094	1103.395386	3.183356
660.172058	856.264465	8474.745117	1101.835083	3.223354
660.503662	861.019836	8325.545898	1093.884644	3.119620
660.835266	860.648376	8131.392578	1095.890869	3.235466
661.166931	864.140625	7932.484375	1091.209839	3.212481
661.498413	865.923889	7770.504395	1096.336670	3.337100
661.829773	866.964172	7590.914551	1092.621460	3.356023
662.161194	867.632813	7397.281738	1089.352173	3.395579
662.492615	862.283020	7204.763672	1079.172729	3.419636
662.823975	858.047852	7073.767578	1081.847778	3.600547
663.155212	855.075684	6978.511230	1075.754883	3.603846
663.486450	857.601990	6918.400879	1074.194458	3.573662
663.817627	860.722717	6845.435547	1060.151367	3.332301
664.148743	856.859070	6794.686035	1047.148315	3.204695
664.479858	854.555664	6741.114746	1046.553833	3.261637
664.810913	855.744446	6707.826660	1042.764404	3.195785
665.141907	860.351257	6692.669434	1054.875732	3.335286
665.472778	858.790833	6682.117676	1050.491821	3.291950
665.803711	859.905457	6709.981934	1060.225586	3.424231
666.134583	864.958008	6705.894531	1046.925293	3.115379
666.465454	865.478088	6707.603516	1045.439331	3.080407
666.796143	861.688660	6688.730469	1037.043091	3.009321
667.126831	863.323303	6687.765625	1040.386597	3.040004
667.457458	871.273743	6676.842285	1041.203979	2.927022
667.788147	870.456360	6677.140137	1044.919189	3.004518
668.118774	871.125183	6690.439941	1049.005859	3.056729
668.449219	865.255188	6714.514160	1048.931519	3.140164
668.779663	866.369690	6698.242188	1054.132690	3.219600
669.110107	853.886902	6696.458984	1054.950073	3.441347
669.440552	851.732117	6684.570313	1050.194702	3.402504
669.770874	853.218201	6651.654297	1048.188599	3.362465
670.101135	857.304749	6600.384766	1043.210327	3.237036
670.431396	859.608154	6544.138184	1046.479492	3.287366
670.761597	855.298645	6495.172363	1037.860352	3.236982
671.091797	856.710388	6464.411621	1042.169922	3.307229
671.421875	861.688660	6430.529297	1037.117310	3.150182
671.751892	869.936218	6409.947266	1033.922363	2.960033
672.081909	877.812317	6359.050293	1026.789307	2.717944
672.411865	874.765930	6297.824219	1026.343506	2.795057
672.741821	874.171570	6253.391113	1020.473633	2.719764
673.071716	869.341858	6228.871094	1015.421082	2.725598
673.401550	867.781494	6196.103516	1013.489258	2.734590
673.731262	863.100403	6186.295410	1025.823364	3.056867
674.060974	857.379089	6149.218750	1033.030884	3.319295
674.390625	858.047852	6154.568848	1033.179321	3.306538
674.720276	854.184082	6125.888184	1026.640747	3.271365
675.049927	864.140686	6114.593750	1025.303223	3.069498
675.379395	862.283142	6082.197754	1021.736755	3.054717
675.708923	864.660828	6049.132813	1017.724426	2.952347
676.038330	856.710388	6032.117676	1016.386902	3.085294
676.367737	858.865173	6023.943848	1021.290833	3.144689
676.697083	859.385254	6017.925781	1024.040161	3.191889
677.026428	858.939453	6021.046875	1019.433411	3.109078
677.355652	853.515320	6042.000000	1019.804871	3.204973
677.684875	857.007568	6119.126465	1027.755249	3.244846
678.013977	858.716553	6189.044922	1034.591187	3.299509
678.343079	868.301575	6271.446777	1037.786133	3.136776
678.672180	871.347961	6332.003418	1031.619019	2.935015
679.001221	867.335693	6393.005859	1038.454956	3.096806
679.330139	861.688660	6458.169434	1025.971924	2.935474
679.659058	860.574036	6539.085449	1032.436401	3.026539
679.987976	861.837219	6641.028809	1025.897583	2.838812
680.316772	859.236633	6673.796387	1046.405273	3.218965
680.645630	853.663879	6664.434082	1050.714722	3.391131
680.974304	859.310974	6617.846191	1056.213135	3.419310
681.302979	855.447266	6579.060059	1050.417603	3.406421
681.631653	864.735107	6511.593262	1038.231934	3.072449
681.960266	866.295471	6424.733887	1030.652954	2.956900
682.288757	871.273682	6342.108887	1024.411621	2.799170
682.617249	863.694824	6273.155762	1024.634521	2.975152
682.945679	860.871277	6194.617676	1025.823364	3.092612
683.274109	870.159180	6107.832031	1020.845032	2.876962
683.602478	875.806152	5982.111816	1022.108337	2.865128
683.930725	873.799988	5889.233887	1015.346680	2.822222
684.259033	860.797058	5797.915527	1016.684143	3.157451
684.587280	853.292419	5775.104980	1014.232117	3.269928
684.915344	852.400818	5749.321777	1012.300293	3.265306
685.243469	858.493652	5757.717285	1011.482910	3.122725
685.571533	860.797058	5726.361816	1006.653259	2.997724
685.899536	861.837219	5715.365234	1006.133118	2.973011
686.227539	856.710388	5685.347168	1004.572754	3.062197
686.555420	853.961182	5689.507813	1003.309631	3.088553
686.883301	851.955078	5703.253906	1006.876221	3.193395
687.211121	855.818787	5739.662109	1007.544922	3.106695
687.538940	858.345032	5762.398926	1016.386902	3.222678
687.866638	858.790833	5760.169434	1022.628357	3.342683
688.194336	854.035583	5730.597656	1028.721191	3.582147
688.521973	853.069519	5688.467285	1024.114502	3.537351
688.849609	848.091248	5614.387207	1009.848328	3.393769
689.177063	855.967285	5538.970215	999.371582	3.062229
689.504578	858.122070	5481.237793	986.814453	2.783672
689.832031	859.162354	5419.417480	982.430603	2.703100
690.159485	856.264587	5334.638184	981.836121	2.803954
690.486816	849.651672	5257.214844	989.712158	3.177731
690.814087	859.236755	5214.639160	1001.377686	3.263555
691.141296	859.013855	5184.026855	1001.451965	3.293357
691.468506	861.465759	5136.695801	998.777161	3.211790
691.795715	861.168457	5086.913086	991.272644	3.078846
692.122803	861.242859	5056.597656	991.421204	3.102916
692.449829	859.905334	5037.873047	994.839111	3.229651
692.776855	859.311035	5000.127441	995.284912	3.283746
693.103821	855.372986	4978.653809	991.718445	3.306723
693.430664	870.159180	4948.486816	987.334534	2.873123
693.757568	868.970398	4925.378418	984.362488	2.844687
694.084351	874.988831	4892.462402	982.133301	2.666961
694.411133	865.329407	4884.512207	981.687500	2.895068
694.737854	862.654602	4866.977051	984.733887	3.048688
695.064575	861.837219	4853.379395	980.870178	2.982130
695.391174	861.465759	4840.302246	980.572998	2.993519
695.717773	863.843445	4865.342285	979.755676	2.896720
696.044250	860.202637	4924.264160	983.916687	3.044099
696.370789	861.317078	4988.981934	979.607117	2.865786
696.697205	855.447205	5103.333496	982.950684	3.001575
697.023621	859.236633	5240.868164	987.928955	2.937087
697.349915	858.567871	5431.751953	995.879395	3.002537
697.676208	865.106628	5631.179688	998.925781	2.807744
698.002380	862.580261	5847.623535	1005.538757	2.867748
698.328674	862.580261	6068.154785	1009.476807	2.821908
698.654724	857.007629	6193.429199	1008.287903	2.834864
698.980896	856.190247	6271.520996	1021.365234	3.050137
699.306946	846.753723	6227.830566	1025.823364	3.327766
699.632935	848.908630	6165.416504	1034.962524	3.499551
699.958862	847.496887	6021.195313	1020.845032	3.350565
700.284729	857.007629	5855.500000	1007.916443	3.019087
700.610596	856.264587	5660.826660	997.811279	2.946090
700.936340	856.413086	5468.160156	987.928955	2.851758
701.262146	853.292419	5286.192871	989.860840	3.080791
701.587830	852.029297	5140.410645	982.430603	3.040805
701.913513	859.236633	5010.009766	979.235596	2.891003
702.239075	864.289246	4898.109863	972.474060	2.681944
702.564697	867.558533	4795.349121	970.616455	2.623814
702.890137	856.784668	4704.104980	970.839355	2.964523
703.215698	855.670105	4617.468262	970.690735	3.057597
703.541016	856.338867	4551.562012	967.867249	3.018177
703.866455	857.676331	4497.469238	958.505066	2.770178
704.191711	853.441101	4474.435059	959.619629	2.932303
704.517029	857.824890	4440.776367	952.932312	2.654444
704.842163	866.518311	4402.213379	957.910645	2.584848
705.167419	872.016785	4358.969238	957.613525	2.454772
705.492493	862.580322	4329.396973	965.341003	2.964122
705.817566	858.493652	4311.415527	956.350342	2.834026
706.142578	852.549500	4290.462402	947.508301	2.762106
706.467590	859.459534	4281.099609	944.610535	2.488602
706.792480	858.865173	4264.827637	960.659851	2.988720
707.117371	856.561707	4269.805664	961.848816	3.084664
707.442200	862.505920	4272.629395	963.334778	2.956751
707.766907	866.146790	4293.136719	963.409119	2.838127
708.091675	871.793762	4303.613281	970.690735	2.881765
708.416321	864.289246	4315.130371	968.833191	3.029521
708.741028	857.750671	4326.721191	963.334778	3.043673
709.065552	854.555664	4347.675293	966.604065	3.207689
709.390137	851.360596	4378.213379	972.845520	3.444570
709.714600	843.707336	4398.423828	970.987976	3.580613
710.039063	850.394592	4435.872559	968.833191	3.303286
710.363403	852.920898	4449.395508	968.238708	3.206413
710.687744	861.317139	4503.488281	971.805237	3.033578
711.012085	861.019836	4547.698242	968.461609	2.914325
711.336304	857.750549	4610.483887	974.331543	3.106562
711.660461	862.654602	4633.963379	979.384094	3.095198
711.984619	854.407043	4624.378418	978.715393	3.297329
712.308716	858.939453	4563.970215	970.764954	3.018207
712.632751	858.196472	4507.648926	964.077820	2.901294
712.956726	864.883606	4446.869141	966.752686	2.843928
713.280701	861.837219	4411.798340	964.746521	2.898885
713.604553	869.639099	4364.541504	971.136536	2.904157
713.928467	860.499817	4343.811035	966.975586	3.056740
714.252258	856.116028	4322.783691	970.542053	3.300750
714.575989	850.097473	4321.223145	963.111816	3.255841
714.899719	856.115967	4296.703613	961.179993	3.053665
715.223267	866.741272	4296.257813	950.108887	2.430885
715.546936	857.676331	4296.332031	946.765320	2.590809
715.870422	857.081848	4301.756348	958.356445	2.940034
716.193970	855.967285	4273.446777	967.495789	3.263473
716.517395	862.803223	4241.570801	972.696960	3.252480
716.840820	857.081848	4202.784668	962.145996	3.140271
717.164124	849.725891	4173.509766	957.093445	3.230281
717.487488	848.314148	4115.033691	949.068665	3.084272
717.810730	852.475098	4048.384033	951.149170	3.087512
718.133972	853.961182	3965.610352	945.279114	2.934712
718.457092	856.487488	3895.840576	944.313232	2.889620
718.780212	858.939453	3834.020508	937.923157	2.654842
719.103210	857.156250	3797.463623	942.752930	2.911147
719.426208	858.196472	3760.163818	942.975891	2.921446
719.749207	857.824890	3729.699463	944.759094	3.027089
720.072083	859.459473	3700.647217	932.573486	2.573361
720.394958	849.874512	3674.120850	925.366028	2.672979
720.717773	851.583435	3637.861084	920.090576	2.458734
721.040527	847.199646	3609.254639	925.514709	2.835391
721.363281	854.109680	3583.991455	935.248352	2.972241
721.685913	853.663879	3581.093994	939.632324	3.151994
722.008545	857.750488	3554.567627	938.666260	3.000417
722.331055	855.075623	3540.524658	936.585754	3.035252
722.653503	862.951843	3525.738281	931.533203	2.575549
722.976013	862.208801	3522.766357	936.882996	2.806712
723.298401	868.747375	3524.549561	927.595154	2.215819
723.620789	856.636047	3522.840576	924.102844	2.530443
723.943115	861.614441	3511.917969	918.381653	2.141914
724.265381	859.756836	3492.525146	917.861572	2.206983
724.587585	866.518372	3484.797607	921.130859	2.085816
724.909790	862.208801	3487.769531	921.428040	2.255489
725.231873	862.060242	3480.636719	922.022461	2.289879
725.553894	861.391418	3481.156982	927.075012	2.507232
725.875916	912.140137	3536.512451	977.823792	2.502833
726.197937	905.378601	3554.270752	982.281921	2.903226
726.519775	903.669678	3559.323486	982.653503	2.974176
726.841675	859.831116	3525.887451	931.384521	2.683867
727.163513	866.666992	3556.425781	926.183411	2.212705
727.485291	860.722717	3600.487061	922.839783	2.267241
727.806946	856.115967	3641.873291	926.109070	2.512534
728.128662	853.292480	3655.842529	927.149231	2.635341
728.450256	857.824890	3657.997070	929.304016	2.552669
728.771790	857.676331	3653.984619	928.040955	2.516340
729.093323	871.793762	3661.563721	935.768494	2.293190
729.414795	874.691589	3664.387451	935.694153	2.186710
729.736145	877.143616	3659.037354	938.814941	2.216883
730.057495	860.871277	3652.276123	939.334961	2.810903
730.378845	867.112793	3647.669189	939.260742	2.594731
730.700134	868.598877	3660.375000	933.687988	2.331459
731.021301	872.982727	3694.108398	932.796387	2.120205
731.342468	868.153015	3740.918945	925.440430	1.994155
731.663574	870.604980	3782.751709	932.945007	2.140690
731.984680	866.444031	3790.627686	936.511536	2.396139
732.305664	857.304871	3778.590576	943.941711	2.965709
732.626648	845.416321	3744.039795	938.220520	3.201664
732.947571	844.301819	3728.584717	933.242188	3.083622
733.268433	853.143860	3698.863525	925.886169	2.556201
733.589233	850.989075	3683.111328	931.087341	2.828207
733.909973	851.880676	3664.981689	928.932556	2.739037
734.230713	849.725891	3627.458984	938.443359	3.193880
734.551331	853.143860	3576.561768	935.099792	3.009304
734.871948	853.143860	3513.627197	932.053406	2.965985
735.192505	855.967346	3479.001953	925.514648	2.651406
735.513062	866.444031	3428.104736	917.341370	1.986888
735.833435	874.022949	3376.538330	919.050354	1.799286
736.153931	869.193176	3326.904297	917.192871	1.953024
736.474304	862.654602	3316.204834	919.273376	2.307626
736.794617	860.128235	3307.288330	920.313477	2.459391
737.114807	861.317139	3314.718750	921.502380	2.453135
737.434998	863.100403	3310.037842	924.920227	2.526416
737.755188	867.855774	3321.034424	925.737610	2.359463
738.075256	876.400635	3334.037354	923.211365	1.904705
738.395325	875.508972	3353.653076	918.381653	1.730032
738.715271	873.279846	3379.584961	924.548828	2.045600
739.035278	865.552307	3373.269531	927.892395	2.485930
739.355164	866.444031	3371.560547	932.573425	2.639773
739.675049	867.261414	3347.337646	923.954285	2.285933
739.994873	863.323303	3343.547852	916.375427	2.139005
740.314636	857.973572	3314.272705	921.502258	2.586358
740.634277	853.589661	3282.619873	920.982178	2.774462
740.953979	856.784668	3243.388428	932.350586	3.166253
741.273499	862.431641	3206.756836	926.777893	2.744766
741.593140	864.660828	3185.654541	928.709778	2.759549
741.912598	860.722656	3161.506104	921.799622	2.654616
742.232117	859.979675	3133.048828	914.443665	2.396055
742.551453	857.527649	3096.937500	911.620117	2.415479
742.870850	854.406982	3054.733643	917.044250	2.846726
743.190063	855.150085	3022.188721	911.025696	2.578432
743.509338	856.487366	2987.861328	909.985535	2.510032
743.828552	865.626709	2969.434326	902.035156	1.730598
744.147705	864.437805	2956.876953	918.604675	2.588695
744.466797	871.199402	2938.672607	918.158752	2.271340
744.785828	873.948547	2936.815186	916.449707	2.060296
745.104858	877.440735	2918.387939	905.898743	1.394353
745.423706	869.639099	2923.514893	901.663513	1.559219
745.742615	871.348083	2901.149658	903.223816	1.570387
746.061401	869.341858	2905.905029	904.932800	1.747598
746.380249	869.193298	2894.536865	909.390930	1.984732
746.698975	861.837219	2905.385010	915.632385	2.632440
747.017639	862.357361	2895.577148	922.245422	2.945479
747.336304	860.425537	2880.641846	918.901794	2.894554
747.654907	855.818665	2873.063232	907.607727	2.567317
747.973389	849.354431	2874.994873	903.669678	2.681386
748.291931	843.707336	2886.437500	909.390930	3.215481
748.610352	846.828125	2882.499756	912.214539	3.212031
748.928711	859.162292	2884.431641	908.870911	2.454420
749.247070	870.159180	2885.843506	908.573669	1.905779
749.565308	872.685547	2872.914795	905.230042	1.627038
749.883545	869.044678	2862.215088	911.322815	2.121150
750.201782	865.403809	2855.899414	909.539551	2.217324
750.519836	859.533875	2860.802979	906.939026	2.368755
750.837952	850.617493	2854.264404	891.261169	2.028485
751.155884	849.725891	2842.301758	887.991882	1.920428
751.473877	853.515320	2814.364014	896.090820	2.171279
751.791809	854.184021	2807.973877	904.412659	2.570831
752.109619	862.580261	2797.125977	908.202148	2.358274
752.427490	865.775208	2805.225342	900.623230	1.796799
752.745300	865.329529	2818.079346	901.069092	1.830217
753.062988	856.413269	2831.305420	896.313660	2.020383
753.380615	857.081970	2835.614990	892.895752	1.810118
753.698303	860.276855	2819.862549	894.679016	1.755583
754.015808	859.682434	2813.843750	890.592346	1.581748
754.333374	857.602051	2804.407471	903.298157	2.347235
754.650757	854.927185	2794.599609	903.223816	2.489938
754.968262	856.933350	2787.615234	906.195984	2.551567
755.285583	857.899231	2789.621094	901.366394	2.250177
755.602905	863.397644	2793.930908	901.143372	1.955197
755.920105	860.276855	2782.042236	898.245605	1.975722
756.237305	861.465759	2779.218994	896.388000	1.820998
756.554443	859.831055	2775.875000	893.638733	1.764452
756.871582	866.666992	2783.751221	897.874023	1.627838
757.188599	864.437927	2797.125732	897.354004	1.703124
757.505615	863.917786	2818.748047	901.291992	1.911890
757.822510	865.775330	2842.599365	901.812073	1.822962
758.139465	867.484192	2878.635986	902.406555	1.736436
758.456238	857.899170	2896.542969	897.725403	1.953565
758.773010	853.069519	2920.245361	898.022705	2.174618
759.089783	847.868347	2918.908203	896.313721	2.339181
759.406433	854.035461	2933.620117	898.245605	2.125912
759.723145	852.103699	2934.957275	899.583008	2.279532
760.039673	853.218201	2942.461914	903.743958	2.418375
760.356201	854.852844	2958.437256	909.911133	2.617356
760.672668	856.784668	2968.319336	900.994812	2.093745
760.989136	865.923889	2968.319336	895.347839	1.399544
761.305481	873.279968	2964.901611	889.477844	0.774417
761.621826	872.016785	2954.350342	896.536621	1.177517
761.938049	865.106628	2970.325439	910.431213	2.152963
762.254333	854.852844	2997.966064	913.774902	2.749367
762.570496	855.224304	3102.658936	921.948242	2.968894
762.886597	854.852783	3252.824463	924.400146	2.900258
763.202637	854.852844	3466.519287	936.660156	3.132380
763.518677	858.939453	3713.278564	942.455750	2.925942
763.834656	863.397644	3929.425049	944.833313	2.656065
764.150574	866.518311	4060.049072	948.028381	2.552350
764.466370	857.750671	4075.281250	950.554688	2.884324
764.782288	853.961182	3969.028320	942.604309	2.845625
765.097961	858.642273	3809.351807	931.830383	2.480356
765.413696	863.100403	3602.196045	916.969910	1.966689
765.729309	867.632813	3428.178955	922.319641	2.135749
766.044861	865.552429	3272.960693	920.016296	2.262345
766.360474	871.199402	3163.884521	921.799561	2.207026
766.675903	867.558594	3080.219482	915.260925	2.155881
766.991394	864.512207	3021.891602	907.682068	2.001032
767.306763	859.088074	2969.731201	902.629395	2.062941
767.622131	855.670105	2921.508789	902.480774	2.265940
767.937378	855.447266	2868.605225	910.579834	2.738611
768.252625	863.620544	2809.757080	917.192810	2.752750
768.567810	863.323303	2751.727295	909.391052	2.439507
768.882996	865.106628	2710.489014	894.753357	1.606536
769.197998	856.116028	2681.733887	886.134277	1.644279
769.513062	851.286316	2685.003174	889.849426	2.103003
769.828064	852.920898	2667.541992	894.233215	2.276636
770.142944	861.168518	2663.752686	891.409851	1.677665
770.457825	865.552429	2624.594971	889.180664	1.343244
770.772705	861.911621	2595.988525	890.741028	1.662522
771.087402	851.286316	2564.409912	899.880188	2.836565
771.402100	853.069519	2550.143799	902.183594	2.894044
771.716736	861.317139	2524.955078	904.932800	2.621704
772.031372	862.877502	2495.382568	903.298157	2.475989
772.345947	868.524475	2466.850342	898.245605	1.859516
772.660461	865.032227	2452.955811	893.415955	1.787474
772.974854	869.267517	2453.624512	887.174500	1.130237
773.289246	865.478027	2454.961914	889.180664	1.491216
773.603638	868.821716	2441.810303	890.889648	1.402930
773.917908	859.310852	2422.491455	892.227051	2.105719
774.232178	862.506042	2401.463867	893.638855	2.022980
774.546265	856.338867	2395.891113	893.341736	2.403482
774.860474	858.865173	2390.764404	885.911377	1.765534
775.174561	860.054016	2387.718018	875.880432	1.035988
775.488586	861.242859	2383.928467	871.422302	0.668519
775.802551	865.998230	2371.148682	874.394348	0.557826
776.116516	864.289246	2343.210693	875.954773	0.788786
776.430359	866.518311	2335.557617	879.001221	0.849733
776.744202	873.354187	2327.904297	882.196106	0.607880
777.057922	874.765930	2338.232422	887.323059	0.858040
777.371704	877.292175	2332.436768	886.505798	0.633176
777.685303	869.267578	2325.006592	878.629700	0.643118
777.998962	868.450195	2319.210938	880.041504	0.798981
778.312500	861.762939	2308.214111	882.790710	1.453749
778.626038	861.168640	2297.811768	889.849426	1.996375
778.939453	858.419434	2286.146240	885.094055	1.868328
779.252869	855.298645	2285.031494	881.230286	1.813740
779.566223	853.441101	2284.139893	876.029114	1.578810
779.879578	848.982910	2290.901367	875.954834	1.870558
780.192749	848.908630	2284.363037	873.279846	1.697805
780.505920	849.280090	2281.019043	885.019714	2.496239
780.819031	851.360535	2267.718994	893.118652	2.948273
781.132141	864.363525	2269.353516	908.945129	3.173090
781.445190	866.815613	2273.737549	899.062927	2.292047
781.758118	863.174744	2281.836670	902.109314	2.744457
782.071045	864.215027	2273.663330	888.586182	1.729127
782.383911	871.050842	2261.626465	889.329163	1.314443
782.696838	880.115723	2240.004150	877.292236	-0.207626
783.009583	871.645203	2216.747314	882.864929	0.834117
783.322266	863.917725	2198.246094	878.926819	1.124843
783.634888	861.540100	2185.168701	874.617249	0.987977
783.947510	856.710388	2178.110107	868.598816	0.899684
784.260132	851.880676	2167.187256	877.217957	1.926340
784.572571	847.422546	2153.738525	880.338684	2.519768
784.885010	854.035461	2143.707764	884.053711	2.327587
785.197449	863.546204	2141.404297	875.731873	0.953601
785.509766	866.295410	2151.955566	868.970276	0.208054
785.822083	866.592590	2155.224854	867.038391	0.034595
786.134277	861.540039	2158.865479	878.332520	1.294392
786.446533	856.413269	2146.977051	885.094055	2.222346
786.758606	854.927063	2150.617920	889.032043	2.632185
787.070740	855.967285	2144.376709	882.344788	2.047292
787.382690	861.391418	2160.723145	883.013489	1.664092
787.694641	865.032227	2184.871338	880.190002	1.148456
788.006653	869.936218	2237.180664	885.242676	1.119511
788.318481	877.738098	2289.712646	885.391296	0.542021
788.630310	862.431641	2332.510986	883.013489	1.400050
788.942017	856.636047	2345.959717	876.029053	1.302135
789.253784	848.239929	2347.222900	879.967102	2.116580
789.565430	853.218079	2327.606934	876.846375	1.602582
789.877014	852.177917	2303.012695	877.069336	1.715662
790.188538	856.264465	2249.812256	874.840271	1.332987
790.500061	863.397644	2213.552490	873.577148	0.753951
790.811462	860.722656	2175.732178	877.738098	1.293941
791.122925	852.326477	2160.351563	884.796814	2.482394
791.434204	847.422546	2135.014160	894.530457	3.658607
791.745483	848.016907	2117.032959	891.186829	3.401842
792.056702	848.834290	2094.296631	883.310730	2.768164
792.367920	849.354431	2080.104736	877.960938	2.324315
792.678955	848.982910	2059.745605	874.022949	2.068121
792.990112	848.165527	2041.690063	876.326355	2.359468
793.301086	850.617493	2021.925415	872.908386	1.903077
793.612122	850.171631	2030.470337	876.400635	2.222234
793.922974	857.081848	2033.219727	876.623535	1.661513
794.233826	855.818787	2042.358887	870.604980	1.246161
794.544556	863.769226	2043.622070	870.233398	0.547880
794.855286	856.710388	2052.018311	870.976501	1.193510
795.166016	855.372864	2052.984131	875.137451	1.650334
795.476624	851.731995	2060.785889	880.115723	2.347598
795.787292	852.177917	2080.178955	877.886719	2.093549
796.097778	852.400818	2120.451172	879.818542	2.162195
796.408264	853.589661	2148.686035	874.840271	1.640852
796.718689	855.818665	2161.614502	872.685547	1.291694
797.029053	854.481262	2163.175049	875.954773	1.640835
797.339355	855.001465	2150.618164	880.561584	1.972815
797.649658	856.190247	2144.005127	882.493408	2.042464
797.959839	863.174744	2121.937256	879.595642	1.304527
798.270020	864.883728	2105.590576	878.555359	1.101923
798.580078	863.843445	2079.733154	883.236511	1.594969
798.890137	858.642273	2055.213379	877.292236	1.558617
799.200195	856.264587	2039.386841	871.942444	1.325126
799.510071	854.704285	2023.040161	871.496582	1.437283
799.820007	851.360596	2012.786499	875.954773	2.117585
800.129883	850.246094	1996.885742	877.217957	2.352253
800.439575	856.933289	1993.096313	877.812317	1.837679
800.749329	863.620605	1985.740234	884.053772	1.820944
801.058960	871.496582	1971.250977	879.149841	0.695906
801.368591	865.700989	1967.090210	871.645203	0.539702
801.678162	867.484192	1956.242065	864.735046	-0.252503
801.987671	867.781494	1958.173828	867.632813	-0.013636
802.297119	872.834167	1956.093384	868.078613	-0.439004
802.606506	863.917786	1958.248169	870.753601	0.624657
802.915894	856.561829	1950.446411	870.902161	1.310955
803.225159	852.029297	1930.087524	879.075500	2.508789
803.534424	853.738220	1918.570679	876.029114	2.093371
803.843628	857.156189	1916.118530	873.279968	1.522602
804.152771	861.614319	1924.068970	864.215027	0.244783
804.461792	864.586426	1932.836548	864.512207	-0.006948
804.770874	861.019958	1937.814941	864.586487	0.331217
805.079773	860.499817	1948.143066	864.289307	0.348413
805.388733	859.385254	1955.870605	870.679382	1.030030
805.697571	864.363586	1971.994263	870.159180	0.523242
806.006470	865.032227	1978.607056	865.775330	0.066731
806.315125	864.289246	1989.009399	857.899170	-0.568148
806.623901	872.091003	1989.083862	864.512146	-0.678505
806.932495	875.731750	1970.136597	869.044617	-0.611029
807.241150	877.515137	1950.446411	866.369812	-1.038773
807.549622	868.970398	1948.886108	863.100403	-0.543560
807.858154	861.094238	1942.867554	861.837219	0.068682
808.166565	858.790833	1939.895508	869.713379	1.010313
808.474915	850.394714	1917.233276	873.428528	2.159072
808.783264	848.016907	1907.648071	875.657532	2.608514
809.091492	846.307922	1887.586426	870.976563	2.369072
809.399719	845.936523	1866.855957	864.066345	1.775833
809.707825	847.645325	1850.435059	856.636047	0.896571
810.015930	854.555603	1843.301880	860.648438	0.616218
810.323975	863.471863	1835.128540	870.456360	0.718824
810.632080	865.329407	1836.466187	872.239685	0.711566
810.939880	868.450195	1833.568237	869.564697	0.115478
811.247864	861.317139	1829.481445	864.883606	0.368374
811.555664	858.196472	1818.930542	867.558533	0.974469
811.863464	852.698059	1811.946167	871.347961	1.944221
812.171143	852.475098	1810.980103	866.444031	1.457367
812.478882	859.088074	1803.475708	871.793762	1.345389
812.786438	865.329590	1785.345825	877.069336	1.276037
813.094055	874.468750	1769.742188	876.474915	0.224084
813.401489	872.091064	1765.581177	870.010559	-0.232852
813.708984	861.391418	1779.698853	851.732117	-1.051859
814.016357	852.326477	1788.986694	860.128357	0.832947
814.323730	849.280090	1791.513062	862.357422	1.387908
814.630981	852.549377	1772.342773	871.942383	2.108409
814.938232	858.865173	1755.476074	866.295410	0.828703
815.245361	856.933289	1742.993164	868.747375	1.333328
815.552490	862.951843	1750.497681	867.930115	0.560903
815.859619	857.824890	1766.026978	864.214905	0.703589
816.166565	863.174622	1785.494263	863.323303	0.016120
816.473572	860.276917	1798.497437	858.047852	-0.237584
816.780457	865.998230	1806.893555	861.763000	-0.450128
817.087341	866.592712	1808.156738	862.877502	-0.394579
817.394043	867.484314	1814.769897	862.283020	-0.549073
817.700806	863.397644	1823.166016	863.174744	-0.023224
818.007507	863.323242	1833.642578	862.803223	-0.053593
818.314209	862.357361	1836.168823	866.146790	0.389134
818.620667	866.295410	1844.416382	863.471863	-0.288671
818.927246	863.620544	1868.936157	862.877441	-0.073917
819.233704	859.162415	1909.654175	870.753601	1.103406
819.540161	857.304871	1949.480469	874.840332	1.605553
819.846497	866.072571	2009.071289	870.233459	0.364033
820.152832	870.010559	2075.052002	868.301575	-0.141820
820.458984	865.775391	2181.379395	870.159180	0.333215
820.765259	854.927063	2282.208008	878.258240	1.634659
821.071350	860.202576	2411.717529	882.642090	1.446297
821.377502	865.998230	2606.465088	892.301331	1.511267
821.683472	870.382080	2999.377930	907.830566	1.758974
821.989441	866.815613	3786.243408	929.081238	2.132802
822.295349	862.580322	4969.811523	959.025208	2.348173
822.601196	863.992004	6462.998535	1005.910217	2.534703
822.907043	859.682434	7811.296387	1043.804565	2.648624
823.212769	859.831055	8566.137695	1065.203857	2.664997
823.518494	855.967285	8475.339844	1066.615601	2.764641
823.824097	854.035461	7689.662598	1048.485718	2.844659
824.129700	850.617615	6587.382324	1021.959656	2.986737
824.435242	848.016907	5502.710938	982.356262	2.886105
824.740723	850.320313	4587.747559	958.282227	2.888669
825.046082	854.184082	3935.072021	939.780823	2.778314
825.351501	858.716553	3481.379639	923.880066	2.484632
825.656799	859.979736	3193.382568	913.849304	2.308627
825.962036	860.053955	3010.746338	907.459167	2.204184
826.267212	859.756775	2931.762451	908.647949	2.359606
826.572449	862.283020	2958.808594	904.561340	2.016590
826.877502	867.558533	3127.550049	908.499329	1.811546
827.182495	869.787598	3428.402100	924.697327	2.146073
827.487488	864.660828	3785.352295	935.917175	2.439708
827.792419	857.379150	4044.817139	942.901550	2.683108
828.097290	854.629944	4083.157227	933.390808	2.439529
828.402100	862.283142	3899.183838	931.458923	2.277841
828.706848	867.112793	3574.183838	922.171082	2.033869
829.011597	866.592712	3198.955078	910.282532	1.873200
829.316223	863.843445	2841.633057	900.920471	1.874670
829.620789	866.369690	2563.146484	894.158997	1.637770
829.925354	869.490417	2350.195068	890.369568	1.410082
830.229797	873.354187	2196.536865	889.032166	1.184869
830.534302	874.022949	2059.448486	888.363342	1.209725
830.838562	871.645264	1968.056030	886.728699	1.375710
831.142944	868.078674	1904.601563	874.691589	0.637990
831.447144	860.128235	1862.694824	867.707214	0.755958
831.751404	854.481262	1832.750977	864.660828	1.040568
832.055542	853.886902	1818.782104	871.125061	1.786532
832.359619	852.697998	1818.410522	874.765930	2.285145
832.663635	860.202637	1858.756836	868.227295	0.803628
832.967651	862.208740	1923.623047	860.202637	-0.189003
833.271545	863.174622	2060.860107	855.150085	-0.670004
833.575439	860.053955	2234.505615	865.478088	0.394640
833.879211	859.831055	2483.419922	881.750427	1.350057
834.183044	859.385254	2719.999756	894.381897	1.880919
834.486694	860.128235	2898.549072	906.716125	2.285489
834.790344	852.029297	2953.681641	903.892639	2.467741
835.093933	856.264648	2899.143555	906.939026	2.480537
835.397522	857.527649	2717.696289	899.285828	2.244860
835.700928	863.843445	2489.289795	894.158875	1.865053
836.004395	867.781494	2263.112305	882.790588	1.075666
836.307739	866.666931	2107.373779	873.131287	0.521022
836.611023	868.598816	1980.762085	867.781494	-0.073489
836.914307	869.787659	1881.344849	864.586487	-0.514175
837.217529	868.153015	1800.726440	862.283020	-0.629441
837.520691	868.375793	1737.271851	860.351257	-0.923532
837.823730	865.552429	1680.058716	850.691895	-1.824484
838.126831	870.382080	1623.960083	858.047852	-1.636755
838.429749	868.673096	1593.421875	858.345032	-1.425054
838.732727	865.032227	1562.957642	865.998230	0.138411
839.035522	863.471924	1550.623413	857.230469	-0.908308
839.338379	854.852783	1544.827759	859.311035	0.646147
839.641113	855.595886	1569.942261	858.345032	0.384848
839.943848	855.447266	1604.121460	868.747375	1.776488
840.246460	861.911560	1657.842285	870.679382	1.101581
840.549072	860.202637	1711.265991	877.812317	2.069139
840.851563	859.013672	1756.442017	878.481140	2.169250
841.154053	860.351135	1759.339966	882.939270	2.512616
841.456482	863.249023	1710.523071	875.954773	1.499603
841.758850	868.821716	1640.307007	868.821777	0.000008
842.061157	865.700989	1569.050659	859.533875	-0.876821
842.363403	863.249023	1516.221313	852.252258	-1.684109
842.665588	856.338867	1475.057617	846.679504	-1.561188
842.967712	859.013733	1440.655640	839.546448	-3.346954
843.269775	860.574158	1419.033325	848.239929	-2.208618
843.571777	860.351257	1404.618652	846.382324	-2.566557
843.873840	859.756836	1391.169922	855.967346	-0.713097
844.175659	853.961121	1375.789429	849.205811	-0.911279
844.477600	856.710266	1366.278442	856.710449	0.000036
844.779297	858.790833	1367.690308	855.670166	-0.613219
845.081116	861.317139	1354.390015	860.574036	-0.150709
845.382751	860.202637	1343.616089	857.527649	-0.553354
845.684387	861.465759	1317.535767	855.893066	-1.221894
845.985962	862.728821	1302.378052	852.920898	-2.230852
846.287537	852.549500	1276.595093	848.834290	-0.876135
846.588989	847.422546	1263.666382	841.106873	-1.517301
846.890381	851.509216	1263.517700	836.202820	-3.715068
847.191711	866.369812	1271.468140	834.865417	-7.776975
847.493042	868.450195	1271.319580	835.608398	-8.151972
847.794250	867.781433	1275.331909	842.295654	-6.253404
848.095459	864.363586	1272.434082	840.438171	-5.863059
848.396606	867.335632	1264.186523	848.091309	-4.849258
848.697693	869.341797	1256.087524	851.211975	-4.687788
848.998657	866.146790	1247.914185	856.636047	-2.491240
849.299622	853.738281	1254.527100	852.623718	-0.278092
849.600464	847.199646	1242.564453	848.388489	0.300695
849.901367	845.564941	1240.186646	852.177917	1.675776
850.202087	853.218079	1234.093872	846.679504	-1.716721
850.502808	854.555664	1230.527344	835.162598	-5.158119
850.803467	852.920959	1225.177490	829.589905	-6.267467
851.104065	851.955017	1221.833862	837.688782	-3.857002
851.404663	855.595886	1232.533447	851.360535	-1.123621
851.705139	858.790833	1235.728516	845.639221	-3.489068
852.005615	860.648438	1227.183716	839.100647	-5.878777
852.306030	859.682434	1221.685303	840.363770	-5.336606
852.606384	861.094238	1215.592651	851.360535	-2.745768
852.906616	862.060242	1218.267456	856.933289	-1.439318
853.206909	855.893066	1207.047729	855.595886	-0.084629
853.506958	854.258362	1210.614258	853.812561	-0.125100
853.807129	856.413269	1211.134277	850.023193	-1.801437
854.107178	860.722717	1218.416016	848.760010	-3.344404
854.407166	861.911621	1209.425415	850.840515	-3.185803
854.707092	862.951843	1212.100220	855.818787	-2.042987
855.007019	860.648438	1197.908569	851.806396	-2.621727
855.306763	853.812561	1204.447144	844.153259	-2.754806
855.606567	849.948792	1200.137573	843.856018	-1.739854
855.906250	856.264465	1200.137573	840.958252	-4.451123
856.205933	865.849609	1195.828003	846.530945	-5.854524
856.505493	870.679260	1190.255249	843.781738	-8.416628
856.805054	874.468750	1199.914673	849.725891	-7.602756
857.104492	873.354187	1197.611206	844.004639	-9.051322
857.403931	867.187073	1197.016846	848.016907	-5.812140
857.703308	859.162415	1191.072632	848.239807	-3.290832
858.002563	858.345032	1189.586548	847.793945	-3.185315
858.301819	858.047852	1190.403931	842.592834	-4.650138
858.601013	857.676270	1186.094360	838.654785	-5.791851
858.900208	857.156189	1181.413330	843.856018	-4.101736
859.199219	856.264465	1183.642334	841.626953	-4.471137
859.498291	853.143799	1183.716675	845.713562	-2.247685
859.797302	859.013855	1181.859009	842.072754	-5.247438
860.096191	864.215027	1177.029419	848.016907	-5.178189
860.395020	867.632874	1169.376343	846.159424	-7.116459
860.693787	868.895996	1162.020386	837.020203	-10.874494
860.992554	865.106506	1162.391724	826.320618	-13.046693
861.291260	874.394348	1168.038696	830.184326	-15.055635
861.589844	869.564758	1179.630005	839.472168	-9.705244
861.888428	875.806152	1176.583618	846.679504	-9.683786
862.186890	871.273682	1173.240112	847.942627	-7.726374
862.485413	864.809326	1172.942749	850.097412	-4.774527
862.783813	860.351135	1172.719849	847.571106	-4.091328
863.082153	856.115967	1177.029419	845.713562	-3.241498
863.380371	862.283020	1181.338989	844.896240	-5.449445
863.678589	858.493652	1181.784790	847.571106	-3.378548
863.976746	855.447266	1186.763062	840.660950	-4.462907
864.274902	856.338867	1180.521606	842.369934	-4.308969
864.572937	865.626648	1177.029419	842.741394	-7.349085
864.870911	864.512146	1173.537109	846.605225	-5.794652
865.168884	868.673096	1166.552612	842.444153	-8.805219
865.466736	860.722656	1164.546509	840.735168	-6.578643
865.764587	872.982605	1160.608398	841.403992	-10.979062
866.062317	868.747375	1163.803467	842.444275	-8.914610
866.360107	879.372742	1165.512451	841.181091	-13.347204
866.657715	875.360352	1159.419678	833.453613	-14.752812
866.955322	874.468750	1158.082153	833.007813	-14.618821
867.252808	865.329407	1151.915161	835.608398	-10.370721
867.550293	863.917725	1158.007935	842.964417	-7.124789
867.847717	859.311035	1151.246338	844.450439	-5.090373
868.145081	854.629944	1155.333008	845.787903	-2.940456
868.442383	847.348328	1149.834595	845.416321	-0.638709
868.739624	844.450439	1151.915039	842.221375	-0.724983
869.036804	851.880676	1152.658081	843.335876	-2.840905
869.333984	855.149963	1156.967651	848.314209	-2.264862
869.631042	860.945618	1164.174927	848.314148	-4.165649
869.928101	859.979675	1164.620850	841.775574	-5.975588
870.224976	864.066345	1159.271118	834.493835	-10.017626
870.521851	866.444031	1167.890259	835.831299	-10.155288
870.818726	859.608215	1162.391724	838.208984	-7.067502
871.115479	860.945618	1159.270996	844.153137	-5.628914
871.412231	854.332703	1153.772583	846.010803	-2.779155
871.708862	858.345032	1153.995483	845.936523	-4.197020
872.005493	857.602051	1166.404175	836.797180	-6.737282
872.302063	868.895996	1162.688843	834.791077	-11.608492
872.598572	865.329407	1170.564941	836.054199	-9.591022
872.895020	863.249023	1166.329834	835.757019	-9.070849
873.191406	850.246033	1166.998657	838.952087	-3.565541
873.487671	848.908691	1169.970703	842.072754	-2.129164
873.783997	848.462830	1173.685913	843.187256	-1.622140
874.080200	862.654602	1171.307983	841.626953	-6.812706
874.376343	867.335632	1158.453735	840.289490	-9.290437
874.672424	865.255127	1159.196655	841.998352	-7.912041
874.968445	858.419250	1154.292725	836.871582	-7.282731
875.264465	859.385254	1166.627075	831.819031	-8.972158
875.560364	858.345032	1162.614624	836.945862	-7.032964
875.856201	860.276855	1163.729248	835.459900	-8.178204
876.152039	865.923889	1160.088379	839.992249	-8.815353
876.447754	869.936218	1160.162720	835.311218	-11.930337
876.743469	871.942383	1159.865601	841.181152	-10.683831
877.039063	870.233398	1164.175171	838.209045	-10.894794
877.334595	870.307800	1160.608521	843.335938	-9.291008
877.630127	866.964172	1173.314331	843.558838	-7.640059
877.925537	862.283020	1168.484619	843.781738	-6.042190
878.221008	855.447205	1170.193481	839.992249	-4.910290
878.516296	852.400818	1166.404175	852.995300	0.189324
878.811646	855.521484	1180.447266	853.886902	-0.503063
879.106812	861.094238	1198.205688	857.899231	-0.947760
879.401978	862.951721	1218.267334	852.029297	-3.074006
879.697083	854.184082	1249.920410	860.499817	1.595945
879.992126	860.574036	1293.313110	861.911621	0.309097
880.287109	862.654602	1350.452026	854.406982	-1.690788
880.582031	871.868164	1428.024048	849.354431	-4.048098
880.876892	862.580322	1588.443726	851.434875	-1.535474
881.171753	854.555664	1869.902344	863.769104	0.907418
881.466492	856.933289	2324.486084	879.521301	1.539162
881.761230	862.357422	2904.641846	891.558350	1.429817
882.055786	867.335632	3481.973877	910.951416	1.668138
882.350403	866.444031	3834.912109	923.285645	1.914847
882.644958	860.945618	3864.038330	924.994629	2.132768
882.939453	859.905334	3605.613525	914.443665	1.986312
883.233826	856.190247	3198.880615	895.050598	1.658792
883.528137	856.710388	2781.522217	890.592468	1.760280
883.822449	855.447205	2416.398926	884.648254	1.870721
884.116577	857.750488	2144.302246	885.168396	2.131116
884.410828	861.168457	1926.000977	881.156006	1.877060
884.704956	865.106628	1757.110718	874.988831	1.107865
884.999023	864.289246	1621.136841	872.016785	1.021016
885.292969	865.329529	1520.828125	861.985840	-0.510099
885.586914	865.626709	1450.686401	857.379089	-1.409706
885.880798	876.623535	1400.903442	853.292419	-4.450126
886.174622	874.022949	1370.439453	856.933289	-3.442605
886.468384	871.942383	1345.325073	856.487488	-3.264778
886.762085	860.053955	1317.387207	853.366760	-1.462215
887.055664	860.053955	1283.059448	849.725891	-2.441591
887.349304	858.939453	1253.189575	843.410217	-3.938930
887.642822	849.725891	1237.511841	844.450439	-1.360403
887.936340	845.862244	1228.744141	840.289368	-1.455508
888.229736	845.119141	1212.100464	844.301758	-0.222731
888.523071	851.657715	1188.620728	844.153137	-2.227122
888.816284	854.704163	1166.181274	849.502991	-1.669841
889.109619	859.088074	1147.679810	841.775574	-5.998959
889.402710	860.351135	1147.605591	841.106750	-6.699421
889.695862	861.391418	1140.472534	837.242981	-8.652839
889.988892	861.985840	1136.459961	843.335876	-6.794798
890.281921	867.781555	1116.992798	841.701172	-10.465171
>>>>>End Processed Spectral Data<<<<<
