Jaz Data File
++++++++++++++++++++++++++++++++++++
Date: Fri Jun 04 14:22:25 2021
User: jaz
Dark Spectrum Present: Yes
Reference Spectrum Present: Yes
Processed Spectrum Present: Yes
Spectrometers: JAZA3586
Integration Time (usec): 40000 (JAZA3586)
Spectra Averaged: 10 (JAZA3586)
Boxcar Smoothing: 1 (JAZA3586)
Correct for Electrical Dark: No (JAZA3586)
Strobe/Lamp Enabled: Yes (JAZA3586)
Correct for Detector Non-linearity: No (JAZA3586)
Correct for Stray Light: No (JAZA3586)
Number of Pixels in Processed Spectrum: 2048
>>>>>Begin Processed Spectral Data<<<<<
W	D	R	S	P
191.335022	0.000000	0.000000	0.000000	0.000000
191.713211	254.189621	258.499176	250.102966	-94.827766
192.091385	508.230621	516.626831	506.967438	-15.044688
192.469528	772.674011	771.187988	767.472839	350.006165
192.847641	780.624451	773.416992	775.423157	72.165436
193.225739	795.039124	782.630554	784.265198	86.826492
193.603790	801.949280	798.754211	793.775940	255.811111
193.981842	807.819153	804.549988	805.292908	77.274933
194.359863	808.413574	812.797546	813.763367	122.030716
194.737854	806.258789	820.896484	820.822083	99.491707
195.115829	811.162781	827.509460	822.233887	67.726936
195.493774	812.871765	818.444519	819.410339	117.331116
195.871704	817.181335	813.614807	820.970703	-106.248077
196.249603	820.153381	815.992493	820.524963	-8.930352
196.627457	824.983093	823.794250	821.565186	287.498718
197.005310	818.815979	818.593079	818.444519	166.648407
197.383133	816.735535	817.850098	820.896484	373.325653
197.760910	822.456848	816.438293	820.153381	38.272758
198.138687	826.989258	822.902649	815.472351	281.820618
198.516449	818.518799	814.060608	805.441467	293.332703
198.894180	807.596252	813.763428	802.543701	-81.926506
199.271866	813.614807	808.562195	796.302246	342.645752
199.649536	817.032715	814.357727	790.506653	991.632996
200.027191	817.404236	811.608582	787.237366	520.508423
200.404816	811.534363	816.958435	795.707825	-291.783325
200.782410	810.419861	827.806641	801.577820	-50.854965
201.159988	807.819275	844.153259	805.069885	-7.566992
201.537537	806.630371	848.760010	800.834717	-13.756715
201.915070	810.865540	847.496887	805.441467	-14.807187
202.292557	810.568420	843.112976	802.543701	-24.657640
202.670029	807.596191	847.050964	794.518982	-33.144810
203.047485	800.537415	843.930237	790.952454	-22.088816
203.424911	802.172180	836.722961	789.837891	-35.699017
203.802292	804.772766	831.670410	797.936951	-25.414179
204.179688	805.441406	834.716797	802.766602	-9.136701
204.557037	805.218506	839.100586	808.265076	8.991685
204.934357	798.754211	847.794006	801.652100	5.909258
205.311661	803.509583	841.924133	798.902893	-11.992043
205.688934	802.395081	844.524719	793.478821	-21.163864
206.066177	807.967773	831.596008	801.280579	-28.301712
206.443390	800.314636	834.493835	801.429138	3.260761
206.820587	793.998840	842.518555	801.652100	15.773504
207.197769	793.107239	846.159424	800.834717	14.565805
207.574921	797.714050	843.484436	798.679993	2.110409
207.952042	804.326965	831.447449	806.927551	9.589010
208.329147	802.097961	832.116150	802.840881	2.474899
208.706223	808.116516	848.388428	814.803711	16.605108
209.083267	798.011230	843.038757	810.642761	28.052908
209.460297	794.964844	843.187317	810.716980	32.665550
209.837280	780.624329	834.791016	801.800598	39.094635
210.214264	779.584167	848.685730	799.200012	28.386976
210.591217	777.503662	850.543274	794.816223	23.702974
210.968124	777.577942	847.422546	795.782166	26.063894
211.345016	786.419983	840.586731	787.831726	2.606291
211.721893	785.379700	841.181152	787.385925	3.595293
212.098724	797.193909	851.211975	784.636719	-23.246279
212.475555	795.930725	853.292480	788.574707	-12.823907
212.852356	800.240295	847.571106	799.645813	-1.256016
213.229126	792.438538	840.809570	807.224792	30.568409
213.605865	793.478760	844.153137	809.156555	30.938309
213.982590	793.032959	851.657776	803.509583	17.870628
214.359283	793.701660	847.496826	791.844055	-3.453108
214.735931	791.844055	837.242981	789.763672	-4.582450
215.112579	788.946289	830.778748	787.980408	-2.308928
215.489197	784.711121	830.481506	788.500488	8.279081
215.865799	783.819397	833.082092	789.094910	10.708941
216.242355	790.432373	835.979919	784.265198	-13.540082
216.618896	796.450867	840.586731	785.231140	-25.420883
216.995407	792.810059	842.444336	780.029968	-25.748516
217.371902	790.729553	842.370056	783.596497	-13.812911
217.748367	795.113464	843.484558	782.556213	-25.960238
218.124802	799.868713	843.335938	784.488098	-35.384396
218.501236	800.463196	849.205872	788.128967	-25.304783
218.877609	794.147461	847.571106	787.906067	-11.682831
219.253983	792.884277	853.886902	792.067078	-1.339614
219.630295	790.358093	855.224304	786.940186	-5.269165
220.006592	796.970947	859.979675	786.791504	-16.155609
220.382889	796.822449	855.224304	787.608887	-15.776146
220.759140	797.862610	848.239807	792.810059	-10.029441
221.135391	791.101074	843.112976	796.673828	10.714382
221.511581	789.689270	848.537109	794.221741	7.702017
221.887772	783.224915	852.475098	797.119629	20.064516
222.263931	780.401550	861.168518	794.147461	17.019224
222.640060	781.441711	861.614441	795.707825	17.794222
223.016159	783.150696	864.215027	790.803894	9.440895
223.392212	780.178528	858.642273	790.283691	12.878768
223.768265	773.862854	863.100403	791.695557	19.983408
224.144302	776.389160	862.134460	788.500488	14.124772
224.520294	784.933899	861.391418	792.958679	10.495737
224.896286	794.593323	863.174744	792.141296	-3.575351
225.272217	799.274414	869.638977	796.005066	-4.646299
225.648148	803.361023	874.691589	798.605652	-6.666667
226.024048	798.902832	879.447021	803.732605	5.996426
226.399902	792.289856	886.208496	804.401306	12.895683
226.775772	786.791504	895.199158	802.840820	14.804597
227.151581	784.933899	897.279602	796.896667	10.648176
227.527374	786.568665	909.613831	798.159851	9.420270
227.903137	788.797668	932.647705	794.816223	4.183909
228.278870	790.283691	952.486511	801.131897	6.688050
228.654572	791.101074	975.891907	798.754211	4.141513
229.030273	794.518982	997.439697	798.679932	2.050530
229.405930	796.228027	1022.925598	789.392090	-3.015444
229.781555	795.113464	1032.361938	784.339539	-4.541199
230.157181	788.277588	1032.510620	782.259033	-2.464267
230.532761	787.385925	1028.869751	788.797668	0.584612
230.908325	795.187683	1018.095886	794.741882	-0.199993
231.283859	798.457031	1006.876160	798.605652	0.071309
231.659332	802.023621	993.798828	797.639709	-2.285964
232.034821	798.902832	981.687500	800.314636	0.772387
232.410263	799.571533	970.393555	798.902832	-0.391461
232.785690	791.918457	961.328613	795.856445	2.324529
233.161087	788.500488	956.350281	791.398254	1.726404
233.536469	780.698730	952.709473	795.187744	8.423319
233.911804	781.664734	962.517395	798.234131	9.161821
234.287140	785.156921	978.195313	802.469421	8.968423
234.662430	790.209473	987.631836	805.887390	7.941308
235.037704	793.478760	994.393372	800.834717	3.661236
235.412933	790.283752	994.541992	802.915222	6.184069
235.788162	789.837891	1000.634766	798.382751	4.053599
236.163345	785.602722	998.925781	810.419739	11.633536
236.538513	790.506653	998.331360	804.104065	6.542731
236.913635	783.670837	1002.566650	795.336365	5.329260
237.288742	792.661438	1010.442688	787.980286	-2.149474
237.663834	789.912292	1017.872986	787.608826	-1.010467
238.038879	792.661438	1014.157776	798.382751	2.583029
238.413910	793.478760	1016.981262	804.029785	4.720764
238.788910	794.147461	1023.891418	810.716980	7.212168
239.163879	799.200134	1040.758179	808.785156	3.967999
239.538834	796.005066	1051.383423	809.825378	5.411701
239.913757	801.057617	1072.782715	805.887268	1.777403
240.288651	797.416809	1088.534790	801.429199	1.378269
240.663528	789.912292	1113.946411	795.707825	1.788556
241.038361	790.209473	1148.348511	795.559265	1.493775
241.413177	795.336365	1202.886719	795.707825	0.091145
241.787979	801.354797	1269.833618	801.280518	-0.015856
242.162735	793.998840	1326.898071	807.744873	2.579481
242.537476	785.379700	1375.269165	813.317566	4.736119
242.912170	787.831787	1403.578491	825.874756	6.178347
243.286865	792.958679	1411.008789	830.555847	6.083191
243.661514	802.840881	1390.055298	835.162598	5.504244
244.036148	804.401306	1359.145386	825.280334	3.763723
244.410751	797.565430	1324.594604	816.958435	3.679683
244.785339	795.113464	1318.947632	813.689148	3.546100
245.159882	790.655273	1326.526489	811.608643	3.910150
245.534378	794.964844	1368.135864	807.521973	2.190817
245.908890	794.370422	1433.522461	811.682922	2.708667
246.283356	796.228027	1546.685547	810.419739	1.891075
246.657791	790.655273	1671.439819	820.450684	3.382826
247.032196	780.104309	1786.460327	823.868591	4.348787
247.406586	780.847351	1854.224487	819.261780	3.578838
247.780960	786.494324	1884.762817	820.302002	3.078271
248.155289	789.094910	1863.214844	819.781921	2.856945
248.529602	787.683167	1786.088867	827.063538	3.944325
248.903870	785.528320	1686.968872	825.428955	4.426319
249.278122	793.998840	1594.536499	819.187500	3.146468
249.652344	793.701660	1526.772339	810.791321	2.331243
250.026550	791.101074	1469.856445	810.716980	2.889982
250.400711	790.283691	1430.253052	816.958435	4.168128
250.774857	797.193848	1416.730103	823.051270	4.173674
251.148987	800.314636	1439.466797	826.914978	4.161817
251.523071	794.741882	1464.952515	817.181335	3.348119
251.897125	790.506653	1506.859009	817.775818	3.806669
252.271164	788.203308	1516.890015	806.407410	2.498207
252.645187	787.831726	1535.242798	812.723145	3.330352
253.019165	788.054626	1518.821899	811.014221	3.141848
253.393112	793.181458	1501.286499	822.679688	4.165799
253.767044	796.376526	1464.803833	820.599304	3.623846
254.140930	793.998840	1436.642944	825.874817	4.960129
254.514801	794.741882	1418.215820	826.171936	5.041118
254.888657	799.125793	1410.191406	832.190491	5.410990
255.262466	803.435303	1402.538086	826.766357	3.894333
255.636276	802.469421	1404.767212	818.072998	2.590675
256.010010	797.193848	1419.033325	811.905823	2.365880
256.383759	794.296082	1455.664673	813.614746	2.921013
256.757446	788.649109	1505.967651	813.837646	3.511486
257.131134	792.661438	1556.642090	817.329895	3.228937
257.504791	787.014404	1627.898438	820.970703	4.038167
257.878418	789.540710	1710.820190	822.308289	3.556747
258.252014	783.522217	1819.747681	825.280334	4.029830
258.625580	782.259033	1943.164673	825.503235	3.725040
258.999115	776.760559	2099.274658	830.481445	4.062027
259.372650	779.361267	2286.368896	835.831299	3.747163
259.746124	777.800842	2457.859619	844.896301	3.993638
260.119598	786.345703	2567.307617	846.010803	3.350162
260.493042	785.751282	2581.499756	843.410156	3.210855
260.866425	802.840881	2511.208984	835.979919	1.939807
261.239838	804.178406	2382.145264	849.205811	2.853508
261.613159	808.190735	2232.276855	845.713562	2.634871
261.986511	803.063782	2116.364502	842.890076	3.032534
262.359802	800.686218	2029.355957	826.543457	2.104491
262.733063	801.503479	1969.319336	826.617737	2.150532
263.106293	797.491150	1930.904907	822.531067	2.209248
263.479523	793.330139	1908.316772	823.348450	2.692258
263.852692	798.011230	1913.666504	829.144043	2.790540
264.225861	795.187744	1891.970093	827.435059	2.940174
264.598969	795.410645	1888.775024	829.887146	3.153249
264.972076	795.187744	1894.645020	823.571472	2.581613
265.345154	792.958679	1943.387695	837.466003	3.868759
265.718201	794.147461	1994.285034	843.855957	4.141900
266.091217	788.649109	2052.241211	851.955017	5.009996
266.464203	795.410645	2117.627686	847.719727	3.956165
266.837158	802.320740	2175.137939	847.050964	3.258280
267.210114	802.989502	2221.131348	838.134705	2.478257
267.583038	796.971008	2232.648193	835.162598	2.660179
267.955902	789.689270	2247.731689	831.596008	2.874178
268.328766	793.255859	2259.322998	832.784851	2.696261
268.701569	793.701660	2281.910645	835.533997	2.810918
269.074371	788.500488	2299.891846	835.236877	3.092276
269.447144	785.082581	2326.121094	838.134583	3.442614
269.819885	782.556335	2375.606689	842.518494	3.763984
270.192596	780.921631	2488.472656	853.961121	4.277441
270.565277	776.017578	2635.814697	865.329529	4.802242
270.937927	781.367371	2794.897217	871.645264	4.483564
271.310577	784.339539	2921.508789	873.725769	4.182459
271.683136	787.014465	3005.322266	874.543030	3.945736
272.055725	781.738953	3035.117432	884.202393	4.547103
272.428284	786.568604	3011.043701	883.459290	4.355665
272.800812	789.094910	2948.703369	877.737976	4.104590
273.173279	797.639709	2868.828125	856.041565	2.819727
273.545776	805.590088	2817.781982	845.936462	2.005096
273.918152	803.361023	2766.810547	848.239929	2.285717
274.290558	804.029724	2730.699219	846.605225	2.209798
274.662964	791.101074	2703.207275	846.456543	2.895000
275.035278	793.850281	2721.634521	849.428711	2.883021
275.407593	792.884338	2763.763916	853.738220	3.087651
275.779907	792.809998	2820.605469	859.385254	3.283135
276.152161	782.184753	2866.822021	857.230530	3.599944
276.524384	773.268372	2917.942139	871.273682	4.569707
276.896606	775.348877	2942.164795	865.923889	4.180097
277.268799	779.658386	2960.814697	867.261414	4.016357
277.640930	787.534485	2968.170898	864.066345	3.509611
278.013031	791.026672	2972.331787	865.923889	3.433596
278.385162	798.605652	2976.343994	862.134460	2.917192
278.757233	791.621155	2979.836182	856.784668	2.977930
279.129272	793.255859	3000.938232	863.694824	3.190629
279.501282	787.311584	3041.135986	859.385254	3.197839
279.873230	786.791504	3120.120117	862.877502	3.260835
280.245178	786.048523	3222.509033	862.728821	3.147201
280.617126	790.358093	3351.647217	869.044617	3.072145
280.988983	794.073181	3467.410889	876.697754	3.090690
281.360870	800.166016	3585.700928	880.338684	2.878179
281.732697	798.902832	3684.077393	888.660583	3.110999
282.104492	803.881165	3740.324463	884.945496	2.760630
282.476288	792.735779	3760.534912	888.214661	3.217161
282.848053	788.054688	3738.466797	882.790588	3.210938
283.219757	783.670715	3739.804443	880.487305	3.275109
283.591461	786.865906	3716.993408	878.852600	3.139341
283.963135	792.512878	3734.380615	880.264343	2.982849
284.334747	793.032959	3773.835205	885.465515	3.100929
284.706360	793.701660	3871.617432	890.740967	3.152760
285.077942	791.992676	3994.514404	896.239441	3.255146
285.449524	804.326904	4092.445313	902.109375	2.973812
285.821014	807.521973	4124.172363	902.778137	2.872059
286.192535	808.413574	4145.943359	902.109375	2.807340
286.563995	800.983398	4137.770020	900.771912	2.990557
286.935425	794.444763	4136.952637	896.388000	3.049903
287.306824	796.822449	4048.086182	899.434387	3.156063
287.678223	795.856445	3962.489502	894.679016	3.120746
288.049561	796.079407	3906.093994	894.381836	3.160835
288.420898	789.466492	3900.298584	885.465515	3.085960
288.792145	780.475769	3922.069092	884.128113	3.299356
289.163452	777.800842	3988.867188	889.032043	3.463996
289.534668	782.036133	4109.832031	899.434387	3.527808
289.905914	786.122742	4240.456055	907.830627	3.523340
290.277039	792.512756	4353.841797	907.384766	3.225538
290.648193	795.262024	4399.835449	908.276428	3.135306
291.019318	792.661438	4422.572266	900.400391	2.968088
291.390381	790.655273	4354.288086	906.939148	3.263071
291.761475	789.317871	4281.843262	907.384827	3.380561
292.132507	793.775940	4230.351074	912.437439	3.452900
292.503510	789.986511	4210.958496	906.716125	3.412177
292.874481	788.500488	4251.676270	909.093933	3.482164
293.245422	790.060791	4333.260254	914.146423	3.502079
293.616364	797.119568	4481.419922	911.917297	3.115862
293.987213	802.915222	4625.418457	914.294983	2.913791
294.358093	803.138123	4747.126953	916.003906	2.861717
294.728943	799.200012	4871.286621	931.458984	3.247941
295.099731	794.296082	4997.675293	931.607483	3.266691
295.470490	793.627258	5099.395996	943.570313	3.482376
295.841248	790.878113	5193.760254	939.706543	3.380250
296.211975	786.865906	5309.077637	949.737488	3.601591
296.582642	776.612061	5440.816406	941.712708	3.539739
296.953308	783.373718	5522.771973	949.960266	3.514930
297.323883	784.116699	5518.239746	948.474121	3.471761
297.694519	791.323975	5426.104980	942.529968	3.262419
298.065063	789.986572	5297.784180	936.362854	3.247179
298.435608	793.553040	5109.946777	924.771729	3.040008
298.806122	795.559265	4894.691895	920.907959	3.057932
299.176575	799.200134	4679.214355	914.666504	2.975926
299.547028	798.902893	4542.793945	917.564270	3.169466
299.917450	794.147461	4493.679688	917.787170	3.342036
300.287872	789.912292	4486.473145	911.991516	3.302508
300.658234	785.454041	4490.039551	907.533447	3.295359
301.028564	790.358093	4465.816406	911.248535	3.289126
301.398865	785.379700	4427.327637	904.338440	3.266349
301.769135	783.150635	4367.067871	899.360168	3.242528
302.139374	784.413818	4322.932129	896.908203	3.179138
302.509583	784.785339	4274.932617	900.474609	3.314739
302.879791	796.227844	4222.103516	903.595398	3.134018
303.249939	790.283691	4163.404297	905.675781	3.420930
303.620087	794.667542	4114.661621	905.973083	3.352582
303.990173	785.454102	4098.835449	901.663391	3.507272
304.360260	787.385986	4096.680176	891.483948	3.145624
304.730286	783.745117	4080.928467	890.889648	3.249578
305.100281	790.357971	4057.300049	887.100159	2.961246
305.470276	790.803772	4050.092773	897.799805	3.282803
305.840179	791.918457	4085.163818	905.527344	3.449755
306.210144	783.373596	4117.634277	910.134033	3.801755
306.579987	787.385925	4157.979980	906.344543	3.529307
306.949890	787.311707	4197.955078	898.691406	3.265651
307.319702	792.066956	4272.852051	908.722351	3.351410
307.689484	788.574890	4363.947266	913.031921	3.480953
308.059265	786.717285	4456.157227	922.988464	3.713678
308.429016	788.426208	4552.898926	919.570496	3.483736
308.798737	787.014465	4624.898926	920.536438	3.479051
309.168396	793.107239	4692.885254	918.307312	3.210441
309.538055	795.856445	4719.337402	921.502380	3.202410
309.907684	806.110291	4732.637207	923.880066	2.999337
310.277313	810.271179	4748.909668	927.520935	2.976911
310.646851	809.825378	4753.962402	928.189636	3.001018
311.016388	802.766602	4740.811035	926.629211	3.145282
311.385895	798.011230	4683.671875	923.062683	3.218280
311.755371	795.484863	4622.669434	922.319641	3.314049
312.124817	800.611816	4568.725098	931.458923	3.472483
312.494232	803.361023	4514.410156	926.332031	3.313645
312.863617	800.388977	4481.791504	925.960510	3.410970
313.232971	803.881165	4484.317871	913.849121	2.987905
313.602295	799.868835	4552.750488	921.428040	3.239090
313.971619	805.292969	4637.901855	931.310303	3.288030
314.340820	795.113464	4676.538574	937.551697	3.669741
314.710083	796.896667	4663.981934	935.174011	3.575751
315.079285	791.992676	4597.109375	921.130798	3.393802
315.448486	795.930725	4525.332520	915.409485	3.203698
315.817596	792.958679	4393.816895	913.849121	3.357268
316.186707	793.924561	4273.520996	908.796570	3.301303
316.555786	793.701660	4167.268066	899.508728	3.136356
316.924866	794.444763	4118.896973	889.403564	2.856375
317.293884	795.707825	4106.859863	887.768860	2.780332
317.662872	789.466492	4114.067383	901.217712	3.361342
318.031830	781.738953	4150.921387	904.858582	3.654288
318.400757	779.063965	4180.865723	914.294922	3.975275
318.769684	778.915344	4228.642090	905.155762	3.659432
319.138550	787.980408	4240.976074	911.471497	3.576347
319.507416	786.494324	4222.994629	912.883301	3.677840
319.876190	792.215637	4173.138184	913.700623	3.593250
320.244995	793.627380	4100.841309	910.505554	3.534037
320.613770	796.822327	4049.126709	904.412781	3.308130
320.982483	795.930847	4028.916016	897.651184	3.146329
321.351166	783.819519	4049.646484	898.691406	3.517390
321.719818	785.528381	4095.937500	897.651184	3.386977
322.088440	783.299316	4196.766113	907.681946	3.643880
322.457062	796.005066	4347.377930	905.973083	3.096493
322.825623	794.073181	4517.531250	909.911133	3.111032
323.194183	793.701660	4642.954102	916.672668	3.194673
323.562653	787.534607	4741.404785	934.579651	3.719016
323.931183	789.169250	4776.327637	947.805481	3.978679
324.299591	794.370422	4770.754883	943.867493	3.759623
324.668060	796.005066	4713.764648	932.499207	3.483985
325.036407	799.125732	4631.734863	919.867676	3.150385
325.404755	795.633545	4552.824707	920.313477	3.318435
325.773102	797.862610	4467.600098	918.827454	3.296281
326.141388	791.249695	4400.504395	919.347595	3.549151
326.509674	791.398254	4316.096680	913.477600	3.463540
326.877899	793.255859	4243.725586	903.520996	3.195656
327.246124	795.484924	4201.373047	893.118652	2.866616
327.614288	795.336365	4155.528320	888.957703	2.786190
327.982422	787.608826	4145.200684	885.985657	2.929982
328.350525	784.413818	4133.015137	891.335449	3.193024
328.718628	788.500488	4172.692871	895.347717	3.157244
329.086700	793.701660	4214.450684	910.802734	3.423258
329.454712	796.748047	4258.140625	912.734619	3.350864
329.822693	794.519043	4301.830566	914.369324	3.417155
330.190674	787.014404	4348.789551	909.019531	3.425402
330.558563	780.401550	4395.080566	909.985535	3.584938
330.926483	771.485168	4448.503906	915.112366	3.906077
331.294312	774.382996	4518.051270	915.929626	3.780961
331.662231	785.082520	4620.886230	920.907898	3.540989
332.029999	790.729492	4715.622559	914.369202	3.150142
332.397766	795.410583	4809.466309	916.152527	3.007979
332.765503	786.940125	4869.949219	917.044128	3.186474
333.133240	787.534485	4906.356934	919.050293	3.193044
333.500916	787.683105	4891.273438	926.257751	3.376912
333.868561	796.599426	4868.982910	926.703430	3.194788
334.236176	795.262024	4839.707520	935.099792	3.457526
334.603790	797.045349	4816.302246	931.384583	3.342390
334.971344	794.147461	4785.317871	925.440369	3.289584
335.338867	799.794495	4754.185059	924.103027	3.143557
335.706360	804.772766	4748.538574	925.366150	3.057823
336.073853	800.091736	4746.012207	926.406433	3.201147
336.441284	793.107239	4775.956055	929.081238	3.413988
336.808655	780.698730	4795.869141	927.372253	3.652984
337.176086	783.893738	4840.524902	928.709717	3.569858
337.543396	790.432373	4853.899902	928.709717	3.402940
337.910706	789.540710	4877.602051	926.926514	3.360659
338.277954	793.701660	4866.456543	931.533203	3.384234
338.645264	789.986572	4830.865723	923.805664	3.311633
339.012421	796.153625	4766.445313	919.496094	3.106635
339.379669	792.735657	4678.099121	919.793274	3.270160
339.746796	798.828552	4606.545410	917.415588	3.114387
340.113953	794.147461	4551.338379	921.279480	3.383699
340.481018	796.227966	4571.697754	915.409485	3.156734
340.848114	789.689270	4595.548828	916.152527	3.322857
341.215118	795.113464	4650.755859	916.375488	3.145054
341.582153	787.608826	4749.132813	922.319641	3.400480
341.949066	787.460266	4890.382324	928.412537	3.435412
342.316010	779.509827	5080.226074	938.517639	3.697240
342.682922	785.008301	5253.648438	949.291565	3.676359
343.049835	783.150696	5506.648438	960.808411	3.761147
343.416656	780.401550	5769.829590	971.285156	3.825761
343.783478	779.435547	6029.442871	972.474060	3.676919
344.150269	779.881348	6219.583496	981.613281	3.708511
344.516998	786.419983	6304.734375	969.947754	3.325794
344.883728	789.020691	6260.300781	970.913635	3.324504
345.250427	788.797668	6172.252441	965.192383	3.276608
345.617065	785.082520	6023.052734	977.749512	3.678276
345.983704	783.968018	5913.976563	972.994141	3.684713
346.350281	785.825500	5774.064453	967.644348	3.644951
346.716827	793.478699	5640.542969	953.824036	3.308092
347.083405	789.392090	5516.531250	952.412170	3.448599
347.449860	791.918457	5425.138672	957.836365	3.581049
347.816376	796.525208	5408.346191	964.895020	3.650832
348.182770	797.565430	5411.244141	968.387390	3.702511
348.549194	795.856445	5454.785645	966.826965	3.669739
348.915558	791.918396	5512.146973	963.706299	3.639398
349.281921	792.364258	5587.713379	955.384460	3.399548
349.648193	791.101074	5616.171387	948.177063	3.255414
350.014526	790.655273	5640.170410	945.056335	3.183845
350.380737	794.073181	5653.100098	945.725098	3.121035
350.746948	803.509583	5691.143066	946.319519	2.921863
351.113159	805.812988	5739.291016	952.115051	2.965495
351.479309	805.738708	5818.274902	960.362610	3.084744
351.845428	797.416809	5930.769043	959.619629	3.159784
352.211517	795.484924	6044.377441	958.950928	3.114295
352.577576	793.330139	6161.033203	965.415222	3.205935
352.943604	792.364258	6279.322754	978.715393	3.396255
353.309601	789.466492	6407.717285	986.665833	3.509977
353.675537	788.277588	6563.010254	988.523438	3.467621
354.041473	785.528320	6712.656250	990.529541	3.458694
354.407379	790.803894	6824.705566	1003.458313	3.524327
354.773254	796.896667	6941.731934	1009.476868	3.459494
355.139038	799.274414	7091.600098	1021.662415	3.534274
355.504913	792.364258	7337.244629	1022.331238	3.513693
355.870636	786.197083	7589.502441	1033.030762	3.628144
356.236389	783.224915	7860.633301	1040.163696	3.630408
356.602081	791.844055	8119.652344	1052.275024	3.554009
356.967804	798.011230	8311.055664	1053.240967	3.397155
357.333405	805.070007	8427.414063	1053.612549	3.260710
357.699036	797.788269	8450.522461	1046.405273	3.248734
358.064606	791.249695	8441.160156	1045.885132	3.328607
358.430176	791.323975	8383.724609	1045.364990	3.345991
358.795654	797.862610	8361.136719	1044.919067	3.266528
359.161163	803.881104	8471.996094	1053.389648	3.253844
359.526581	800.760437	8786.817383	1067.507202	3.340156
359.892029	798.605652	9283.233398	1096.485229	3.510815
360.257416	792.587097	9814.051758	1115.283813	3.576988
360.622772	794.296082	10289.366211	1114.020752	3.367270
360.988098	788.797668	10623.059570	1120.410767	3.372018
361.353394	792.141296	10833.335938	1121.896729	3.284026
361.718658	789.243469	10734.142578	1130.144409	3.427897
362.083893	793.701660	10417.835938	1114.986694	3.338326
362.449097	793.924622	9852.318359	1095.073486	3.324528
362.814209	796.005066	9243.183594	1076.275024	3.317912
363.179382	792.958679	8607.672852	1050.714722	3.298342
363.544434	787.980286	8123.590332	1035.482666	3.373985
363.909546	782.556213	7814.343262	1021.439453	3.397191
364.274536	782.036133	7644.561035	1015.420959	3.400859
364.639587	780.624329	7508.513184	1019.656250	3.552852
365.004517	788.426208	7427.671875	1014.083557	3.398840
365.369507	781.218811	7368.601074	1013.637695	3.528244
365.734344	783.076355	7374.619141	1005.613037	3.376094
366.099274	780.029968	7334.941406	1010.665588	3.518516
366.464081	788.351868	7298.979004	1012.671692	3.445441
366.828918	790.580994	7218.435059	1011.557312	3.437793
367.193665	790.432373	7162.039551	1009.328186	3.435488
367.558411	795.262024	7091.080078	1003.012390	3.299815
367.923126	792.364258	7013.953613	997.588379	3.298580
368.287781	791.175476	6942.994629	996.993896	3.345651
368.652435	788.649109	6911.193359	1002.715271	3.496360
369.017059	791.918457	6929.769043	1005.984558	3.487639
369.381653	792.587097	6966.028809	1007.024841	3.473552
369.746185	789.837891	7009.867188	1005.018616	3.459481
370.110687	790.729553	7073.099121	1007.322021	3.447624
370.475220	792.512878	7162.485840	1007.767822	3.379213
370.839661	790.283691	7224.305176	1007.322021	3.373292
371.204041	790.580994	7290.210938	1007.321960	3.334666
371.568451	791.695496	7302.471191	1006.578918	3.300427
371.932770	791.026794	7311.091309	1020.993652	3.527064
372.297150	793.924561	7240.503418	1018.095886	3.477369
372.661377	793.998840	7225.345215	1015.866760	3.449790
373.025696	797.565430	7241.171875	1009.253906	3.285248
373.389862	790.580994	7301.802246	1013.414795	3.422304
373.754059	790.432373	7363.399902	1016.758484	3.443286
374.118225	791.844055	7463.485840	1014.603699	3.338903
374.482361	794.147461	7624.350098	1013.191895	3.206998
374.846436	791.918396	7830.466309	1021.068054	3.255638
375.210510	791.844055	8088.965332	1035.111206	3.333741
375.574524	799.645813	8373.916992	1054.429810	3.363809
375.938538	800.611816	8667.114258	1071.519531	3.443814
376.302460	808.264954	8930.369141	1076.052002	3.297016
376.666412	800.611816	9112.411133	1083.110840	3.398771
377.030304	793.330139	9166.355469	1077.092163	3.389002
377.394196	786.717224	9073.848633	1063.940674	3.345228
377.757996	786.717224	8901.391602	1047.742676	3.216709
378.121796	791.918396	8637.170898	1034.739746	3.095138
378.485565	787.683105	8357.496094	1023.742859	3.118436
378.849304	786.642883	8080.420410	1024.783203	3.264979
379.212982	792.810059	7923.122559	1021.736816	3.210613
379.576630	797.936951	7840.273926	1030.504395	3.302419
379.940277	805.292908	7815.753906	1027.532349	3.170112
380.303864	807.521973	7803.049316	1032.139038	3.210867
380.667450	803.732483	7809.662109	1041.575562	3.394882
381.030945	799.794495	7799.928223	1038.974976	3.416799
381.394501	789.615051	7846.515625	1042.467163	3.583048
381.757935	793.553040	7882.701660	1032.733521	3.373896
382.121399	796.525208	7976.768066	1033.625122	3.302116
382.484741	797.936951	8084.283691	1037.043091	3.281564
382.848145	799.868835	8216.766602	1043.804688	3.288920
383.211487	794.964844	8340.554688	1054.355591	3.437647
383.574768	798.085632	8442.794922	1053.241089	3.337674
383.938019	795.187744	8502.014648	1057.253418	3.400435
384.301270	795.484863	8551.500000	1055.098633	3.347257
384.664459	798.308411	8558.707031	1051.755005	3.265897
385.027649	795.113464	8592.069336	1036.002808	3.089531
385.390778	794.147461	8669.938477	1035.185425	3.060492
385.753876	792.289856	8757.319336	1045.142090	3.174530
386.116943	794.147461	8860.450195	1065.649658	3.365882
386.479980	792.884277	8885.044922	1074.194458	3.476330
386.842987	790.878174	8928.214844	1080.212891	3.555644
387.205994	792.587097	8927.545898	1076.497681	3.490006
387.568909	790.655273	8929.106445	1074.788940	3.491250
387.931793	792.958679	8852.872070	1066.689941	3.396206
388.294678	796.450867	8820.921875	1068.101685	3.385280
388.657471	797.045227	8804.500977	1075.086060	3.472275
389.020294	795.039063	8865.280273	1077.240845	3.496820
389.383057	789.317810	8988.995117	1083.705200	3.590231
389.745819	792.958679	9171.036133	1079.246948	3.417112
390.108521	793.850342	9386.068359	1081.327515	3.345785
390.471191	789.020569	9624.877930	1081.550415	3.310713
390.833801	784.339539	9859.674805	1093.364624	3.405109
391.196442	778.915466	10041.790039	1103.618286	3.505422
391.558960	786.940125	10119.288086	1109.562500	3.457033
391.921509	787.385925	10079.833008	1101.612183	3.381523
392.284027	796.005066	10005.456055	1092.472778	3.219168
392.646484	793.850281	9938.583008	1094.479126	3.287454
393.008911	797.639648	9924.911133	1100.200317	3.314908
393.371307	795.336243	9962.508789	1108.299438	3.413955
393.733673	800.091614	9949.059570	1108.968140	3.376081
394.096008	801.652039	9896.007813	1101.463501	3.296676
394.458344	796.822327	9786.188477	1091.432617	3.277320
394.820587	797.045227	9613.434570	1082.219116	3.234588
395.182831	798.308411	9408.433594	1073.451294	3.195574
395.545013	802.766602	9164.125977	1063.123291	3.113808
395.907196	797.268250	8978.517578	1046.925415	3.051578
396.269287	789.317810	8843.659180	1039.197876	3.102427
396.631409	791.621155	8792.315430	1044.547729	3.161308
396.993469	789.243469	8751.002930	1043.135864	3.188898
397.355530	791.026672	8757.317383	1047.148315	3.215068
397.717499	786.717224	8779.609375	1037.860474	3.142082
398.079468	788.351868	8823.374023	1048.931519	3.243048
398.441376	790.060852	8815.423828	1047.519775	3.208066
398.803284	789.540710	8791.200195	1056.436035	3.335500
399.165131	788.797668	8777.528320	1060.002563	3.394844
399.526978	791.472595	8772.550781	1065.723999	3.436270
399.888763	790.432373	8767.572266	1069.364868	3.496648
400.250519	791.918396	8765.492188	1064.980957	3.424594
400.612244	788.797668	8769.875977	1074.491699	3.579642
400.973938	791.769775	8815.646484	1081.699097	3.613332
401.335602	797.045349	8884.004883	1087.494629	3.591576
401.697205	797.193848	9031.644531	1079.692749	3.430695
402.058807	795.113464	9193.178711	1078.132446	3.370050
402.420349	780.995911	9435.777344	1086.380127	3.528503
402.781860	779.138367	9649.842773	1100.348999	3.621027
403.143341	782.853455	9839.612305	1111.420166	3.627862
403.504822	784.859619	9996.092773	1116.844238	3.604128
403.866241	787.088684	10170.408203	1127.543823	3.628302
404.227631	784.785339	10316.264648	1127.172241	3.592170
404.588959	791.472595	10366.938477	1134.974121	3.587309
404.950287	793.181458	10313.811523	1129.327026	3.530707
405.311554	797.045349	10223.311523	1131.407593	3.547133
405.672821	797.119629	10116.910156	1133.933960	3.613969
406.034027	799.348633	9975.214844	1129.847168	3.601824
406.395203	799.794617	9822.077148	1127.692383	3.634311
406.756348	791.249695	9674.214844	1120.113403	3.702184
407.117493	789.243469	9620.790039	1127.172241	3.826383
407.478516	788.797668	9599.688477	1130.218628	3.874988
407.839600	803.138000	9660.988281	1136.980225	3.768885
408.200592	806.110168	9765.160156	1138.614868	3.711384
408.561554	801.800598	9886.050781	1145.599243	3.784557
408.922485	786.940125	10024.253906	1147.679810	3.905245
409.283417	789.392090	10123.968750	1165.661133	4.030917
409.644257	793.032959	10246.790039	1168.707520	3.973812
410.005096	800.091736	10339.372070	1177.475220	3.956100
410.365906	788.946289	10343.533203	1166.627075	3.952874
410.726715	782.481934	10323.471680	1167.072754	4.030932
411.087433	780.921570	10225.244141	1158.825195	4.001384
411.448120	786.865784	10197.231445	1166.255493	4.031615
411.808807	785.899902	10141.133789	1158.379395	3.981509
412.169434	790.506653	10086.149414	1169.524780	4.077374
412.530029	784.636719	10128.352539	1169.227539	4.116037
412.890564	788.649109	10192.772461	1184.088257	4.204955
413.251099	786.568604	10326.443359	1190.478149	4.233908
413.611572	789.392090	10449.637695	1205.041504	4.302680
413.972076	793.032898	10584.719727	1221.165161	4.372406
414.332489	793.181580	10718.984375	1230.750366	4.408397
414.692871	797.788330	10903.403320	1234.019653	4.316722
415.053223	800.537537	11057.656250	1244.124878	4.324677
415.413574	804.401184	11311.401367	1259.728394	4.333560
415.773834	797.639648	11485.195313	1273.697266	4.454317
416.134094	791.249695	11770.739258	1283.133789	4.480027
416.494263	796.748108	12007.914063	1288.557861	4.386785
416.854462	801.800720	12371.997070	1302.749634	4.329649
417.214630	799.868835	12754.805664	1328.458374	4.421517
417.574738	790.729553	13166.739258	1349.560425	4.515437
417.934784	790.432312	13595.762695	1378.909790	4.595567
418.294861	789.837891	14109.268555	1405.584595	4.622921
418.654846	788.426208	14677.610352	1440.729858	4.696486
419.014832	790.952454	15264.825195	1468.593262	4.681821
419.374756	786.122803	15889.637695	1489.100952	4.654401
419.734680	788.723389	16549.447266	1517.484497	4.623907
420.094543	787.014404	17125.515625	1540.369751	4.610921
420.454376	798.679932	17469.312500	1563.849243	4.589923
420.814148	796.748047	17644.072266	1569.421875	4.586329
421.173920	797.045227	17772.392578	1569.124634	4.548239
421.533691	790.580872	17883.773438	1571.353882	4.567742
421.893341	791.546875	17930.287109	1571.279663	4.549534
422.253021	792.884460	17890.535156	1575.440796	4.576982
422.612640	791.695496	17822.027344	1576.332397	4.607291
422.972260	788.872009	17830.201172	1574.548950	4.610420
423.331757	786.642883	17898.187500	1580.567505	4.639701
423.691315	783.002136	18080.824219	1588.592285	4.657176
424.050781	782.333313	18137.742188	1594.610718	4.680255
424.410248	775.943298	18038.619141	1594.536499	4.741983
424.769653	794.741882	17754.560547	1582.202148	4.643094
425.128998	803.138123	17402.439453	1562.066040	4.572048
425.488373	801.949280	16938.865234	1531.973511	4.523939
425.847656	788.723389	16504.269531	1505.447266	4.560605
426.206940	782.779114	16101.250977	1492.295898	4.631773
426.566193	788.872009	15763.694336	1482.785156	4.633866
426.925385	789.614990	15356.366211	1462.723267	4.620854
427.284576	787.757507	14952.976563	1441.769897	4.617030
427.643677	797.416748	14605.463867	1420.222168	4.510453
428.002777	794.741943	14373.415039	1421.113892	4.612910
428.361847	803.583923	14155.561523	1424.531738	4.650606
428.720856	792.066956	13972.106445	1424.160278	4.795838
429.079865	801.652039	13833.903320	1415.986938	4.713958
429.438812	793.627380	13812.801758	1406.624878	4.708421
429.797760	796.302246	13802.324219	1397.857056	4.625202
430.156616	788.797668	13676.901367	1384.854126	4.624858
430.515503	790.209473	13562.028320	1382.104858	4.634386
430.874268	793.701660	13508.605469	1389.609375	4.686687
431.233093	796.673767	13637.000000	1400.903442	4.705719
431.591827	794.816162	13787.389648	1410.042603	4.735216
431.950562	789.763672	13915.710938	1417.695801	4.783899
432.309204	785.156921	14027.016602	1427.206665	4.848638
432.667877	784.339539	14153.554688	1428.172485	4.815787
433.026459	798.679993	14264.859375	1431.367554	4.698345
433.385010	797.714050	14357.366211	1429.510132	4.659383
433.743561	803.583923	14416.734375	1437.757690	4.658538
434.102051	793.627380	14466.293945	1438.649414	4.717602
434.460510	793.775940	14511.766602	1448.754517	4.774596
434.818939	786.122803	14477.959961	1446.673828	4.824415
435.177338	779.435547	14465.848633	1443.330200	4.850757
435.535675	780.252930	14420.894531	1439.317993	4.831628
435.894012	785.156799	14409.303711	1435.751465	4.775306
436.252289	792.067078	14556.273438	1439.169312	4.701341
436.610535	801.800720	14608.062500	1440.432495	4.625668
436.968719	801.949280	14878.747070	1462.351929	4.691427
437.326935	793.775940	15055.515625	1480.036011	4.811896
437.685028	779.138367	15353.840820	1501.732422	4.957865
438.043152	780.029968	15548.289063	1503.292603	4.897413
438.401215	780.921570	15822.094727	1516.072754	4.887592
438.759277	788.872009	16157.719727	1522.834106	4.775648
439.117249	789.837891	16648.787109	1549.954712	4.792984
439.475250	789.763611	17088.734375	1564.740845	4.754762
439.833130	792.141296	17518.648438	1585.248535	4.741619
440.191071	793.998840	17697.273438	1594.536499	4.735991
440.548889	804.104004	17777.222656	1609.471191	4.744957
440.906708	803.361023	17735.613281	1600.926392	4.710332
441.264496	803.212402	17564.345703	1586.140137	4.671091
441.622223	790.729553	17307.554688	1574.697632	4.746482
441.979950	788.649109	17008.337891	1562.437622	4.770674
442.337616	788.500488	16772.947266	1558.499634	4.817177
442.695251	791.769775	16519.126953	1543.341797	4.778756
443.052887	791.546875	16381.668945	1537.249023	4.783171
443.410461	790.432312	16429.296875	1532.939453	4.747833
443.768005	798.308411	16669.220703	1544.233398	4.699950
444.125458	803.806824	16954.767578	1553.744141	4.643299
444.482941	805.144287	17296.113281	1575.812012	4.673271
444.840393	801.206238	17714.736328	1588.740845	4.656240
445.197754	799.423035	18132.318359	1613.409302	4.696194
445.555084	792.141296	18482.058594	1627.155273	4.720282
445.912415	792.810059	18773.250000	1642.610352	4.726249
446.269714	786.642883	18933.373047	1656.950684	4.795948
446.626953	783.522156	18965.250000	1657.842285	4.808784
446.984161	776.463379	18825.412109	1653.012695	4.856512
447.341309	777.800964	18604.212891	1634.065430	4.803347
447.698456	787.608826	18347.275391	1622.251343	4.753180
448.055542	793.627441	18128.082031	1613.186401	4.727919
448.412598	792.289978	17840.232422	1610.511597	4.799533
448.769653	785.528320	17509.214844	1597.954468	4.857937
449.126617	785.305481	17107.236328	1578.635620	4.860517
449.483582	785.677002	16816.638672	1564.741089	4.859746
449.840515	791.472656	16549.074219	1554.635742	4.843143
450.197388	790.878174	16312.270508	1546.908325	4.870891
450.554230	795.336243	16178.081055	1535.763062	4.813359
450.911041	792.438538	16097.758789	1525.880737	4.792074
451.267822	791.101074	16192.346680	1527.143921	4.779112
451.624573	787.980286	16184.543945	1533.979614	4.845232
451.981262	788.203308	16204.085938	1531.527710	4.821809
452.337921	795.856445	16021.524414	1523.874512	4.781518
452.694580	788.500427	15759.237305	1507.453613	4.802390
453.051147	795.113464	15515.523438	1503.812866	4.814400
453.407715	787.757507	15193.567383	1490.884155	4.880855
453.764221	799.794495	15083.303711	1489.026733	4.825371
454.120728	793.330139	14795.083008	1471.342651	4.842340
454.477142	797.714050	14752.433594	1466.141235	4.789972
454.833557	798.382751	14650.416992	1456.704956	4.752531
455.189911	795.856445	14652.942383	1459.454102	4.788869
455.546265	799.422913	14692.768555	1469.930664	4.826107
455.902557	796.153625	14717.140625	1466.141235	4.812788
456.258820	799.348633	14896.061523	1477.212402	4.808665
456.615051	791.769836	15114.362305	1478.772827	4.796638
456.971252	793.181580	15405.851563	1503.069702	4.858032
457.327393	795.262024	15893.723633	1523.948853	4.826232
457.683502	798.382751	16505.011719	1556.270508	4.825273
458.039612	801.429199	17371.158203	1595.651001	4.793210
458.395630	793.107239	18223.111328	1645.062378	4.887866
458.751648	786.197083	18970.302734	1686.448853	4.950762
459.107605	777.354980	19673.578125	1723.600220	5.007589
459.463562	783.224915	19990.775391	1728.578491	4.921781
459.819458	793.998840	19995.455078	1717.730347	4.810737
460.175323	800.908997	19547.560547	1684.368286	4.712624
460.531158	797.788269	18935.380859	1655.390259	4.728312
460.886932	793.255859	18247.335938	1624.034546	4.759797
461.242676	784.339539	17574.599609	1595.056519	4.828496
461.598419	788.277588	16994.962891	1565.335327	4.794674
461.954102	785.825623	16456.642578	1542.301636	4.827291
462.309723	793.330139	16003.320313	1521.125366	4.784982
462.665344	800.760437	15698.753906	1505.150269	4.728086
463.020905	810.345459	15495.385742	1490.512573	4.631701
463.376373	810.494080	15449.541992	1488.729370	4.633056
463.731873	803.732483	15421.530273	1493.781860	4.720611
464.087341	793.107239	15449.171875	1500.097656	4.823876
464.442749	795.633545	15524.291992	1509.311157	4.845503
464.798126	796.005066	15624.823242	1508.865356	4.807263
465.153503	792.884338	15824.770508	1515.552612	4.807569
465.508820	787.014404	16032.149414	1520.085083	4.808555
465.864105	788.203308	16202.824219	1522.685547	4.764842
466.219330	793.255859	16465.558594	1538.958008	4.758089
466.574524	795.930725	16508.060547	1545.719604	4.772038
466.929657	797.342468	16438.658203	1546.165405	4.787468
467.284790	800.388916	16225.039063	1539.255249	4.790166
467.639893	798.977112	16025.983398	1525.434937	4.770852
467.994934	796.227966	15830.790039	1515.998413	4.787438
468.349945	797.936951	15607.286133	1505.373047	4.776956
468.704926	797.119629	15450.656250	1495.639526	4.766903
469.059875	798.085510	15294.917969	1479.961548	4.703621
469.414764	792.067078	15247.512695	1471.713867	4.701666
469.769653	789.615051	15213.110352	1467.553101	4.700234
470.124451	786.197083	15274.410156	1485.757324	4.828478
470.479248	780.921570	15272.403320	1493.187500	4.915066
470.834015	784.636719	15319.585938	1497.942871	4.907524
471.188721	789.689270	15533.132813	1492.444458	4.766561
471.543365	796.599426	15840.299805	1505.150391	4.709951
471.898010	794.147461	16075.245117	1511.986206	4.697560
472.252625	788.946289	16315.985352	1535.094238	4.805475
472.607178	787.608887	16540.900391	1532.939453	4.731269
472.961700	789.689270	16636.007813	1547.874390	4.784614
473.316193	789.094910	16692.923828	1548.468750	4.774786
473.670654	790.432373	16609.554688	1555.378906	4.835581
474.025055	788.872070	16664.986328	1555.081665	4.826179
474.379456	794.741943	16694.929688	1555.973267	4.787562
474.733795	800.388855	16834.693359	1561.620239	4.747517
475.088104	805.961609	17098.693359	1572.319824	4.703681
475.442383	799.125732	17368.333984	1591.044067	4.779458
475.796570	797.936951	17636.568359	1597.954224	4.751083
476.150787	792.884277	17993.591797	1618.461914	4.799673
476.504944	792.958679	18348.685547	1622.919922	4.727582
476.859070	788.054626	18687.208984	1651.006470	4.821188
477.213135	789.689270	18925.349609	1669.582153	4.851728
477.567200	792.587097	19201.162109	1693.210327	4.892412
477.921173	788.574768	19456.689453	1696.405640	4.863002
478.275146	785.899902	19708.351563	1704.132935	4.852612
478.629089	792.141296	19961.128906	1714.163696	4.809969
478.983002	799.348633	20382.869141	1735.711548	4.781382
479.336823	806.927551	20902.320313	1749.531860	4.690649
479.690643	797.936951	21522.082031	1785.643066	4.765968
480.044403	793.255859	22258.718750	1822.125610	4.793140
480.398163	788.203308	23285.583984	1871.908569	4.817029
480.751862	789.540771	24681.728516	1940.341309	4.816639
481.105499	792.289856	26583.505859	2031.956421	4.806545
481.459137	795.039063	29332.853516	2184.797119	4.869883
481.812744	795.856445	33042.644531	2377.984131	4.906311
482.166290	791.101074	37643.320313	2619.393799	4.961147
482.519806	789.912292	42571.445313	2864.815674	4.966078
482.873291	783.299316	47115.128906	3090.472900	4.979673
483.226715	785.379822	50464.394531	3239.003906	4.938955
483.580139	780.327209	51982.261719	3291.610352	4.904665
483.933502	783.522156	51798.511719	3243.387939	4.821849
484.286804	789.020508	50108.863281	3128.813232	4.744120
484.640106	787.980286	47482.562500	2970.845703	4.674772
484.993347	793.330139	44534.824219	2816.741943	4.625841
485.346558	797.491150	42054.746094	2709.745850	4.634954
485.699738	803.955505	40741.515625	2670.439697	4.673506
486.052887	800.166016	40596.480469	2687.975342	4.743679
486.405975	793.775940	41356.300781	2742.439453	4.804099
486.759064	792.958679	42298.902344	2802.847412	4.842412
487.112061	796.302307	42929.585938	2810.946289	4.781597
487.464996	796.450928	42871.628906	2791.924561	4.742639
487.817963	796.525208	41983.937500	2720.222412	4.670595
488.170868	801.280579	40385.460938	2647.331787	4.663609
488.523743	802.617981	38420.527344	2548.731934	4.641709
488.876587	804.252625	36543.566406	2459.568604	4.631639
489.229401	797.565430	35260.656250	2398.863525	4.646415
489.582153	787.237305	34810.003906	2386.974854	4.701962
489.934845	785.008240	35222.910156	2416.770264	4.738274
490.287537	792.066956	36160.386719	2473.760498	4.754802
490.640198	802.172180	37354.281250	2523.246094	4.708549
490.992798	797.193848	38128.667969	2554.676025	4.707776
491.345337	788.500488	38209.730469	2542.639160	4.687550
491.697876	785.231140	37273.070313	2491.518799	4.676319
492.050354	789.614990	35642.644531	2402.355469	4.627260
492.402832	788.574768	33370.613281	2285.774658	4.595170
492.755219	798.085510	30888.087891	2168.004639	4.552739
493.107605	792.289978	28486.697266	2069.999512	4.613601
493.459930	789.317810	26577.710938	1990.421387	4.657536
493.812225	783.299316	25162.689453	1921.691284	4.669485
494.164490	790.580994	24263.107422	1880.230347	4.642233
494.516724	793.701721	23747.224609	1855.413208	4.625484
494.868896	788.946289	23569.492188	1859.500000	4.699420
495.221039	785.379700	23709.330078	1869.530640	4.729337
495.573120	791.621155	23935.062500	1886.323120	4.730074
495.925201	791.175293	24227.000000	1900.143555	4.731936
496.277222	792.661377	24387.119141	1906.013306	4.718701
496.629211	784.636719	24452.802734	1901.183594	4.717505
496.981140	789.169189	24351.750000	1894.124878	4.689451
497.333069	788.277527	24134.337891	1879.635864	4.674700
497.684967	793.998840	23824.423828	1865.964233	4.654562
498.036804	788.351868	23407.212891	1839.066772	4.645304
498.388580	795.633545	22975.884766	1818.261841	4.610535
498.740326	792.141296	22533.189453	1805.333130	4.660271
499.092072	800.166016	22130.320313	1786.311646	4.623247
499.443756	789.689270	21742.462891	1773.457153	4.695168
499.795410	792.884338	21373.251953	1753.618530	4.668207
500.147003	789.020691	21076.634766	1743.587524	4.705171
500.498566	798.531433	20809.964844	1734.299805	4.676168
500.850098	799.645813	20630.150391	1731.699219	4.700099
501.201599	797.119568	20463.935547	1728.578491	4.736196
501.553009	797.491028	20357.236328	1717.953125	4.705900
501.904449	794.964844	20312.654297	1713.940796	4.708426
502.255859	795.707825	20416.380859	1717.953247	4.700376
502.607178	792.958679	20534.373047	1725.977905	4.726202
502.958405	791.323975	20642.484375	1726.275024	4.709805
503.309692	800.760437	20629.779297	1733.036621	4.701575
503.660919	796.525208	20686.695313	1726.869507	4.677407
504.012115	797.491028	20708.388672	1727.835449	4.672539
504.363251	787.831726	20715.001953	1717.581665	4.665740
504.714294	786.122803	20625.468750	1705.247437	4.632837
505.065369	780.847229	20554.138672	1700.863647	4.652824
505.416443	776.314758	20432.802734	1699.154663	4.694836
505.767395	783.373596	20377.966797	1709.631348	4.727109
506.118317	789.392090	20309.982422	1712.008789	4.726377
506.469238	797.639648	20432.505859	1717.581665	4.685247
506.820160	795.633484	20569.072266	1723.080078	4.690366
507.170929	798.679932	20790.794922	1736.380249	4.690351
507.521729	794.964844	20995.498047	1740.392578	4.680212
507.872498	793.330078	21235.125000	1755.401733	4.706395
508.223236	795.707825	21518.515625	1765.655640	4.680581
508.573883	792.958679	21727.158203	1777.172485	4.701464
508.924500	789.689270	21911.873047	1778.584106	4.681783
509.275116	784.488098	22025.333984	1776.355103	4.669621
509.625702	790.432312	22217.255859	1791.364258	4.671397
509.976196	793.107239	22361.626953	1799.983398	4.668267
510.326660	801.503418	22581.337891	1823.983276	4.694617
510.677124	801.503479	22719.099609	1833.345337	4.707824
511.027557	802.097839	22918.896484	1842.781860	4.705401
511.377869	792.958679	23040.603516	1842.187500	4.716134
511.728180	791.918457	23117.062500	1845.308105	4.718400
512.078430	787.385925	23126.945313	1841.221313	4.717351
512.428650	787.608887	23030.275391	1831.413574	4.692804
512.778931	787.683105	22883.751953	1816.775879	4.657357
513.129028	790.655273	22692.646484	1806.522095	4.638239
513.479126	793.032898	22562.169922	1803.847168	4.643336
513.829285	788.797668	22453.539063	1808.899780	4.708582
514.179382	791.621155	22399.296875	1807.487915	4.701416
514.529297	785.899902	22325.664063	1816.181274	4.783160
514.879272	792.364258	22431.619141	1813.357788	4.718247
515.229187	790.060852	22547.455078	1820.119507	4.734292
515.579163	792.289856	22865.919922	1835.425781	4.725711
515.928955	786.865906	23245.976563	1865.444214	4.802409
516.278748	789.615051	23841.810547	1902.001099	4.825510
516.628540	790.729553	24612.849609	1934.174194	4.799928
516.978333	794.370361	25478.031250	1965.084106	4.742869
517.327942	785.231140	26366.396484	2003.349976	4.761780
517.677612	779.212646	27089.212891	2019.473633	4.714029
518.027222	777.132141	27580.279297	2038.569458	4.706303
518.376831	780.029968	27763.287109	2036.265991	4.655613
518.726379	787.980286	27648.931641	2027.572632	4.614849
519.075867	790.358093	27181.642578	2004.836060	4.601815
519.425293	800.091614	26588.484375	1978.978882	4.571387
519.774658	800.983337	25897.248047	1952.006836	4.586433
520.124084	797.491028	25328.458984	1912.626343	4.545826
520.473389	796.079285	24804.328125	1894.645020	4.575784
520.822693	792.661377	24403.166016	1879.413086	4.602831
521.171997	789.689270	24197.052734	1891.895874	4.708803
521.521240	783.596436	24092.359375	1880.750488	4.707045
521.870361	785.899841	24171.492188	1882.459473	4.689039
522.219482	786.865784	24352.718750	1870.273804	4.597363
522.568604	783.522217	24658.919922	1881.493530	4.598756
522.917664	791.992676	25019.880859	1909.505493	4.612506
523.266724	799.125793	25513.845703	1950.000610	4.656637
523.615662	811.980164	26249.070313	1992.650269	4.641530
523.964600	804.921387	27226.150391	2028.018188	4.629220
524.313538	801.949219	28397.162109	2075.126221	4.613760
524.662354	794.593262	29640.396484	2144.227783	4.678790
525.011169	797.936951	30912.162109	2218.010498	4.715623
525.359985	792.884338	32137.486328	2283.842529	4.756667
525.708740	791.769836	33415.792969	2330.876465	4.717710
526.057434	789.169189	34806.664063	2394.925537	4.720384
526.406067	791.621155	36602.859375	2475.692383	4.702633
526.754700	793.404480	38985.449219	2608.397217	4.752280
527.103333	794.221863	42096.054688	2765.918945	4.773873
527.451782	794.221741	45507.074219	2942.016357	4.803529
527.800293	789.615051	48449.160156	3078.881836	4.803375
528.148743	785.899902	50321.292969	3154.076172	4.780776
528.497131	793.404480	50704.027344	3144.639893	4.710892
528.845642	797.045227	49642.390625	3058.820068	4.630482
529.193909	797.565430	47371.699219	2923.811768	4.565295
529.542175	797.936951	44232.781250	2758.339844	4.513433
529.890503	801.057617	40904.539063	2602.972900	4.493165
530.238770	803.063904	37781.816406	2462.614990	4.487850
530.586914	802.320801	35554.371094	2379.618896	4.538720
530.934998	801.280518	34190.839844	2324.486328	4.561923
531.283142	798.011230	33936.800781	2333.551270	4.633664
531.631226	795.856445	34296.425781	2361.043213	4.672120
531.979248	795.782166	35308.429688	2416.918945	4.697225
532.327148	795.707825	36432.035156	2457.785400	4.663998
532.675110	790.209412	37362.828125	2488.026855	4.642319
533.023071	790.283691	37677.574219	2490.032959	4.607954
533.370850	795.187744	37141.851563	2458.677002	4.576732
533.718689	795.782166	36110.605469	2396.114258	4.531615
534.066467	793.032959	34645.500000	2323.594482	4.521270
534.414246	789.169189	33205.960938	2248.103271	4.500551
534.761963	796.896667	31984.796875	2211.471924	4.535654
535.109619	797.713928	31261.087891	2188.140869	4.564258
535.457153	798.977234	30937.052734	2189.924072	4.615247
535.804749	789.392090	30897.375000	2179.595947	4.617393
536.152344	786.568604	30823.369141	2176.177979	4.626356
536.499817	785.528320	30579.359375	2164.066650	4.626925
536.847229	790.580872	30037.468750	2150.097900	4.648416
537.194641	792.141296	29333.970703	2116.512939	4.640108
537.542114	794.816162	28559.884766	2075.126465	4.611227
537.889404	800.611816	27831.570313	2042.433228	4.594071
538.236694	802.172180	27370.521484	2019.027954	4.580095
538.583984	799.051453	27407.005859	2025.863647	4.610697
538.931213	790.952454	28007.224609	2059.596924	4.661346
539.278381	785.528320	29218.281250	2122.679932	4.702857
539.625488	780.178528	30887.865234	2221.131104	4.785996
539.972595	785.305481	33144.582031	2313.935303	4.723931
540.319641	796.079346	35394.027344	2426.652588	4.712919
540.666687	805.144287	37369.437500	2496.868896	4.626712
541.013611	807.670593	38583.027344	2555.047607	4.625706
541.360596	801.800598	38931.285156	2555.344727	4.598919
541.707458	799.645813	38431.968750	2520.868408	4.573788
542.054260	798.159851	37300.339844	2441.141602	4.501051
542.401062	794.370361	35850.171875	2381.030762	4.526099
542.747864	791.621155	34117.207031	2306.579346	4.545931
543.094666	791.175354	32305.414063	2237.700684	4.590069
543.441284	797.714050	30511.298828	2151.583740	4.556400
543.787903	803.509583	29075.623047	2083.299561	4.526687
544.134460	798.457031	27851.929688	2024.451782	4.531746
544.481079	800.240295	27040.023438	1977.938477	4.488216
544.827637	800.686218	26407.335938	1954.830444	4.507205
545.174072	803.955505	26010.632813	1948.068726	4.538929
545.520508	812.426025	25838.697266	1958.916870	4.581149
545.866943	806.704590	25783.787109	1953.121460	4.589875
546.213318	807.150391	25806.226563	1952.601196	4.581973
546.559631	800.537537	25575.740234	1927.709595	4.549598
546.905823	807.299011	25186.318359	1907.573730	4.513203
547.252136	802.097839	24524.953125	1867.970581	4.493021
547.598389	796.599426	23764.611328	1823.537476	4.471166
547.944458	793.998840	22882.041016	1779.327148	4.460913
548.290588	793.478760	21942.634766	1744.999390	4.499095
548.636658	791.546875	21072.029297	1717.358765	4.565039
548.982727	786.122742	20333.832031	1691.204224	4.630116
549.328735	786.271423	19776.337891	1666.609985	4.635785
549.674622	790.283691	19332.529297	1638.375000	4.573833
550.020569	786.865784	19028.927734	1623.663086	4.587186
550.366455	785.082520	18834.849609	1613.112183	4.587481
550.712280	780.550110	18732.013672	1616.307129	4.655649
551.058044	786.865906	18749.326172	1625.074829	4.666448
551.403748	793.998840	18874.525391	1624.183105	4.591593
551.749512	795.262024	19040.888672	1633.693970	4.595249
552.095154	795.187683	19169.283203	1633.693970	4.563524
552.440735	796.302246	19198.189453	1640.009644	4.584896
552.786316	794.296143	19168.320313	1634.882813	4.574864
553.131897	797.268250	19017.929688	1619.576294	4.513052
553.477417	798.159851	18811.146484	1602.338013	4.464436
553.822815	799.497314	18492.537109	1587.329102	4.452778
554.168213	802.469421	18172.216797	1573.731567	4.440261
554.513672	794.221863	17880.578125	1565.038086	4.511297
554.859009	795.856445	17625.720703	1553.223999	4.500141
555.204285	791.472595	17413.511719	1549.583374	4.560877
555.549500	796.748047	17224.335938	1542.450195	4.539328
555.894714	795.262024	17057.080078	1537.100464	4.561842
556.239990	793.404480	16914.939453	1532.196411	4.582640
556.585022	792.884338	16801.033203	1524.171753	4.568220
556.930115	796.227966	16728.216797	1521.051147	4.549483
557.275146	792.735779	16646.482422	1509.905640	4.523662
557.620178	790.209473	16567.423828	1506.264648	4.538540
557.965149	785.602600	16473.728516	1493.113281	4.509848
558.310059	786.197083	16396.306641	1493.261719	4.529531
558.654968	788.203308	16291.987305	1489.026489	4.520336
558.999756	789.466492	16290.797852	1493.261719	4.540225
559.344604	791.026794	16347.713867	1497.571289	4.541741
559.689331	783.522217	16430.263672	1504.481445	4.607728
560.033997	790.209473	16436.505859	1511.688965	4.611184
560.378723	794.593262	16491.861328	1519.639282	4.618931
560.723389	792.735657	16508.802734	1514.512329	4.592604
561.067932	779.807129	16582.212891	1515.403931	4.654967
561.412476	777.280762	16535.552734	1510.574341	4.653389
561.757019	782.927795	16526.484375	1505.744629	4.591191
562.101501	794.221863	16453.892578	1498.017212	4.494318
562.445862	791.546875	16392.517578	1488.952148	4.470268
562.790222	792.215637	16322.672852	1490.289673	4.494871
563.134644	792.810059	16277.200195	1490.215454	4.503925
563.478943	796.227966	16327.354492	1495.936646	4.505202
563.823181	798.605652	16412.431641	1504.927124	4.523693
564.167358	791.769836	16606.361328	1510.128418	4.542378
564.511536	796.971008	16879.275391	1516.147095	4.471847
564.855774	790.803894	17206.949219	1527.886841	4.489988
565.199768	792.141357	17553.646484	1546.833984	4.502535
565.543823	784.636719	17826.634766	1569.125000	4.603265
565.887817	791.546875	18060.687500	1580.270142	4.567241
566.231812	788.277527	18136.031250	1583.465210	4.583808
566.575745	790.432312	18073.392578	1568.233032	4.500391
566.919617	789.614990	17851.005859	1557.236328	4.499172
567.263428	791.472595	17559.294922	1541.187012	4.471149
567.607239	789.317810	17319.517578	1532.270874	4.494520
567.950989	789.020569	17151.445313	1525.063354	4.498372
568.294678	788.500488	17047.123047	1521.719727	4.509725
568.638367	794.667664	16960.412109	1519.862183	4.485995
568.981995	792.289978	16892.052734	1511.688843	4.468382
569.325623	800.091797	16915.087891	1519.416382	4.463697
569.669128	791.546875	16981.587891	1526.846680	4.541680
570.012573	787.014404	17172.029297	1532.122070	4.547494
570.356140	790.432373	17399.095703	1543.119019	4.531891
570.699524	792.587097	17658.859375	1553.298340	4.510252
571.042908	803.212402	17916.541016	1583.093750	4.557158
571.386230	795.707825	18143.685547	1576.629395	4.501513
571.729492	796.896667	18298.531250	1578.709961	4.467087
572.072815	794.370422	18320.970703	1575.737793	4.458180
572.416016	795.559265	18224.527344	1579.453003	4.497648
572.759094	791.398254	18087.066406	1572.468384	4.515987
573.102234	792.512878	17938.906250	1554.635742	4.444800
573.445374	791.992676	17768.232422	1545.125122	4.436391
573.788391	789.466492	17610.488281	1540.964233	4.467611
574.131409	792.661438	17462.775391	1539.181030	4.478191
574.474365	783.373596	17393.896484	1532.939453	4.512596
574.817261	783.596497	17321.078125	1535.614380	4.547354
575.160156	775.051697	17226.267578	1537.546265	4.634882
575.502930	787.311707	17007.742188	1544.084961	4.665556
575.845703	792.066956	16764.031250	1527.292603	4.603226
576.188477	797.268250	16447.947266	1511.614624	4.564316
576.531250	794.221741	16175.106445	1486.500366	4.500903
576.873901	798.679993	15806.121094	1468.444702	4.462884
577.216431	793.404480	15494.867188	1441.621460	4.409201
577.559082	786.197083	15136.727539	1419.479126	4.412952
577.901611	782.036133	14875.703125	1409.299683	4.450676
578.244080	784.562439	14590.973633	1396.371094	4.431337
578.586487	794.816162	14388.424805	1397.559937	4.434023
578.928955	843.038635	14207.348633	1398.228638	4.154274
579.271301	849.651611	14046.334961	1401.200806	4.179453
579.613647	845.862122	13830.485352	1391.318481	4.200787
579.955872	793.850281	13622.214844	1376.978027	4.545613
580.298157	784.859619	13490.252930	1367.764648	4.587855
580.640320	780.921631	13442.402344	1361.523193	4.585574
580.982483	793.701660	13405.102539	1350.823608	4.417606
581.324524	799.497253	13344.545898	1344.582031	4.345019
581.666626	803.732605	13259.765625	1341.461304	4.317014
582.008728	789.837891	13228.039063	1337.374634	4.402057
582.350647	780.772949	13179.519531	1338.563477	4.498765
582.692566	783.373596	13139.543945	1342.278687	4.523287
583.034424	789.912292	13052.239258	1349.560425	4.563963
583.376343	794.444641	12991.756836	1346.291138	4.524329
583.718201	786.642883	12979.496094	1335.963013	4.505263
584.059937	780.698730	12963.448242	1333.139404	4.534614
584.401611	772.748291	12923.843750	1329.201416	4.579448
584.743347	777.132141	12892.265625	1327.938354	4.546431
585.085022	783.447937	12815.213867	1320.879517	4.466773
585.426514	799.051453	12794.333008	1313.969360	4.292671
585.768127	789.986511	12751.981445	1315.752563	4.395304
586.109619	791.101074	12747.449219	1312.929077	4.364443
586.451172	786.717285	12715.796875	1320.359375	4.473455
586.792542	799.348694	12738.682617	1314.860962	4.317764
587.133850	794.221863	12811.200195	1318.724731	4.364682
587.475220	794.296143	12912.178711	1325.114746	4.380456
587.816589	785.825684	12971.323242	1320.210815	4.385419
588.157776	787.757507	13050.159180	1326.229248	4.391242
588.498962	787.460266	13084.411133	1328.532593	4.400053
588.840210	789.614990	13143.706055	1345.473633	4.499389
589.181335	794.296082	13179.890625	1348.743042	4.476547
589.522400	791.398254	13231.604492	1345.399414	4.453312
589.863403	798.382751	13244.385742	1353.126831	4.457207
590.204407	797.491150	13204.335938	1354.241455	4.487445
590.545410	790.135071	13169.711914	1352.606812	4.543546
590.886353	793.924500	13055.359375	1343.616089	4.483094
591.227112	798.457031	12936.624023	1332.990723	4.403743
591.567932	803.509583	12839.733398	1333.436646	4.402769
591.908752	789.912170	12769.221680	1329.275635	4.502459
592.249512	784.042297	12792.551758	1325.857788	4.511930
592.590149	783.596436	12769.889648	1325.486206	4.520912
592.930786	786.791504	12840.997070	1326.377808	4.476333
593.271423	782.704834	12891.820313	1333.362305	4.547462
593.612000	784.339539	12971.917969	1334.699829	4.515748
593.952576	775.274597	13119.706055	1340.421021	4.578148
594.292969	771.485168	13231.010742	1353.498413	4.671231
594.633484	773.268372	13435.640625	1354.464355	4.589945
594.973877	782.630554	13611.589844	1361.671753	4.513548
595.314209	786.791504	13883.018555	1362.191772	4.393634
595.654480	788.203308	14181.120117	1379.801392	4.417246
595.994812	787.014404	14499.209961	1392.953125	4.418977
596.335022	789.912170	14751.541992	1407.219360	4.421455
596.675171	790.135071	14814.625977	1401.349243	4.358191
597.015320	795.782227	14711.418945	1399.714722	4.339956
597.355408	797.342529	14443.186523	1387.157349	4.322304
597.695496	792.810059	14122.273438	1388.420532	4.468376
598.035461	793.330139	13729.286133	1364.792480	4.417627
598.375366	792.364258	13331.468750	1345.919556	4.414632
598.715271	798.382751	12954.085938	1331.727661	4.387610
599.055176	794.221741	12605.828125	1319.839233	4.450008
599.395081	789.020569	12367.985352	1306.464722	4.468829
599.734802	783.968018	12155.776367	1286.551636	4.419558
600.074524	785.528320	12021.065430	1278.304077	4.385868
600.414246	792.289856	11927.593750	1285.511230	4.429348
600.753906	802.395081	11933.090820	1288.334839	4.365763
601.093506	802.543640	11989.413086	1300.223267	4.448784
601.433044	803.063782	12093.659180	1304.235718	4.438844
601.772583	799.794434	12284.915039	1316.272705	4.496933
602.112122	808.636536	12534.348633	1324.371704	4.398327
602.451538	807.224792	12868.860352	1337.820435	4.399035
602.790894	793.627380	13213.252930	1354.390015	4.515133
603.130310	783.002014	13644.877930	1370.959595	4.571321
603.469604	782.927734	14017.059570	1383.219604	4.535937
603.808838	789.020569	14360.338867	1402.315308	4.519051
604.148010	782.036133	14573.883789	1405.138672	4.517905
604.487305	777.577942	14688.237305	1406.030396	4.517776
604.826416	780.847351	14636.893555	1392.804565	4.416536
605.165527	782.036133	14424.386719	1384.259766	4.414369
605.504456	788.351868	14090.098633	1368.953491	4.364852
605.843445	788.054688	13659.663086	1348.445923	4.353700
606.182434	795.559265	13226.848633	1335.963013	4.347126
606.521423	791.398254	12858.457031	1321.994019	4.397059
606.860229	794.073181	12554.187500	1313.374878	4.415788
607.199036	793.924561	12355.354492	1308.322388	4.449258
607.537903	795.707825	12254.897461	1300.966431	4.409200
607.876648	793.627380	12276.890625	1297.771362	4.390250
608.215271	795.930847	12412.938477	1301.635132	4.353137
608.553955	796.005066	12609.468750	1317.164307	4.411570
608.892578	796.822449	12803.398438	1331.133301	4.450152
609.231140	796.302246	12937.441406	1337.746216	4.459581
609.569641	792.810059	12954.828125	1338.414917	4.486138
609.908081	791.769714	12901.405273	1333.436646	4.473024
610.246521	792.810059	12748.117188	1320.210815	4.411437
610.584961	797.936829	12511.092773	1307.430664	4.349757
610.923340	794.667664	12217.225586	1286.254395	4.303648
611.261597	798.011230	11881.450195	1272.136841	4.277784
611.599854	801.280518	11593.156250	1257.127808	4.223986
611.938110	805.070007	11354.941406	1249.400269	4.211713
612.276245	794.890564	11172.083008	1246.874023	4.355546
612.614319	793.701660	11000.815430	1233.871094	4.312379
612.952393	797.714050	10840.469727	1229.338501	4.297869
613.290466	806.556091	10694.390625	1217.821533	4.159307
613.628479	804.847168	10553.215820	1218.861816	4.247015
613.966370	798.977112	10426.530273	1218.787476	4.360509
614.304260	792.364258	10303.854492	1218.416016	4.479338
614.642151	787.014404	10199.311523	1207.493530	4.467338
614.979980	784.265198	10128.872070	1200.063232	4.449605
615.317749	784.116516	10097.368164	1197.685669	4.440652
615.655396	783.373535	10067.349609	1195.084961	4.434645
615.993164	779.584167	10076.340820	1193.153076	4.448529
616.330811	780.624329	10059.473633	1187.654663	4.386647
616.668396	785.899902	10065.343750	1191.072632	4.366347
617.005859	794.147461	10050.854492	1198.651489	4.369848
617.343445	792.215576	10060.215820	1198.874390	4.387773
617.680908	792.587097	10087.411133	1194.787720	4.327146
618.018311	789.614990	10107.993164	1194.119019	4.340928
618.355652	790.209473	10119.213867	1197.759766	4.368637
618.692993	791.323914	10066.829102	1198.725708	4.392233
619.030273	796.896667	10019.647461	1185.202637	4.210305
619.367554	798.308411	9985.765625	1173.685669	4.085758
619.704712	795.336426	9995.350586	1170.342163	4.076143
620.041870	795.485046	9967.264648	1176.063477	4.149450
620.379028	794.370422	9874.459961	1178.144043	4.226540
620.716064	795.484924	9790.200195	1180.893066	4.284829
621.053040	795.559265	9760.034180	1176.806519	4.252868
621.389954	795.262024	9743.166992	1175.394653	4.248286
621.726929	799.497314	9723.773438	1175.840576	4.217073
622.063843	798.902893	9677.334961	1187.208862	4.373588
622.400635	798.902832	9668.046875	1191.369995	4.425085
622.737427	788.128967	9707.129883	1186.763062	4.469492
623.074219	785.751221	9748.442383	1176.137817	4.355685
623.410889	784.710999	9789.903320	1172.051147	4.301298
623.747559	788.128967	9805.209961	1188.546265	4.440653
624.084167	787.683167	9823.191406	1187.283081	4.422551
624.420715	788.723450	9896.379883	1193.673096	4.446255
624.757324	786.419983	9976.626953	1198.577026	4.484742
625.093750	788.203308	10106.062500	1207.047607	4.495070
625.430176	791.026672	10270.270508	1211.060059	4.431085
625.766602	799.051453	10428.833008	1224.062988	4.413512
626.102905	789.912292	10631.828125	1237.066040	4.543361
626.439209	789.466492	10758.587891	1250.737671	4.626999
626.775452	783.596497	10855.181641	1236.174316	4.493611
627.111694	787.385925	10832.964844	1227.406616	4.380242
627.447876	784.710999	10758.885742	1214.998169	4.314013
627.783997	784.190918	10636.360352	1209.871216	4.320675
628.120056	792.364258	10532.411133	1207.047729	4.257510
628.456055	798.977112	10348.437500	1198.874390	4.187643
628.792053	803.286682	10206.742188	1195.976563	4.176017
629.128052	791.621155	10030.718750	1184.608276	4.253523
629.463928	784.488098	9949.581055	1189.215088	4.415962
629.799744	782.184753	9853.877930	1189.066528	4.485180
630.135559	791.398376	9752.529297	1186.243042	4.406192
630.471375	792.884338	9644.493164	1174.874634	4.315490
630.807068	799.125732	9560.902344	1169.673462	4.229139
631.142700	803.435303	9504.730469	1170.787964	4.221816
631.478333	805.515808	9457.102539	1168.038818	4.190248
631.813965	800.463196	9408.508789	1156.819092	4.139800
632.149475	793.478760	9348.099609	1155.333008	4.229927
632.484924	797.268127	9341.709961	1150.057495	4.128876
632.820435	797.045227	9299.356445	1152.360840	4.179047
633.155884	797.639709	9322.464844	1143.816040	4.060802
633.491150	795.113464	9322.761719	1148.199951	4.140491
633.826477	802.841003	9347.653320	1147.828369	4.037390
634.161804	807.001892	9321.423828	1153.921265	4.074491
634.497009	808.859375	9260.570313	1153.549805	4.078351
634.832153	797.342529	9172.224609	1146.119507	4.164560
635.167297	790.580994	9064.485352	1139.803711	4.220773
635.502380	781.070251	8947.905273	1136.608765	4.353443
635.837463	785.676941	8860.525391	1134.305298	4.317460
636.172424	791.844055	8769.801758	1138.466309	4.344749
636.507324	796.079346	8699.436523	1131.704712	4.246618
636.842224	795.484924	8631.153320	1133.785156	4.317440
637.177124	787.088684	8557.816406	1117.661499	4.254078
637.511963	786.642883	8462.113281	1116.026978	4.291387
637.846741	780.550049	8370.499023	1108.373779	4.319182
638.181396	784.562439	8286.907227	1107.927856	4.310192
638.516113	786.568604	8251.762695	1106.962036	4.291830
638.850769	788.797668	8192.171875	1103.098267	4.245370
639.185303	787.980408	8133.844238	1105.921631	4.328166
639.519836	785.751221	8042.601074	1100.720459	4.340302
639.854370	781.515930	7982.192871	1097.748413	4.391705
640.188843	785.528320	7944.595215	1099.011597	4.378829
640.523254	792.512878	7919.109375	1097.971313	4.286175
640.857605	797.491211	7873.189941	1096.113770	4.220397
641.191895	794.444641	7795.470215	1087.346069	4.183693
641.526184	789.689270	7715.445801	1078.949829	4.176591
641.860413	791.546875	7661.576660	1080.955933	4.212632
642.194580	788.351868	7647.607910	1083.036499	4.296160
642.528748	786.791504	7652.511719	1087.271729	4.376529
642.862793	795.707825	7649.614746	1083.185181	4.194357
643.196838	797.342468	7624.128418	1082.664917	4.179455
643.530823	798.531311	7596.486816	1078.578247	4.119576
643.864746	796.525146	7564.760254	1076.274902	4.133275
644.198669	802.172180	7560.302246	1080.658691	4.120763
644.532532	807.299072	7534.222168	1085.339722	4.133252
644.866333	798.828613	7528.054688	1089.203491	4.315130
645.200073	805.218567	7504.724121	1079.172729	4.089170
645.533813	799.794495	7525.676270	1072.634155	4.056563
645.867554	802.320801	7542.915527	1067.432983	3.933068
646.201172	790.580994	7589.205566	1067.730225	4.076549
646.534729	794.444641	7583.187012	1069.661987	4.054026
646.868225	792.512756	7584.673340	1068.250244	4.059643
647.201782	795.187683	7559.484375	1066.912842	4.017050
647.535217	793.701660	7599.979004	1066.467041	4.007556
647.868591	797.342468	7605.181152	1072.039673	4.035013
648.201965	792.661377	7577.837402	1070.033447	4.087913
648.535278	786.717102	7505.169434	1069.959106	4.215882
648.868591	783.596497	7469.578125	1065.352417	4.214129
649.201782	787.237305	7472.327637	1065.575317	4.163564
649.534912	794.519043	7488.451172	1066.021118	4.055943
649.868103	793.924561	7493.280762	1064.609375	4.040460
650.201172	795.559265	7508.438965	1071.519531	4.110907
650.534180	785.454102	7526.122559	1075.531860	4.303398
650.867188	792.735657	7520.697754	1077.909546	4.238637
651.200134	795.336243	7511.410645	1076.646484	4.188612
651.533020	804.846985	7469.058594	1076.943726	4.082955
651.865845	798.457031	7450.036621	1077.612305	4.196827
652.198608	790.655273	7407.312988	1076.349121	4.317797
652.531433	785.231140	7394.978516	1070.330566	4.313318
652.864136	787.460266	7371.498535	1071.370850	4.312104
653.196777	904.932800	7471.361816	1189.809570	4.338382
653.529358	908.796570	7424.402344	1195.233521	4.396167
653.861938	901.291992	7365.554199	1192.781616	4.509248
654.194519	791.844055	7171.400879	1068.695923	4.339673
654.526978	794.964783	7127.785156	1062.306030	4.221519
654.859375	799.348633	7084.541016	1059.928345	4.145931
655.191833	792.289978	7074.361816	1056.138794	4.200029
655.524170	779.955566	7067.005859	1049.154419	4.281799
655.856445	778.618164	7062.250488	1046.628296	4.265210
656.188660	794.296082	7100.813965	1060.894287	4.227344
656.520874	799.868835	7120.207031	1061.637329	4.141685
656.853088	801.131897	7178.460449	1061.265747	4.079041
657.185181	791.992676	7204.763672	1046.628052	3.970754
657.517212	792.958679	7318.224121	1055.321533	4.020723
657.849243	793.107239	7444.687500	1061.786011	4.039322
658.181274	785.379700	7656.970215	1080.807373	4.299262
658.513123	791.026794	7838.417480	1093.290161	4.289011
658.844971	791.621155	8028.706543	1100.943359	4.274127
659.176819	800.091614	8124.259766	1106.367554	4.181716
659.508667	792.810059	8199.007813	1098.788696	4.131386
659.840393	788.500488	8194.177734	1102.280762	4.237023
660.172058	785.899902	8121.658691	1091.061157	4.159914
660.503662	788.723389	7956.558105	1090.169434	4.205538
660.835266	797.342529	7782.318359	1088.906372	4.174157
661.166931	789.912292	7608.673340	1089.203613	4.389233
661.498413	788.574768	7452.117188	1079.247070	4.362129
661.829773	782.036133	7270.372559	1057.253540	4.241725
662.161194	795.410645	7121.618652	1046.553833	3.969885
662.492615	794.518982	6999.464844	1042.392944	3.994781
662.823975	800.463318	6897.224121	1049.600220	4.086381
663.155212	794.296143	6806.203613	1048.708618	4.231810
663.486450	799.720215	6719.195313	1037.860352	4.022994
663.817627	798.977112	6659.901855	1031.247437	3.963032
664.148743	805.218567	6609.895996	1023.817200	3.765905
664.479858	801.875000	6563.084473	1036.745972	4.076765
664.810913	800.908997	6514.713379	1034.739746	4.092383
665.141907	799.051453	6473.476074	1038.157593	4.213751
665.472778	801.949219	6433.277344	1039.866577	4.224889
665.803711	800.834717	6429.859863	1051.606323	4.454974
666.134583	792.735657	6402.888184	1041.352661	4.431555
666.465454	788.649109	6389.662598	1031.098877	4.328677
666.796143	789.094910	6362.839355	1015.792480	4.067240
667.126831	791.101074	6352.064941	1025.006104	4.206196
667.457458	794.890442	6353.477051	1023.520020	4.113089
667.788147	798.234131	6362.318848	1022.925598	4.038247
668.118774	798.457031	6371.904785	1015.420959	3.892813
668.449219	795.336365	6381.118652	1014.826599	3.929445
668.779663	795.113464	6407.718262	1016.238342	3.939790
669.110107	792.661438	6420.943848	1025.451782	4.136082
669.440552	789.837891	6430.306152	1030.430054	4.265464
669.770874	785.528320	6380.077637	1028.646851	4.345632
670.101135	790.878174	6343.966309	1017.872986	4.087722
670.431396	794.073181	6276.500000	1018.764587	4.098393
670.761597	798.754211	6232.140625	1020.919373	4.088890
671.091797	798.159851	6197.070313	1025.451904	4.209961
671.421875	795.187744	6189.714355	1018.616028	4.141759
671.751892	793.553040	6177.899902	1018.690430	4.181332
672.081909	794.370422	6151.447754	1016.609863	4.148520
672.411865	794.593262	6106.271484	1015.718262	4.162997
672.741821	793.850281	6063.398926	1016.312561	4.221657
673.071716	789.169189	6028.031250	1013.563416	4.283263
673.401550	788.797668	5990.285156	1005.464355	4.165476
673.731262	788.946289	5978.322754	997.216797	4.013402
674.060974	792.587097	5956.031738	989.489258	3.813388
674.390625	797.565430	5928.763184	994.170410	3.831561
674.720276	793.998840	5884.106934	999.668762	4.040581
675.049927	791.472595	5865.233887	999.668762	4.103389
675.379395	797.565430	5850.299316	988.820557	3.785181
675.708923	795.039063	5828.306152	989.786438	3.869204
676.038330	796.525208	5810.101563	997.142395	4.001479
676.367737	784.785339	5787.810547	1003.681091	4.375268
676.697083	787.014465	5770.720703	993.724548	4.147718
677.026428	793.998840	5745.160645	987.780457	3.913862
677.355652	800.388916	5768.937500	992.238586	3.861282
677.684875	802.766602	5820.726563	1003.161133	3.993546
678.013977	796.896667	5874.670410	1011.334412	4.223066
678.343079	794.964783	5916.279785	1009.625427	4.191514
678.672180	793.330078	5968.589355	1006.430359	4.117673
679.001221	785.305481	6041.628906	1006.207336	4.202593
679.330139	784.859619	6123.436035	1012.671814	4.267284
679.659058	781.144531	6185.998535	1016.981262	4.363425
679.987976	786.717224	6266.765625	1025.897583	4.364567
680.316772	786.419983	6309.415527	1028.052490	4.375026
680.645630	786.865784	6343.148926	1028.646973	4.351491
680.974304	785.082520	6305.700684	1021.736755	4.286735
681.302979	782.927734	6291.731934	1018.764648	4.281091
681.631653	784.042297	6257.181152	1007.916321	4.090414
681.960266	783.522217	6226.865234	1001.526367	4.004968
682.288757	788.426086	6167.125488	997.513977	3.887332
682.617249	789.837891	6095.274902	1003.161072	4.020841
682.945679	792.141296	6021.863770	997.216858	3.921347
683.274109	788.872009	5934.261230	993.278809	3.972621
683.602478	796.376526	5856.912109	992.535828	3.876256
683.930725	798.902832	5756.975098	991.867004	3.891919
684.259033	803.732605	5678.808594	991.421204	3.849962
684.587280	800.463196	5593.137207	983.099304	3.810735
684.915344	801.726379	5556.134277	984.288269	3.839845
685.243469	798.234131	5516.234375	980.795959	3.869475
685.571533	804.847107	5499.367188	984.808289	3.833431
685.899536	808.487854	5466.822754	984.362488	3.775483
686.227539	808.710876	5467.046387	988.226257	3.853638
686.555420	796.971008	5477.373535	983.247864	3.979933
686.883301	785.305481	5502.859375	988.969238	4.317148
687.211121	779.955627	5532.134766	987.780457	4.373253
687.538940	777.355042	5547.143066	994.913391	4.561174
687.866638	783.670715	5556.951660	994.839172	4.423969
688.194336	792.735657	5539.639160	996.473816	4.292023
688.521973	793.255798	5505.683594	989.935120	4.173631
688.849609	790.803894	5454.488770	979.012695	4.035624
689.177063	785.974182	5389.250488	971.731018	4.035318
689.504578	795.410645	5335.604004	969.353333	3.831174
689.832031	790.729553	5273.486816	968.981873	3.976399
690.159485	795.336365	5195.988770	967.347168	3.908757
690.486816	792.958557	5106.751465	963.557800	3.954739
690.814087	800.388916	5045.525879	966.901367	3.922428
691.141296	795.410645	4987.867188	961.254333	3.955764
691.468506	791.324036	4936.523926	950.034607	3.828780
691.795715	789.540710	4863.781738	937.551758	3.632850
692.122803	791.546936	4826.333496	933.019226	3.506314
692.449829	788.946289	4813.627441	942.084167	3.804969
692.776855	791.769836	4786.061523	948.622864	3.926930
693.103821	793.181580	4754.854004	949.217285	3.938632
693.430664	794.147461	4714.582031	942.084229	3.773479
693.757568	790.506653	4708.117676	937.923157	3.762918
694.084351	783.373535	4700.539063	942.901550	4.072537
694.411133	782.407532	4680.402832	949.885925	4.296526
694.737854	785.305420	4661.529785	952.189392	4.305323
695.064575	792.141296	4652.762207	948.845703	4.059047
695.391174	797.936951	4672.378418	946.170898	3.825944
695.717773	798.085510	4707.597168	947.062500	3.810629
696.044250	795.262024	4742.371094	955.755920	4.066113
696.370789	790.358093	4789.553223	956.647522	4.158072
696.697205	782.407715	4847.435059	957.019043	4.295453
697.023621	780.327148	4959.409668	957.613464	4.242230
697.349915	789.614990	5108.312012	963.409119	4.024226
697.676208	795.559265	5272.075195	969.501953	3.885671
698.002380	796.450867	5437.027344	983.916687	4.039710
698.328674	794.296082	5586.004395	993.724609	4.161950
698.654724	792.289856	5733.271973	994.839172	4.099374
698.980896	793.330078	5845.246094	989.192078	3.876984
699.306946	787.460205	5886.410156	984.213867	3.858709
699.632935	790.580872	5854.236816	985.922791	3.857725
699.958862	796.896667	5753.556641	985.254089	3.800087
700.284729	805.738708	5602.053223	979.161316	3.615747
700.610596	804.252625	5444.605957	972.102539	3.617179
700.936340	799.720215	5255.505859	956.721863	3.523546
701.262146	795.484924	5087.581543	947.434021	3.540207
701.587830	797.862610	4919.583496	951.669250	3.731612
701.913513	798.531433	4783.386230	954.864258	3.923175
702.239075	792.735657	4648.601074	962.294495	4.397426
702.564697	787.831726	4532.168457	952.635193	4.401406
702.890137	786.865723	4425.395996	949.886047	4.480390
703.215698	792.364197	4352.281738	946.839539	4.339295
703.541016	795.113342	4280.134277	940.226624	4.163914
703.866455	789.466370	4240.604980	928.115234	4.017482
704.191711	790.358093	4193.125488	915.038086	3.664076
704.517029	794.816223	4153.373535	906.270264	3.318509
704.842163	797.639709	4117.262207	910.728455	3.406675
705.167419	791.992676	4106.191406	916.226868	3.748544
705.492493	790.506653	4113.547363	916.969910	3.805649
705.817566	791.695496	4114.735840	914.740784	3.702793
706.142578	799.497253	4100.246582	909.688293	3.338364
706.467590	798.085510	4101.436035	918.455994	3.643891
706.792480	798.457031	4087.169922	914.517883	3.529066
707.117371	797.491150	4086.500977	916.301086	3.612332
707.442200	800.463196	4090.067383	915.483826	3.496488
707.766907	798.011230	4091.182373	920.907898	3.731864
708.091675	800.240234	4109.014648	921.130859	3.653638
708.416321	799.422852	4091.776611	922.765442	3.746335
708.741028	803.138000	4100.246582	921.873840	3.601211
709.065552	806.853210	4117.931152	922.988464	3.507476
709.390137	804.104004	4140.890625	927.892395	3.709808
709.714600	804.475586	4172.691895	929.452637	3.710482
710.039063	795.707825	4207.985840	930.567200	3.952180
710.363403	803.063782	4269.880371	927.297913	3.583522
710.687744	803.806885	4313.867676	923.582825	3.412361
711.012085	796.005066	4359.786621	927.892395	3.700769
711.336304	782.036133	4394.560059	933.465088	4.191777
711.660461	781.070129	4431.414551	938.963562	4.325439
711.984619	790.209412	4428.665527	939.483643	4.102681
712.308716	791.769836	4396.863770	936.214294	4.006677
712.632751	791.175354	4356.294434	933.539368	3.993247
712.956726	793.776062	4302.722168	927.297852	3.805182
713.280701	794.370422	4249.818359	926.109131	3.812493
713.604553	794.816223	4186.810059	925.068848	3.840002
713.928467	792.289856	4141.336426	929.527039	4.097798
714.252258	796.896667	4122.166504	912.660339	3.481332
714.575989	797.788330	4111.541504	905.230042	3.242297
714.899719	799.051453	4107.751465	893.861816	2.865487
715.223267	794.816223	4091.999268	903.075378	3.283383
715.546936	797.936829	4074.984375	912.437439	3.494017
715.870422	795.113464	4060.940674	915.038086	3.672106
716.193970	798.605652	4056.037109	915.409485	3.585765
716.517395	795.559265	4052.024658	910.208313	3.520659
716.840820	803.212402	4024.607178	918.604492	3.582054
717.164124	798.754211	3939.233154	923.359863	3.967728
717.487488	801.132019	3865.004639	922.839783	3.972351
717.810730	792.661438	3800.361328	917.415710	4.147830
718.133972	796.970947	3760.163330	910.579834	3.834003
718.457092	785.528320	3706.962891	906.790466	4.150774
718.780212	792.067078	3657.105469	903.892578	3.903107
719.103210	788.277588	3613.118408	900.697571	3.979693
719.426208	796.673828	3573.886719	900.994812	3.756319
719.749207	793.850281	3536.661133	897.205383	3.768219
720.072083	797.713928	3510.209229	895.124939	3.591196
720.394958	794.444641	3476.475830	889.775146	3.554415
720.717773	790.135193	3447.051758	885.168274	3.576818
721.040527	788.946289	3410.940674	884.945496	3.661305
721.363281	789.986511	3392.736328	889.329285	3.816839
721.685913	788.649109	3361.232422	893.193054	4.063773
722.008545	794.667542	3342.656494	890.295227	3.753065
722.331055	792.587158	3310.409180	886.951599	3.747860
722.653503	793.107239	3290.867432	882.642090	3.584605
722.976013	782.779236	3278.384766	883.013611	4.016435
723.298401	785.082520	3280.093750	891.038330	4.246707
723.620789	789.763611	3286.260986	896.165100	4.262031
723.943115	798.085449	3288.266846	900.920471	4.129620
724.265381	799.497253	3293.468018	898.394226	3.965442
724.587585	795.856445	3291.090576	892.078430	3.856231
724.909790	790.432312	3278.533203	895.793640	4.234609
725.231873	790.729553	3285.294922	893.638855	4.125340
725.553894	788.277527	3293.393799	896.462341	4.318555
725.875916	855.001465	3372.897705	955.755859	4.001531
726.197937	864.214905	3379.213623	955.087158	3.613213
726.519775	867.707214	3402.247314	951.074890	3.289263
726.841675	798.308411	3380.625244	889.106384	3.516144
727.163513	792.438538	3407.820313	889.106384	3.696127
727.485291	788.426208	3432.042725	894.233215	4.002358
727.806946	806.778992	3453.144531	895.199219	3.341195
728.128662	802.915222	3471.869141	897.056824	3.527285
728.450256	810.716980	3496.537354	893.713074	3.090158
728.771790	799.348694	3497.280518	886.357178	3.225007
729.093323	796.450867	3501.590088	885.985657	3.309803
729.414795	799.274414	3471.274658	890.741028	3.423151
729.736145	799.497314	3454.482178	892.598450	3.506654
730.057495	807.150452	3445.343018	889.477844	3.120598
730.378845	803.881165	3450.766846	892.524231	3.348957
730.700134	803.361023	3477.887451	893.861755	3.383804
731.021301	795.559265	3503.150391	898.914307	3.817232
731.342468	789.689270	3531.162354	903.892578	4.165764
731.663574	783.076355	3530.791016	908.796570	4.575447
731.984680	780.995850	3524.029297	914.072021	4.851424
732.305664	786.122803	3527.893311	903.595398	4.284553
732.626648	790.580994	3534.208984	895.793640	3.834800
732.947571	793.404480	3526.778564	884.202393	3.321826
733.268433	791.026794	3502.333008	887.397461	3.554400
733.589233	792.067078	3470.160156	889.477844	3.637318
733.909973	800.017395	3437.466797	899.285828	3.763804
734.230713	798.308411	3396.748779	904.487000	4.086243
734.551331	795.856445	3345.331299	901.217712	4.132666
734.871948	788.723328	3293.913818	889.626465	4.027763
735.192505	788.426208	3250.223877	876.920715	3.594711
735.513062	791.175354	3214.856201	875.137451	3.464239
735.833435	788.203308	3173.246338	878.258240	3.775820
736.153931	787.534607	3136.986572	883.607971	4.089182
736.474304	785.676941	3117.742188	883.087891	4.177025
736.794617	789.689270	3113.729736	883.385071	4.031590
737.114807	802.395203	3096.937500	875.731873	3.196135
737.434998	803.658264	3089.358643	877.960938	3.250762
737.755188	803.435364	3081.408203	869.862000	2.916042
738.075256	793.032898	3106.819580	871.868103	3.407194
738.395325	788.277527	3129.259033	870.010559	3.491400
738.715271	786.865784	3177.630127	881.824707	3.971906
739.035278	787.683105	3207.499756	886.654358	4.090031
739.355164	783.076355	3222.137451	884.945496	4.176572
739.675049	788.723389	3210.843506	879.818542	3.760968
739.994873	785.677002	3188.255127	877.812317	3.834852
740.314636	795.559265	3148.726318	876.772034	3.451211
740.634277	795.707825	3101.916016	871.645203	3.292737
740.953979	793.404480	3060.306396	869.639099	3.362943
741.273499	789.466370	3031.848389	874.097229	3.774150
741.593140	787.385925	3008.888672	868.673157	3.659110
741.912598	794.296082	2978.944580	869.341858	3.435142
742.232117	799.423035	2946.920166	863.917786	3.003252
742.551453	791.844055	2907.019531	869.787659	3.684971
742.870850	788.128906	2880.344971	870.827881	3.952698
743.190063	787.237305	2844.233643	872.982727	4.168477
743.509338	790.135193	2817.930664	868.524597	3.865745
743.828552	792.661438	2795.565430	868.970398	3.809916
744.147705	785.454102	2782.413818	867.632813	4.115191
744.466797	789.837952	2779.442139	877.960876	4.429169
744.785828	782.110413	2764.953125	870.976501	4.481751
745.104858	783.968018	2764.655518	878.629578	4.779227
745.423706	781.367432	2758.191162	874.171570	4.694609
745.742615	788.649109	2742.141602	878.109558	4.579514
746.061401	795.856384	2739.615234	872.611145	3.948780
746.380249	798.234070	2712.346436	872.834045	3.897367
746.698975	801.057617	2692.210693	869.416077	3.614645
747.017639	808.562195	2669.473877	869.490417	3.274106
747.336304	814.357849	2672.594482	864.363586	2.691032
747.654907	806.630371	2686.117920	867.112793	3.218027
747.973389	805.292908	2678.018555	863.694824	3.118552
748.291931	798.457031	2679.579102	861.465820	3.349532
748.610352	803.955505	2691.318848	854.704285	2.688872
748.928711	798.159851	2720.668213	856.190247	3.018473
749.247070	804.326965	2734.191406	858.122253	2.787516
749.565308	797.862610	2733.968506	863.769226	3.404081
749.883545	794.593323	2708.408447	860.276917	3.432076
750.201782	785.825623	2689.312744	864.066345	4.110389
750.519836	790.432434	2676.012451	857.824890	3.574097
750.837952	785.082581	2672.743164	859.756775	3.955912
751.155884	784.710999	2655.281982	857.750671	3.904672
751.473877	784.190918	2642.576416	868.747375	4.549995
751.791809	793.330139	2628.607422	869.416199	4.145753
752.109619	799.943115	2635.963135	873.056946	3.982191
752.427490	801.800598	2623.777832	863.843445	3.405248
752.745300	801.577698	2626.081299	865.924011	3.526785
753.062988	795.707825	2627.195557	862.803223	3.663437
753.380615	792.884277	2637.523682	864.066406	3.858864
753.698303	789.466492	2643.468018	865.180847	4.083835
754.015808	792.661438	2641.684570	864.289246	3.873819
754.333374	786.568604	2629.498779	864.735107	4.241425
754.650757	780.029968	2617.981934	857.750671	4.228658
754.968262	776.091980	2597.771729	857.007629	4.441815
755.285583	784.190918	2595.988525	856.264465	3.978013
755.602905	790.060852	2602.824219	854.184082	3.537319
755.920105	792.289978	2600.446777	850.246094	3.205260
756.237305	795.707825	2598.143311	845.639221	2.770218
756.554443	794.964783	2592.050537	848.091248	2.956257
756.871582	797.045227	2596.954346	853.886902	3.158030
757.188599	794.741882	2610.031494	860.499817	3.622449
757.505615	793.478821	2622.365967	869.118958	4.135856
757.822510	799.794617	2649.635010	870.679260	3.831933
758.139465	800.537537	2672.148682	867.261414	3.565050
758.456238	806.481750	2697.337158	864.809387	3.084722
758.773010	797.639709	2733.745850	859.162415	3.177651
759.089783	788.946289	2754.996338	863.026123	3.767953
759.406433	786.271301	2767.330811	867.558594	4.103223
759.723145	782.556335	2763.318359	877.069336	4.771548
760.039673	789.763672	2777.881592	876.400635	4.357738
760.356201	788.351868	2782.562500	871.942444	4.191662
760.672668	793.627258	2778.996094	869.044617	3.798657
760.989136	792.289856	2763.763672	875.211731	4.206085
761.305481	789.020691	2751.429688	877.069336	4.486763
761.621826	778.543945	2747.565674	886.877258	5.501885
761.938049	784.339539	2755.590576	890.443848	5.382587
762.254333	793.404480	2791.776123	882.270508	4.446922
762.570496	802.320801	2872.171875	873.131287	3.421042
762.886597	790.952454	3007.031250	867.261414	3.443423
763.202637	778.989746	3200.218506	877.812317	4.081505
763.518677	777.206482	3441.627686	882.344727	3.946007
763.834656	792.364258	3655.471436	895.050537	3.586533
764.150574	795.633545	3799.172607	903.892578	3.604382
764.466370	797.416809	3829.116455	913.254700	3.820889
764.782288	788.946350	3750.132813	910.654114	4.110101
765.097961	788.723450	3597.440674	900.028870	3.962856
765.413696	786.419983	3408.191406	887.100281	3.840163
765.729309	781.367371	3245.914063	881.601746	4.067051
766.044861	781.144531	3115.884521	878.109558	4.153140
766.360474	784.116638	3015.501709	879.372620	4.268918
766.675903	787.757507	2928.716064	875.954773	4.119523
766.991394	787.460266	2860.431641	877.440857	4.340658
767.306763	792.141357	2792.742188	875.657532	4.174555
767.622131	796.079346	2735.826172	868.524475	3.734772
767.937378	799.720215	2667.096191	861.688660	3.318477
768.252625	798.828613	2620.211182	860.202637	3.369639
768.567810	796.302246	2575.406494	859.013733	3.524891
768.882996	794.741882	2558.985596	863.471985	3.895726
769.197998	784.711121	2536.695068	858.270752	4.198647
769.513062	782.630615	2524.212158	861.391418	4.522372
769.828064	781.961853	2490.255615	853.663879	4.197289
770.142944	786.865784	2451.023682	850.766113	3.839800
770.457825	787.385925	2414.392578	850.840515	3.900082
770.772705	784.116638	2375.755127	848.834290	4.066103
771.087402	785.008240	2353.093018	843.038757	3.700726
771.402100	787.906067	2336.300537	842.741455	3.541435
771.716736	791.992676	2325.526611	846.976624	3.585441
772.031372	791.472656	2300.858154	850.914734	3.938164
772.345947	787.088684	2281.762451	840.586731	3.579246
772.660461	785.305481	2265.935791	844.153259	3.974508
772.974854	789.912292	2265.489990	852.400879	4.234856
773.289246	796.896667	2250.926758	856.784668	4.118760
773.603638	796.599426	2244.165283	854.704163	4.013961
773.917908	793.924622	2239.484131	844.450439	3.495243
774.232178	785.676941	2233.242432	839.843689	3.741920
774.546265	787.831726	2213.775391	840.660950	3.704861
774.860474	785.825500	2189.478516	846.085144	4.293058
775.174561	785.751282	2183.162842	845.490723	4.275007
775.488586	792.810059	2181.602295	846.902405	3.894920
775.802551	801.057617	2180.264648	843.038635	3.043852
776.116516	804.252686	2171.571289	852.549377	3.532219
776.430359	801.280579	2170.085205	848.611328	3.457816
776.744202	801.057617	2159.608643	850.766113	3.658935
777.057922	808.042053	2154.258789	846.382324	2.848001
777.371704	807.744873	2139.843994	838.729187	2.325977
777.685303	796.450867	2128.549805	843.633118	3.541948
777.998962	789.614990	2112.574951	843.335938	4.060663
778.312500	786.494324	2100.686523	853.069580	5.065869
778.626038	787.460266	2100.315186	844.376160	4.335277
778.939453	790.358093	2090.952881	850.246094	4.604663
779.252869	792.289856	2091.101318	848.611328	4.336385
779.566223	791.546875	2087.386230	852.475098	4.701835
779.879578	786.865906	2092.587646	849.354431	4.785746
780.192749	790.060852	2094.519287	848.685730	4.494193
780.505920	784.190918	2091.250244	845.416321	4.684210
780.819031	790.952454	2079.807373	843.261536	4.058570
781.132141	788.946289	2063.460693	849.205750	4.728033
781.445190	797.119629	2050.606445	860.945618	5.091876
781.758118	796.227966	2046.668457	863.471924	5.377622
782.071045	794.518982	2042.656128	858.939514	5.161334
782.383911	793.627380	2027.201050	849.057190	4.493433
782.696838	803.286804	2008.253906	848.685730	3.767649
783.009583	806.630371	1993.096191	846.828125	3.388025
783.322266	807.893555	1989.529663	845.044739	3.144046
783.634888	797.491028	1983.956909	834.865295	3.150050
783.947510	792.810059	1977.121094	832.636230	3.362813
784.260132	789.986511	1971.325562	830.184326	3.402733
784.572571	781.961853	1955.127441	837.986145	4.775481
784.885010	776.983582	1953.641235	835.013977	4.931799
785.197449	779.584167	1947.697266	831.818909	4.471720
785.509766	786.568665	1956.762085	830.332947	3.739919
785.822083	788.723389	1955.796265	826.320557	3.221493
786.134277	794.816223	1951.783813	821.639465	2.318409
786.446533	794.593262	1953.269897	819.633301	2.161089
786.758606	796.673767	1945.616821	831.447449	3.026580
787.070740	790.506653	1951.041016	842.592834	4.488121
787.382690	790.209412	1956.464844	844.970520	4.695465
787.694641	800.463196	1991.684448	837.094482	3.075104
788.006653	804.029724	2020.365234	832.339111	2.327433
788.318481	808.339294	2067.027344	833.082214	1.965771
788.630310	801.652100	2112.277588	835.979919	2.619194
788.942017	796.153625	2152.624023	842.146973	3.390663
789.253784	788.649109	2163.323486	844.376038	4.053828
789.565430	787.534485	2132.562500	842.592834	4.093472
789.877014	782.556213	2095.262451	835.608398	4.041436
790.188538	782.481934	2056.847900	832.487732	3.923975
790.500061	784.413818	2014.569702	834.791077	4.095193
790.811462	787.311707	1979.498901	840.883972	4.493612
791.122925	788.426208	1954.978882	836.425781	4.114651
791.434204	784.116699	1930.830566	834.716797	4.412618
791.745483	791.546875	1913.889648	832.339111	3.634561
792.056702	786.642883	1888.923828	828.623962	3.808564
792.367920	785.676941	1871.091187	824.760254	3.600774
792.678955	780.178528	1863.809448	822.754089	3.928973
792.990112	781.739014	1851.623657	825.577576	4.097504
793.301086	781.738953	1863.437866	825.651855	4.059623
793.612122	787.088806	1863.363770	828.326721	3.831541
793.922974	793.107239	1863.215210	828.698242	3.325927
794.233826	789.169189	1847.462891	831.819031	4.030057
794.544556	791.472595	1839.661133	831.521729	3.820795
794.855286	792.364258	1843.376343	826.692078	3.266168
795.166016	796.228027	1856.082031	829.664246	3.154795
795.476624	793.330139	1877.332520	826.914978	3.098225
795.787292	786.642883	1889.963867	832.339111	4.141698
796.097778	789.169189	1911.883179	832.413391	3.851756
796.408264	779.732849	1919.536499	828.549622	4.282910
796.718689	780.624451	1928.973022	836.277161	4.846325
797.029053	782.556335	1939.969727	840.140869	4.975278
797.339355	791.101074	1948.365845	841.924133	4.391654
797.649658	793.404480	1946.359741	832.487732	3.389832
797.959839	789.466370	1921.022461	824.165833	3.066526
798.270020	792.958679	1884.837280	828.623962	3.266415
798.580078	796.822266	1872.502930	833.453613	3.405411
798.890137	796.450867	1861.357544	835.013977	3.621266
799.200195	792.809998	1857.419434	826.840759	3.196549
799.510071	790.580994	1839.066772	820.302063	2.834666
799.820007	793.181458	1828.664429	817.106934	2.310562
800.129883	792.958679	1823.760254	822.531067	2.868873
800.439575	794.147461	1809.494141	837.391602	4.259052
800.749329	788.797668	1795.822266	839.917969	5.076371
801.058960	788.054688	1784.899902	844.227539	5.635063
801.368591	784.636719	1782.670898	832.041809	4.749846
801.678162	786.940186	1775.834961	823.051208	3.651655
801.987671	781.590332	1767.215942	821.490906	4.048248
802.297119	784.933899	1753.024048	820.747864	3.699445
802.606506	783.447937	1751.909546	832.636292	5.079020
802.915894	788.574768	1742.175781	830.630188	4.410170
803.225159	787.237305	1739.946777	829.887146	4.476689
803.534424	787.385925	1731.550659	828.475403	4.351940
803.843628	788.203308	1726.646606	826.394836	4.069668
804.152771	782.481934	1729.767212	830.778748	5.098444
804.461792	787.534607	1734.894165	828.846863	4.360779
804.770874	784.190918	1738.460938	829.069824	4.702957
805.079773	783.745117	1739.500977	826.840637	4.509051
805.388733	779.658508	1739.203735	834.791077	5.745697
805.697571	782.927795	1751.760864	842.890137	6.189130
806.006470	785.528320	1767.215820	853.664001	6.940669
806.315125	792.661438	1784.379883	839.472168	4.720163
806.623901	799.051453	1795.376587	832.190430	3.326121
806.932495	802.543640	1791.587036	818.518738	1.615207
807.241150	801.875000	1783.859741	825.057373	2.360767
807.549622	799.274414	1756.442017	824.611572	2.647097
807.858154	797.714050	1741.655884	827.063538	3.109247
808.166565	798.085510	1723.823120	824.017151	2.801187
808.474915	799.051453	1715.426880	822.976990	2.610888
808.783264	806.555969	1700.269165	828.326721	2.435989
809.091492	808.487976	1694.473511	830.853027	2.524313
809.399719	804.698486	1686.523071	840.660950	4.078188
809.707825	798.902893	1674.560181	839.769348	4.666946
810.015930	795.039124	1665.198242	836.722900	4.790362
810.323975	790.283752	1664.678223	823.274170	3.772944
810.632080	791.546875	1660.591431	821.936707	3.496924
810.939880	790.432373	1645.210938	821.416565	3.624821
811.247864	795.410645	1627.378296	834.345215	4.679818
811.555664	789.763611	1617.718872	834.865417	5.447372
811.863464	784.933899	1603.824219	838.283264	6.514836
812.171143	784.933899	1603.452759	827.360840	5.183380
812.478882	783.447815	1601.595093	823.497070	4.895116
812.786438	793.627380	1609.173828	822.828369	3.580543
813.094055	794.964844	1603.601196	834.493896	4.888360
813.401489	798.605652	1604.938843	831.447449	4.072981
813.708984	787.608826	1605.310181	828.698242	5.024991
814.016357	788.128906	1612.814819	824.462952	4.405804
814.323730	788.203308	1611.997559	820.896423	3.968602
814.630981	794.816223	1598.548828	821.490906	3.318850
814.938232	791.769775	1584.951294	811.831543	2.529278
815.245361	790.580872	1578.932739	805.738708	1.922725
815.552490	785.231140	1583.019531	803.583984	2.300465
815.859619	780.550110	1577.521118	808.933777	3.561443
816.166565	781.887512	1574.028809	820.822205	4.915120
816.473572	787.088684	1579.452759	820.227783	4.182307
816.780457	790.803894	1599.886230	818.072998	3.370374
817.087341	795.856445	1619.873657	813.614746	2.155089
817.394043	795.782227	1623.811646	817.552917	2.629217
817.700806	802.320801	1627.081055	820.450684	2.198200
818.007507	796.227966	1629.310059	824.314392	3.371387
818.314209	799.051453	1630.721802	825.131653	3.135882
818.620667	793.775940	1641.718628	825.205994	3.706625
818.927246	794.221863	1649.891968	830.035645	4.185466
819.233704	791.546875	1694.102051	828.921082	4.140933
819.540161	790.878113	1739.649536	824.983093	3.594647
819.846497	795.039063	1807.487793	825.726074	3.030969
820.152832	792.215637	1871.091187	821.565186	2.720383
820.458984	793.998840	1944.427856	832.041809	3.306851
820.765259	789.912292	2024.897827	838.208984	3.910709
821.071350	788.426086	2132.042480	857.453430	5.137429
821.377502	790.729492	2300.858398	862.431702	4.748085
821.683472	793.775940	2633.288574	869.638977	4.124084
821.989441	802.246521	3293.245117	885.985596	3.361667
822.295349	795.262024	4356.368652	918.827454	3.469860
822.601196	799.125793	5705.557129	963.186218	3.343783
822.907043	800.463196	6923.675781	1003.012451	3.307892
823.212769	802.766602	7596.189941	1033.476563	3.396078
823.518494	802.023621	7559.781738	1025.303223	3.304048
823.824097	794.890564	6943.960938	997.068176	3.287938
824.129700	785.454102	6059.312012	959.545349	3.301023
824.435242	785.379700	5143.308594	935.991394	3.456038
824.740723	779.584167	4363.575684	916.895569	3.831242
825.046082	785.528381	3767.742188	895.347839	3.682481
825.351501	778.543945	3321.108643	880.412903	4.006543
825.656799	778.321045	3010.523438	872.685364	4.227409
825.962036	783.893738	2802.252686	871.273682	4.329257
826.267212	788.426208	2706.402344	868.078674	4.152944
826.572449	796.971008	2706.402344	862.803223	3.447739
826.877502	794.444641	2827.218506	865.255188	3.483444
827.182495	793.627380	3088.615967	875.806152	3.580792
827.487488	791.101074	3431.448242	893.267334	3.869425
827.792419	791.844055	3705.253906	902.406494	3.794950
828.097290	793.553040	3789.067139	898.617126	3.507381
828.402100	796.227966	3637.489502	890.443787	3.315986
828.706848	793.181580	3357.071289	875.657532	3.216829
829.011597	789.094910	3002.127197	866.815491	3.511950
829.316223	786.419983	2663.306885	850.023132	3.388758
829.620789	790.952454	2374.195068	842.147034	3.233527
829.925354	794.816223	2148.834717	838.357605	3.215715
830.229797	799.274414	1996.514038	838.580505	3.283060
830.534302	802.469421	1879.115723	840.066467	3.492052
830.838562	801.057617	1788.020508	834.196594	3.357672
831.142944	798.085510	1727.612671	835.013977	3.972823
831.447144	796.079346	1672.628540	828.698242	3.721285
831.751404	790.729492	1641.421509	822.902649	3.781998
832.055542	796.227966	1619.353516	821.268005	3.042068
832.359619	792.884277	1628.938599	814.060608	2.532889
832.663635	800.611816	1662.894897	818.741699	2.102544
832.967651	795.039063	1715.129761	815.175110	2.188485
833.271545	797.193848	1812.020508	825.206055	2.760295
833.575439	787.237305	1964.043945	833.304993	3.914635
833.879211	780.327209	2185.837646	850.023132	4.958762
834.183044	781.738953	2425.760986	867.707214	5.229143
834.486694	787.906067	2614.118164	868.747375	4.426721
834.790344	800.091614	2663.826904	869.118896	3.703706
835.093933	792.512878	2587.146484	860.128235	3.767641
835.397522	786.791504	2435.271729	859.088074	4.385650
835.700928	780.029968	2253.378662	848.165527	4.624537
836.004395	790.283691	2077.949951	842.295654	4.039242
836.307739	799.348633	1917.753296	831.521790	2.876701
836.611023	805.887268	1808.528320	824.537354	1.860096
836.914307	801.577698	1719.290649	821.862488	2.210363
837.217529	802.097900	1645.953735	820.970764	2.236503
837.520691	794.073242	1578.115601	824.908875	3.932904
837.823730	794.593262	1512.952026	820.004883	3.537455
838.126831	788.723450	1466.958618	826.469238	5.565295
838.429749	796.748047	1427.578125	825.205994	4.511190
838.732727	797.491028	1409.374023	822.382507	4.068013
839.035522	797.119568	1387.380493	817.255615	3.411381
839.338379	785.602722	1376.680786	813.243347	4.676307
839.641113	787.608887	1384.928345	813.094666	4.266692
839.943848	791.918396	1422.525757	815.546692	3.746911
840.246460	795.113464	1475.503296	811.831543	2.457132
840.549072	791.175354	1534.276855	815.323730	3.249674
840.851563	792.884338	1570.685059	810.345520	2.244943
841.154053	795.187683	1575.143433	815.100891	2.553120
841.456482	795.262024	1537.620483	814.209167	2.552290
841.758850	793.107239	1490.141113	808.785095	2.249224
842.061157	799.497314	1437.014648	803.138184	0.571101
842.363403	804.698486	1393.473267	799.051453	-0.959116
842.665588	805.590088	1344.284790	805.218567	-0.068967
842.967712	798.159851	1313.151978	807.744873	1.861198
843.269775	791.101074	1285.882935	810.271179	3.874456
843.571777	787.831787	1262.031616	819.484680	6.675012
843.873840	788.054688	1242.192871	824.165710	7.951550
844.175659	785.602722	1235.208374	817.850098	7.172369
844.477600	785.379700	1228.818359	808.933777	5.311688
844.779297	782.036133	1230.675903	798.902832	3.759519
845.081116	781.367432	1222.725586	797.565430	3.670035
845.382751	778.915466	1223.988647	794.221741	3.439047
845.684387	781.218933	1195.084961	798.234131	4.111281
845.985962	788.500488	1177.549561	808.264954	5.080199
846.287537	797.416809	1158.602417	808.264954	3.003482
846.588989	802.840820	1154.441406	807.521973	1.331384
846.890381	806.110168	1150.057495	805.292908	-0.237612
847.191711	799.645813	1149.091553	807.521973	2.253901
847.493042	799.645813	1149.760254	807.447693	2.228380
847.794250	806.333069	1137.871826	814.060730	2.330847
848.095459	814.729309	1139.803711	820.673584	1.828589
848.396606	807.001892	1144.633545	827.658020	6.117948
848.697693	796.227966	1153.698364	824.462952	7.898552
848.998657	789.169250	1141.364136	822.233887	9.388165
849.299622	787.831787	1136.460205	815.769531	8.013617
849.600464	789.169189	1124.348877	811.162781	6.561731
849.901367	789.912292	1122.416992	807.299072	5.229033
850.202087	793.701660	1111.940186	802.395081	2.731731
850.502808	792.884277	1115.358032	801.875000	2.788048
850.803467	789.540710	1108.670776	802.989502	4.214204
851.104065	789.466492	1106.813354	813.391907	7.539200
851.404663	785.751282	1098.862915	805.961670	6.454691
851.705139	787.683289	1101.909302	798.457092	3.428680
852.005615	790.729675	1105.698730	791.472656	0.235890
852.306030	795.707825	1099.903198	791.323975	-1.441130
852.606384	800.388916	1101.240723	798.382813	-0.666808
852.906616	798.308411	1089.946777	807.001953	2.980932
853.206909	793.255859	1098.937378	812.723206	6.368506
853.506958	784.859619	1091.878540	805.590149	6.752200
853.807129	779.955566	1099.383179	801.206238	6.652735
854.107178	782.481934	1089.277832	804.549866	7.193034
854.407166	783.150635	1099.308716	813.094727	9.471240
854.707092	779.286926	1091.729858	810.939941	10.130815
855.007019	779.286926	1093.513062	810.048340	9.789578
855.306763	778.543945	1080.435913	811.608643	10.952494
855.606567	786.122742	1074.863159	810.196960	8.337668
855.906250	787.014404	1067.135620	804.029785	6.074292
856.205933	796.673767	1065.575317	810.196960	5.029050
856.505493	797.193848	1072.857056	809.305237	4.393546
856.805054	796.227966	1077.389526	814.283508	6.421768
857.104492	786.865784	1081.773315	804.029785	5.820130
857.403931	783.522156	1074.714600	803.658203	6.915031
857.703308	781.664551	1083.333618	805.515808	7.906431
858.002563	789.837891	1081.773315	800.908997	3.792313
858.301819	802.543762	1087.197388	803.583984	0.365434
858.601013	805.738770	1074.343018	796.525208	-3.430162
858.900208	797.045349	1077.017944	802.023621	1.778128
859.199219	788.426208	1073.005615	802.469421	4.934726
859.498291	789.243469	1072.114014	810.939941	7.670106
859.797302	791.992676	1060.374146	806.778992	5.509440
860.096191	792.512878	1061.117188	808.339355	5.892116
860.395020	786.791504	1053.018188	809.973938	8.707780
860.693787	791.175293	1053.612671	812.277344	8.040794
860.992554	794.073242	1046.479492	812.648865	7.359415
861.291260	798.011230	1047.222534	810.048279	4.830057
861.589844	798.457092	1047.891235	810.716980	4.915080
861.888428	800.760437	1058.442261	808.339294	2.941169
862.186890	800.240295	1067.878662	809.751038	3.553580
862.485413	797.565430	1076.720703	810.419739	4.604717
862.783813	797.193909	1076.126221	805.070007	2.823659
863.082153	791.472595	1075.234619	803.509583	4.241930
863.380371	791.546875	1069.290405	802.915222	4.093110
863.678589	789.243469	1066.838501	803.063782	4.978588
863.976746	795.559265	1063.717773	801.800598	2.327479
864.274902	792.661438	1059.333862	796.525146	1.448859
864.572937	784.636719	1051.160645	804.847168	7.582977
864.870911	789.615051	1049.971802	806.110168	6.335583
865.168884	793.998840	1055.395874	805.961609	4.576475
865.466736	797.268250	1063.569214	801.206238	1.478774
865.764587	787.534485	1065.352417	799.125793	4.172268
866.062317	789.614990	1064.460815	804.401306	5.379858
866.360107	794.890442	1056.138794	798.531311	1.393643
866.657715	797.565430	1051.160522	794.816223	-1.084093
866.955322	794.296082	1048.337036	796.450867	0.848204
867.252808	795.782166	1049.005859	801.354797	2.200675
867.550293	798.457031	1053.315308	801.652039	1.253641
867.847717	799.571594	1045.587891	800.983337	0.573841
868.145081	803.138184	1040.609619	805.441467	0.969920
868.442383	802.766602	1031.098877	803.286804	0.227827
868.739624	802.023621	1036.077026	797.565430	-1.904775
869.036804	791.992676	1038.380493	798.977234	2.834782
869.333984	792.438477	1038.529053	805.292908	5.223455
869.631042	791.992737	1038.900635	804.252625	4.965369
869.928101	792.438477	1031.470337	803.955383	4.818147
870.224976	791.249695	1044.696289	810.196838	7.475793
870.521851	788.128967	1047.445435	817.478516	11.318043
870.818726	787.460266	1059.333862	806.704651	7.078431
871.115479	786.271423	1048.337036	801.206299	5.698907
871.412231	788.054688	1047.148193	796.376648	3.211952
871.708862	793.553040	1051.532104	801.726379	3.168218
872.005493	792.141357	1060.151245	801.875000	3.631822
872.302063	786.419922	1063.866333	806.333191	7.177339
872.598572	782.258972	1058.219360	807.224792	9.046885
872.895020	781.738953	1055.841675	804.252625	8.213590
873.191406	785.974121	1057.327759	798.902832	4.764524
873.487671	782.853516	1059.556763	796.673767	4.994611
873.783997	781.218811	1063.643433	794.816223	4.814528
874.080200	773.714294	1061.340088	797.565430	8.292418
874.376343	778.543884	1062.751831	802.543701	8.444457
874.672424	787.311584	1062.751831	803.658203	5.934724
874.968445	804.029785	1065.129517	804.549866	0.199188
875.264465	813.540527	1064.757935	800.388977	-5.235127
875.560364	814.134949	1063.346191	803.361023	-4.323210
875.856201	809.602478	1063.494751	804.252625	-2.107135
876.152039	800.686096	1066.912720	799.571594	-0.418629
876.447754	799.200012	1063.940552	795.930725	-1.234902
876.743469	799.571594	1062.306030	794.147461	-2.064493
877.039063	797.491150	1060.597046	797.565430	0.028232
877.334595	797.491028	1067.655762	795.113464	-0.880042
877.630127	791.398254	1062.083130	798.011230	2.443053
877.925537	789.094910	1065.500977	801.206238	4.381716
878.221008	783.967957	1061.265747	809.899658	9.351572
878.516296	787.980286	1066.541260	802.766602	5.308107
878.811646	791.472595	1072.336792	804.178406	4.523827
879.106812	793.255798	1090.169556	798.754211	1.851855
879.401978	791.621155	1112.534668	797.565430	1.852298
879.697083	791.398254	1142.701538	798.754333	2.093940
879.992126	786.940125	1172.051147	797.639832	2.778343
880.287109	789.392090	1216.112671	802.766602	3.134255
880.582031	782.184753	1270.873657	798.085449	3.253746
880.876892	786.419922	1395.107910	800.314636	2.282732
881.171753	789.392090	1642.461548	813.837646	2.865600
881.466492	798.531433	2044.810913	837.763184	3.147909
881.761230	795.559265	2590.935791	861.094238	3.650208
882.055786	796.673828	3132.008545	872.908386	3.264395
882.350403	793.107239	3500.846924	884.425293	3.372483
882.644958	792.364258	3557.019775	883.756592	3.305740
882.939453	782.407654	3359.225830	875.583252	3.615917
883.233826	780.252869	3020.777100	863.694824	3.724216
883.528137	781.813232	2670.737061	854.629883	3.854928
883.822449	783.596497	2354.875977	843.038635	3.783040
884.116577	784.488098	2090.061279	831.521790	3.602532
884.410828	785.602722	1873.691528	821.936707	3.339248
884.704956	793.998840	1695.290894	826.023438	3.553188
884.999023	798.085449	1556.864868	819.187500	2.781052
885.292969	800.760437	1444.370605	817.924316	2.666813
885.586914	798.679871	1360.482788	812.574524	2.473226
885.880798	795.782043	1305.201538	813.168945	3.413081
886.174622	802.692322	1276.000610	807.744934	1.067510
886.468384	796.822449	1241.970093	809.156677	2.770818
886.762085	799.497253	1228.595581	804.252625	1.108224
887.055664	796.227966	1209.722534	807.967773	2.839168
887.349304	800.314636	1191.741333	802.766602	0.626418
887.642822	800.611816	1154.961426	802.320801	0.482288
887.936340	797.491150	1130.441528	802.840820	1.606747
888.229736	793.701660	1119.964966	803.361023	2.960603
888.523071	791.323975	1111.865845	799.348633	2.503466
888.816284	789.169189	1096.410889	797.639648	2.756937
889.109619	792.810059	1080.955933	802.915222	3.506961
889.402710	789.392090	1068.696045	811.311340	7.847813
889.695862	792.438538	1052.349487	809.751038	6.660935
889.988892	783.299316	1036.745972	805.961670	8.941666
890.281921	771.708069	1020.919434	809.156677	15.026846
>>>>>End Processed Spectral Data<<<<<
