Jaz Data File
++++++++++++++++++++++++++++++++++++
Date: Fri Jun 04 14:39:20 2021
User: jaz
Dark Spectrum Present: Yes
Reference Spectrum Present: Yes
Processed Spectrum Present: Yes
Spectrometers: JAZA3586
Integration Time (usec): 48700 (JAZA3586)
Spectra Averaged: 10 (JAZA3586)
Boxcar Smoothing: 1 (JAZA3586)
Correct for Electrical Dark: No (JAZA3586)
Strobe/Lamp Enabled: Yes (JAZA3586)
Correct for Detector Non-linearity: No (JAZA3586)
Correct for Stray Light: No (JAZA3586)
Number of Pixels in Processed Spectrum: 2048
>>>>>Begin Processed Spectral Data<<<<<
W	D	R	S	P
191.335022	0.000000	0.000000	0.000000	0.000000
191.713211	285.396759	276.108887	270.536224	159.999344
192.091385	568.861633	553.852478	547.833923	140.099228
192.469528	852.549500	835.682617	827.806641	146.694916
192.847641	856.413147	848.388489	837.020081	241.668442
193.225739	861.539978	859.905334	842.890137	1140.911865
193.603790	859.831055	868.004395	852.549377	-89.090599
193.981842	860.648376	872.091003	865.403809	41.558918
194.359863	872.536865	876.772156	876.846375	101.752388
194.737854	888.140442	882.121887	875.063171	217.282578
195.115829	894.010254	882.196228	871.422302	191.196060
195.493774	891.632629	883.236511	865.998230	305.312500
195.871704	889.626465	885.911316	874.543030	405.998138
196.249603	890.666687	886.431458	882.047607	203.509155
196.627457	879.967102	886.802979	885.465515	80.434647
197.005310	885.539856	885.094055	883.310730	500.027374
197.383133	886.505676	886.357178	878.035156	5704.110352
197.760910	889.032043	888.437683	878.406738	1787.687378
198.138687	880.858704	887.248779	877.589417	-51.161945
198.516449	869.638977	883.013611	872.611145	22.222425
198.894180	870.604980	874.394470	868.153076	-64.702759
199.271866	872.239563	868.598877	862.877441	257.152679
199.649536	870.010559	866.518372	866.592590	97.874718
200.027191	879.818542	869.936279	865.403809	145.864700
200.404816	881.601746	872.462585	863.100403	202.440292
200.782410	893.267334	885.242615	866.221191	337.035370
201.159988	885.465637	894.530457	870.530701	-164.757141
201.537537	888.437683	898.319885	877.143616	-114.286949
201.915070	885.911377	897.948425	872.759766	-109.259438
202.292557	885.539795	901.663574	875.508972	-62.211361
202.670029	878.406738	907.533386	869.936279	-29.081476
203.047485	867.335632	917.044128	873.428467	12.257129
203.424911	861.317139	918.381653	870.084778	15.364433
203.802292	861.688660	923.657166	875.286133	21.942554
204.179688	871.868164	911.545715	874.988831	7.865068
204.557037	874.617371	907.459167	870.307861	-13.122026
204.934357	872.388184	900.251709	862.951843	-33.866283
205.311661	866.295410	897.948425	864.809387	-4.694728
205.688934	860.945618	905.527161	867.038391	13.666583
206.066177	855.744446	908.202148	873.725647	34.277523
206.443390	858.344971	914.815125	864.512146	10.921124
206.820587	861.168457	906.864746	864.214905	6.666729
207.197769	866.889832	910.356934	862.208740	-10.769274
207.574921	863.397644	914.666504	867.781433	8.550589
207.952042	866.146790	911.471436	868.301575	4.754114
208.329147	865.923889	909.242371	862.580261	-7.718710
208.706223	884.425293	920.833679	881.453125	-8.163416
209.083267	882.939270	932.945007	875.286072	-15.304641
209.460297	879.892883	929.155579	873.131348	-13.725469
209.837280	856.710388	910.654114	850.468933	-11.570308
210.214264	854.704285	898.914368	850.320313	-9.916227
210.591217	851.955078	900.177490	856.858887	10.169148
210.968124	856.487488	907.533508	857.973450	2.911024
211.345016	857.230469	912.140320	863.249023	10.960793
211.721893	859.385254	912.883240	859.979736	1.111224
212.098724	857.973450	907.533447	856.338928	-3.298066
212.475555	858.939453	910.951355	863.100403	7.999995
212.852356	854.258362	917.192810	868.153015	22.077978
213.229126	857.676270	925.366150	869.787598	17.892376
213.605865	854.332703	926.777832	856.561768	3.076901
213.982590	853.069519	917.564270	847.571106	-8.525365
214.359283	853.292480	909.390930	846.159424	-12.715247
214.735931	855.224304	903.149597	851.583496	-7.596840
215.112579	867.112793	900.920471	855.818787	-33.406631
215.489197	868.673096	903.818298	849.354309	-54.968487
215.865799	873.651428	898.988586	846.828125	-105.865479
216.242355	866.072510	905.527283	846.679504	-49.152496
216.618896	859.608154	902.109375	849.577332	-23.601257
216.995407	854.704163	903.669739	855.967468	2.579987
217.371902	855.670166	900.623352	847.125305	-19.008354
217.748367	856.487488	909.168152	848.314209	-15.514760
218.124802	854.184082	913.403381	842.964355	-18.946064
218.501236	850.766113	919.496277	854.704163	5.729725
218.877609	851.806396	911.917297	859.162354	12.237309
219.253983	854.629883	916.969910	854.778564	0.238501
219.630295	855.893066	918.084473	852.846680	-4.898405
220.006592	861.317200	922.542664	851.583557	-15.898030
220.382889	863.026123	921.948181	852.623779	-17.654413
220.759140	865.478088	920.313477	856.413147	-16.531189
221.135391	861.391418	917.861511	858.122131	-5.789413
221.511581	855.744385	909.391052	859.162354	6.371260
221.887772	853.218201	905.601563	855.521484	4.396976
222.263931	848.239929	907.087646	851.657776	5.807951
222.640060	851.360596	910.877136	857.379089	10.112305
223.016159	853.069519	914.369385	852.697998	-0.606071
223.392212	861.317139	915.112305	850.097412	-20.856384
223.768265	863.471985	921.799561	840.512390	-39.363190
224.144302	863.694824	931.607605	850.394592	-19.584284
224.520294	852.475098	937.551758	859.236633	7.947580
224.896286	850.617493	936.288574	869.193176	21.682560
225.272217	851.657715	923.359863	868.524475	23.523369
225.648148	861.762939	915.855286	861.911560	0.274753
226.024048	861.317078	916.152527	855.001465	-11.517390
226.399902	863.249023	924.400146	854.332703	-14.580796
226.775772	867.930115	928.783997	858.493652	-15.506755
227.151581	864.437805	929.452698	857.899231	-10.057041
227.527374	856.264465	936.882996	849.502930	-8.387074
227.903137	852.400818	950.406067	851.880676	-0.530728
228.278870	856.487488	964.077820	866.221130	9.046949
228.654572	859.236633	970.393555	877.292236	16.243345
229.030273	850.097412	975.966248	881.155945	24.675316
229.405930	849.577332	980.572998	875.434753	19.739143
229.781555	850.617615	984.436768	867.855774	12.881683
230.157181	855.075745	980.127136	861.911621	5.466454
230.532761	863.917725	986.740051	856.561768	-5.989104
230.908325	863.694824	981.018799	858.716553	-4.243184
231.283859	870.604980	986.368652	859.236633	-9.820307
231.659332	870.902161	977.155090	856.561707	-13.496526
232.034821	873.131287	977.972412	856.933289	-15.450042
232.410263	871.942383	967.124207	855.818665	-16.939913
232.785690	864.289246	970.244934	857.750671	-6.171046
233.161087	872.908386	965.935364	852.326477	-22.124668
233.536469	869.044617	972.548340	845.193542	-23.043688
233.911804	868.970398	976.634949	851.211914	-16.494272
234.287140	857.007568	989.192139	856.264465	-0.562171
234.662430	855.967346	1003.012390	859.831055	2.627568
235.037704	856.115906	1002.269348	854.035461	-1.423466
235.412933	861.094238	997.142578	857.379089	-2.730757
235.788162	862.506042	987.408875	866.072510	2.855393
236.163345	858.939453	990.009460	867.484192	6.519217
236.538513	860.425476	1001.006348	866.518311	4.334043
236.913635	859.682434	1002.863831	863.471924	2.646636
237.288742	863.694824	1007.693542	866.741272	2.115608
237.663834	862.728943	1003.755432	869.118896	4.531031
238.038879	861.985840	1017.278564	864.809387	1.818210
238.413910	857.750671	1017.798645	868.821716	6.917329
238.788910	860.202637	1031.098755	861.985840	1.043443
239.163879	856.338867	1029.761353	861.540039	2.999134
239.538834	858.790833	1047.668335	860.202637	0.747471
239.913757	850.914734	1058.145020	861.020020	4.876356
240.288651	856.636047	1068.175903	863.100403	3.055857
240.663528	854.035461	1081.476196	866.741211	5.586400
241.038361	858.865051	1105.698853	866.146790	2.950057
241.413177	860.574036	1145.450806	871.942383	3.990619
241.787979	862.208740	1179.407104	872.462585	3.232629
242.162735	861.911621	1210.762817	880.933044	5.452590
242.537476	865.478088	1226.069214	885.688477	5.604794
242.912170	863.917725	1236.174316	883.013489	5.129732
243.286865	863.546204	1226.217651	882.864929	5.326784
243.661514	860.499756	1218.267334	876.549133	4.485979
244.036148	862.580261	1204.224121	874.245789	3.414529
244.410751	863.620422	1188.323242	873.131287	2.929098
244.785339	865.329529	1190.626831	874.097168	2.695270
245.159882	859.533875	1193.450317	872.091064	3.760578
245.534378	858.196472	1231.196045	868.821716	2.848594
245.908890	851.583496	1279.269897	871.273682	4.603884
246.283356	858.047852	1364.495239	877.960938	3.931916
246.657791	859.979675	1436.643188	879.372742	3.362978
247.032196	863.397522	1490.809937	882.493408	3.043594
247.406586	861.019836	1516.295532	885.391296	3.719268
247.780960	856.190247	1524.691772	890.146667	5.079483
248.155289	857.156250	1506.190430	886.208557	4.476237
248.529602	853.143860	1454.029907	875.880554	3.783861
248.903870	858.419373	1390.500977	876.177734	3.337526
249.278122	856.784668	1344.953491	878.555359	4.459664
249.652344	862.208801	1310.179810	880.933105	4.179803
250.026550	856.636047	1302.749634	875.880554	4.313813
250.400711	860.425476	1289.598145	872.759766	2.873969
250.774857	862.654541	1293.536011	871.125183	1.965887
251.148987	868.895996	1305.870239	875.137512	1.428349
251.523071	866.444031	1334.402466	879.224121	2.731031
251.897125	868.450195	1356.767700	882.196228	2.814979
252.271164	865.552429	1366.798462	871.868164	1.260007
252.645187	859.088074	1370.736450	867.409973	1.626488
253.019165	858.122070	1373.485718	872.536865	2.797014
253.393112	855.893066	1350.749146	880.784485	5.030032
253.767044	854.704163	1323.257202	880.784485	5.566141
254.140930	847.571228	1291.529907	878.035217	6.861897
254.514801	849.725891	1287.740356	875.063171	5.784576
254.888657	850.766113	1286.180054	877.366638	6.109250
255.262466	856.636047	1296.582397	870.679382	3.192056
255.636276	861.317139	1312.780518	876.920715	3.456222
256.010010	866.444092	1328.532715	874.320129	1.704443
256.383759	864.512207	1350.303345	883.905212	3.992046
256.757446	855.521484	1385.819946	876.177734	3.895212
257.131134	860.425476	1429.064331	884.573914	4.246709
257.504791	864.363525	1475.726440	883.979492	3.208563
257.878418	872.016785	1532.791016	889.552246	2.653775
258.252014	863.026123	1620.393677	885.168396	2.923584
258.625580	864.437805	1738.757935	892.301453	3.186893
258.999115	860.425476	1871.165405	893.341614	3.256638
259.372650	865.626648	1995.250977	898.988586	2.953366
259.746124	860.128235	2099.052002	901.589172	3.346528
260.119598	859.236633	2145.416748	913.106140	4.188333
260.493042	856.561768	2131.002197	905.007141	3.801306
260.866425	855.595886	2069.850830	903.669739	3.959124
261.239838	853.366699	1969.690796	896.239441	3.840528
261.613159	851.806396	1870.570923	897.131042	4.448982
261.986511	851.955017	1784.974243	889.849426	4.061482
262.359802	864.437805	1743.141968	886.282898	2.486058
262.733063	864.289246	1725.680664	887.768860	2.725778
263.106293	868.301575	1710.448608	883.385071	1.791076
263.479523	864.512146	1688.900757	882.270508	2.154125
263.852692	868.227234	1670.919556	878.926941	1.332977
264.225861	865.923828	1669.210571	879.892822	1.738980
264.598969	859.087952	1683.105103	885.465515	3.201094
264.972076	858.939453	1713.123535	892.004211	3.870917
265.345154	867.261414	1753.024048	898.394226	3.514803
265.718201	872.611145	1803.921509	897.651184	2.688689
266.091217	875.880554	1864.998169	893.861755	1.817903
266.464203	868.375916	1914.335327	894.456238	2.493435
266.837158	861.242920	1953.121216	897.502625	3.320856
267.210114	855.670166	1975.709351	896.165100	3.615493
267.583038	853.961182	1996.662720	892.375671	3.361726
267.955902	854.778503	2018.136230	887.991882	2.854959
268.328766	856.636047	2027.572632	897.799805	3.515456
268.701569	859.831055	2039.089478	903.075256	3.667068
269.074371	864.735046	2050.458008	902.332275	3.170828
269.447144	863.546204	2079.658936	906.344543	3.519274
269.819885	856.636047	2144.970947	904.487000	3.714170
270.192596	853.886902	2249.366211	910.356934	4.046641
270.565277	855.818787	2384.894287	915.335144	3.892310
270.937927	861.242859	2497.091553	929.527039	4.174236
271.310577	858.716553	2576.075195	934.059509	4.387142
271.683136	853.738281	2623.034424	931.756165	4.409544
272.055725	859.088074	2629.201660	925.143250	3.731692
272.428284	860.128357	2606.910889	924.697327	3.696452
272.800812	864.363586	2559.728760	924.028625	3.519303
273.173279	848.908630	2499.766602	925.366028	4.631373
273.545776	847.645447	2463.878418	932.424805	5.245492
273.918152	844.524719	2429.104492	929.824219	5.383099
274.290558	858.047852	2429.698975	935.619873	4.935702
274.662964	857.676270	2432.225342	925.143250	4.284844
275.035278	861.614319	2451.989990	932.201965	4.438426
275.407593	859.979675	2486.540771	922.988464	3.873743
275.779907	866.072510	2536.620605	930.641602	3.865144
276.152161	861.465759	2573.326172	923.508545	3.624290
276.524384	855.670105	2602.006836	924.845947	3.961197
276.896606	854.555481	2617.090576	924.771667	3.983818
277.268799	860.053955	2636.557617	923.657043	3.580240
277.640930	862.728943	2650.749512	927.446594	3.619514
278.013031	854.035461	2660.928955	927.595154	4.071058
278.385162	848.239929	2669.622314	926.332031	4.287519
278.757233	847.719727	2690.427490	926.703430	4.286285
279.129272	855.595886	2722.303223	923.954346	3.661981
279.501282	857.527649	2758.414063	930.270081	3.826764
279.873230	855.149963	2824.989502	924.325867	3.511753
280.245178	857.899231	2913.632568	935.471191	3.773445
280.617126	861.242859	3045.148438	937.923157	3.511155
280.988983	859.756836	3160.763672	941.118225	3.535904
281.360870	855.595886	3264.936279	935.694153	3.324490
281.732697	855.149963	3330.099609	932.945007	3.143298
282.104492	860.722717	3359.523438	936.362854	3.027057
282.476288	867.558594	3360.489014	935.842712	2.739110
282.848053	865.478210	3356.922607	943.867432	3.146337
283.219757	866.889832	3371.188477	950.777588	3.349751
283.591461	859.385254	3360.786377	952.412292	3.718997
283.963135	864.214905	3375.646729	948.771484	3.366867
284.334747	859.682434	3429.739258	945.725037	3.347887
284.706360	864.586426	3528.487549	940.226563	2.839450
285.077942	853.738281	3632.734375	943.421631	3.227185
285.449524	852.623718	3717.811279	943.347412	3.166414
285.821014	847.125305	3747.086670	955.012939	3.720313
286.192535	858.642334	3776.212891	949.737488	3.122295
286.563995	861.242859	3757.934326	955.087219	3.239709
286.935425	855.298645	3747.903564	954.567078	3.431801
287.306824	849.577332	3664.312744	961.402893	3.972862
287.678223	848.834290	3598.183594	958.356445	3.983566
288.049561	859.608154	3548.920898	959.248108	3.705034
288.420898	866.295410	3557.168701	959.471008	3.462653
288.792145	863.694824	3590.827393	964.746521	3.705419
289.163452	856.413147	3682.368164	965.415222	3.857177
289.534668	848.462708	3799.395264	963.632019	3.902811
289.905914	843.855957	3913.821533	957.985046	3.717602
290.277039	845.119141	4008.854736	955.012939	3.473546
290.648193	846.307922	4049.424072	963.706238	3.665128
291.019318	857.453369	4035.455078	973.142761	3.640319
291.390381	858.939453	3967.245361	981.613281	3.946646
291.761475	850.394714	3905.648438	975.669006	4.100291
292.132507	842.518555	3865.599365	976.932129	4.446245
292.503510	841.775574	3869.462891	973.588562	4.353587
292.874481	856.338867	3919.394287	978.492493	3.987967
293.245422	858.344971	4021.337158	972.251160	3.601216
293.616364	863.769104	4173.063965	969.947693	3.208496
293.987213	861.911621	4315.353027	968.015869	3.072421
294.358093	869.416199	4431.191406	974.257263	2.943506
294.728943	863.694824	4520.354004	974.257263	3.023592
295.099731	858.270691	4621.926270	981.018860	3.261408
295.470490	855.893005	4741.999512	983.842346	3.292482
295.841248	854.109680	4839.781738	993.055908	3.486143
296.211975	854.332703	4931.174316	990.752502	3.346213
296.582642	854.035461	5024.498535	996.250916	3.410064
296.953308	854.481262	5072.572754	1003.458252	3.531858
297.323883	857.602051	5060.238281	1008.585144	3.592581
297.694519	855.224304	4945.069336	997.588379	3.480916
298.065063	858.865051	4815.708496	992.684387	3.381972
298.435608	857.304688	4661.827637	988.151917	3.439255
298.806122	865.626709	4501.259277	991.421204	3.460044
299.176575	867.484192	4355.179688	975.446106	3.095509
299.547028	873.428467	4249.669922	964.375000	2.693721
299.917450	863.917725	4222.847168	955.161438	2.716452
300.287872	858.122131	4213.707520	957.539124	2.962732
300.658234	857.304871	4205.088379	960.436951	3.080608
301.028564	860.351135	4170.537109	956.870422	2.915827
301.398865	865.775208	4120.085938	957.464844	2.817482
301.769135	864.586426	4060.718018	963.186218	3.084973
302.139374	858.716614	4012.792969	965.192383	3.375814
302.509583	860.202637	3981.214111	965.563904	3.375869
302.879791	861.762939	3947.406250	957.687744	3.108746
303.249939	870.530579	3911.592529	964.449280	3.088352
303.620087	870.233398	3870.874268	965.415222	3.172050
303.990173	865.923889	3849.995361	968.164368	3.426207
304.360260	863.100403	3832.014404	967.124207	3.503766
304.730286	858.493652	3816.856689	966.678467	3.656915
305.100281	857.304871	3816.856445	960.957092	3.502295
305.470276	858.865173	3832.237061	955.161438	3.238622
305.840179	858.270691	3875.852783	961.328613	3.415248
306.210144	862.728821	3897.772217	962.368835	3.282985
306.579987	863.843445	3933.139893	961.551514	3.183403
306.949890	866.592590	3980.842529	959.099426	2.970437
307.319702	864.883606	4083.157227	963.111877	3.052204
307.689484	858.939453	4176.109863	965.415222	3.209837
308.059265	858.122070	4290.907715	962.294495	3.034632
308.429016	852.475098	4371.897949	968.833191	3.306170
308.798737	851.063416	4456.305664	979.012695	3.548979
309.168396	848.537048	4485.061035	979.607117	3.604268
309.538055	852.995178	4500.664063	982.281982	3.544368
309.907684	854.035461	4493.828613	981.167480	3.492836
310.277313	855.670105	4502.596191	984.139465	3.522675
310.646851	853.663879	4487.289551	973.960144	3.310640
311.016388	851.880676	4478.001953	971.136536	3.288800
311.385895	856.858948	4430.596680	966.752747	3.075038
311.755371	856.784668	4378.064941	969.799133	3.209471
312.124817	864.809326	4305.173828	962.220215	2.831412
312.494232	864.140625	4249.595215	960.808411	2.855386
312.863617	859.979675	4241.348145	966.158264	3.140107
313.232971	856.487488	4282.883301	975.223145	3.465322
313.602295	857.156250	4369.371582	979.086975	3.471619
313.971619	863.917786	4461.729492	967.495789	2.878917
314.340820	861.094238	4485.432129	963.780579	2.833244
314.710083	862.803223	4462.918457	971.879578	3.029802
315.079285	860.722717	4383.191895	979.384094	3.368699
315.448486	869.713379	4302.573730	985.402649	3.370055
315.817596	861.391418	4185.101074	970.616455	3.286239
316.186707	864.363525	4083.974609	970.244934	3.288640
316.555786	859.385254	3999.641357	959.396729	3.184819
316.924866	857.973450	3958.031982	962.814636	3.381910
317.293884	854.406982	3950.898682	957.242004	3.321017
317.662872	861.985840	3984.037842	957.390625	3.055836
318.031830	862.060242	4022.452148	958.505127	3.051675
318.400757	871.793762	4063.690186	962.814697	2.851625
318.769684	861.837219	4083.305908	963.929199	3.169113
319.138550	864.958008	4085.014893	961.179993	2.988208
319.507416	863.769226	4045.634521	956.647522	2.918989
319.876190	865.998230	3984.854736	955.087158	2.856461
320.244995	866.295410	3915.976563	958.653625	3.028455
320.613770	854.035461	3862.032471	962.220215	3.596571
320.982483	847.348206	3874.143799	956.721863	3.613513
321.351166	845.342102	3919.989014	955.235657	3.574184
321.719818	850.171692	4009.374756	956.350281	3.360929
322.088440	853.961121	4130.785645	959.619629	3.224418
322.457062	858.419250	4306.214355	961.254211	2.982630
322.825623	859.608154	4492.268066	968.090149	2.986296
323.194183	860.128235	4623.857910	977.080750	3.107357
323.562653	863.992004	4686.123535	980.870300	3.057935
323.931183	863.397644	4685.380859	983.247864	3.135812
324.299591	867.484192	4640.427734	987.483093	3.180511
324.668060	862.357361	4578.310547	984.956848	3.299274
325.036407	862.505920	4507.202637	971.953918	3.002938
325.404755	852.326477	4425.544434	966.678406	3.200251
325.773102	856.710449	4352.356445	969.427551	3.224500
326.141388	859.459534	4277.384766	972.399719	3.304349
326.509674	869.193176	4202.413574	972.176819	3.089614
326.877899	868.747375	4130.042480	963.111877	2.893467
327.246124	865.403809	4071.417725	966.752686	3.161211
327.614288	863.397644	4031.665283	962.888916	3.140242
327.982422	850.914734	4026.241455	968.981750	3.718264
328.350525	850.171692	4035.232178	969.873352	3.758222
328.718628	852.475159	4077.138672	970.913635	3.672894
329.086700	856.115967	4121.794922	969.873352	3.483422
329.454712	853.886902	4182.871582	957.539124	3.113629
329.822693	863.100403	4222.623535	959.248108	2.861945
330.190674	867.707214	4254.945313	955.755920	2.599425
330.558563	868.375916	4288.530273	967.272949	2.891596
330.926483	854.852844	4364.541504	969.427673	3.264530
331.294312	858.865234	4461.729980	973.365723	3.178040
331.662231	861.391418	4574.595703	974.703125	3.051588
332.029999	861.391418	4676.910645	974.926025	2.975600
332.397766	851.286316	4745.566406	978.789734	3.274120
332.765503	857.453369	4793.194824	976.411926	3.022520
333.133240	863.843445	4793.714355	981.464661	2.993005
333.500916	868.375916	4788.884766	987.111633	3.028579
333.868561	862.580322	4764.810547	987.111633	3.191286
334.236176	854.852783	4753.442383	983.470764	3.299090
334.603790	853.515320	4739.473145	980.275879	3.262016
334.971344	856.487488	4710.346680	985.774231	3.354734
335.338867	862.803223	4690.730957	983.619446	3.156178
335.706360	869.787598	4678.768066	977.452332	2.826602
336.073853	870.530762	4684.786621	973.217041	2.692171
336.441284	864.660828	4699.201172	975.074524	2.879451
336.808655	862.654602	4726.990723	981.093079	3.064911
337.176086	858.865173	4771.869629	994.244690	3.459733
337.543396	859.459534	4797.355469	1001.452087	3.605798
337.910706	855.744446	4822.246582	995.804993	3.531085
338.277954	854.629883	4805.008301	980.795898	3.193770
338.645264	856.190247	4788.735840	975.966248	3.045763
339.012421	852.846619	4745.269043	981.241760	3.298592
339.379669	850.617493	4678.693848	985.402649	3.520963
339.746796	857.379089	4575.189941	981.464661	3.337598
340.113953	862.506042	4503.562500	979.532776	3.214087
340.481018	861.614319	4470.869141	974.480164	3.127123
340.848114	855.372864	4491.228027	974.926025	3.288172
341.215118	856.784668	4525.407227	974.257324	3.202092
341.582153	862.654602	4643.697266	981.836243	3.152084
341.949066	862.877441	4816.079590	989.192078	3.195249
342.316010	862.060120	5034.083984	990.232361	3.072184
342.682922	862.357422	5301.499512	996.399414	3.019547
343.049835	863.992004	5631.403809	998.479980	2.820985
343.416656	858.419250	5955.660645	1005.612976	2.887714
343.783478	854.629883	6167.943359	1009.625305	2.917114
344.150269	858.493652	6294.629395	1015.792480	2.893578
344.516998	858.493652	6289.576660	1025.377563	3.072756
344.883728	865.106628	6209.701172	1029.390015	3.073823
345.250427	858.345032	6067.263184	1020.250549	3.108237
345.617065	861.094238	5902.756348	1014.752258	3.047765
345.983704	850.468933	5777.185547	1006.653259	3.170150
346.350281	854.258362	5644.927246	1004.869934	3.143853
346.716827	854.852783	5525.670410	992.758606	2.952499
347.083405	860.499817	5441.336914	989.117859	2.807741
347.449860	868.450195	5382.117676	989.415100	2.679969
347.816376	869.936279	5388.358887	999.743103	2.872835
348.182770	872.908386	5394.600586	996.028015	2.722866
348.549194	864.289246	5432.420898	999.743103	2.965192
348.915558	864.363464	5488.742188	991.569824	2.750777
349.281921	861.019836	5551.602051	1003.161133	3.030355
349.648193	857.230469	5608.369141	997.068176	2.943246
350.014526	861.465759	5634.895996	1010.739929	3.127189
350.380737	859.608215	5684.975098	1009.476807	3.105849
350.746948	866.146790	5733.197754	1020.102112	3.163216
351.113159	870.010559	5808.169434	1015.495361	2.946135
351.479309	865.552429	5858.694824	1017.724365	3.047618
351.845428	861.465759	5971.709473	1017.352844	3.050483
352.211517	861.094238	6089.702637	1021.513855	3.068113
352.577576	870.307800	6214.605469	1022.628357	2.850151
352.943604	872.313965	6339.359375	1031.693237	2.915272
353.309601	865.998230	6488.113281	1038.008911	3.059537
353.675537	868.227295	6669.411621	1042.690063	3.007365
354.041473	866.592590	6786.810059	1052.720947	3.143945
354.407379	862.134460	6910.970215	1052.275024	3.143424
354.773254	859.162354	7025.173340	1057.030396	3.209012
355.139038	863.026123	7221.184082	1049.971802	2.940249
355.504913	864.883728	7473.888184	1054.429810	2.867997
355.870636	863.843445	7776.894531	1067.284302	2.942852
356.236389	855.372986	8064.892090	1082.516357	3.150604
356.602081	860.425598	8297.383789	1094.924927	3.153162
356.967804	857.081970	8454.683594	1096.187988	3.147125
357.333405	859.905334	8523.041992	1097.748413	3.103730
357.699036	852.326477	8527.425781	1096.262329	3.178276
358.064606	857.899170	8471.996094	1092.101440	3.075904
358.430176	866.815491	8415.377930	1084.448242	2.883102
358.795654	866.221130	8460.627930	1082.962158	2.853956
359.161163	863.992004	8672.687500	1088.460571	2.874598
359.526581	852.698059	9106.616211	1110.602661	3.124633
359.892029	855.001465	9672.727539	1137.500366	3.203761
360.257416	851.063416	10247.013672	1150.577637	3.187695
360.622772	855.818787	10675.443359	1154.515747	3.041837
360.988098	861.614441	10902.958008	1150.280396	2.874774
361.353394	859.162415	10931.639648	1166.181274	3.048097
361.718658	853.292480	10714.006836	1158.379395	3.093963
362.083893	843.930359	10267.595703	1150.206177	3.250071
362.449097	845.936523	9650.958008	1121.971069	3.134967
362.814209	854.778503	8992.338867	1108.002319	3.111790
363.179382	859.236633	8413.892578	1082.590698	2.956509
363.544434	860.574158	8003.220703	1063.643433	2.843054
363.909546	856.858948	7792.646484	1057.773438	2.896780
364.274536	852.846680	7670.121094	1055.098633	2.966757
364.639587	860.277039	7557.478516	1064.386597	3.047684
365.004517	860.425537	7468.314941	1058.813843	3.002295
365.369507	867.187073	7412.142578	1061.711548	2.972128
365.734344	863.992004	7429.678223	1053.166870	2.881266
366.099274	865.106628	7431.906738	1047.742676	2.781203
366.464081	867.707214	7383.833496	1046.851074	2.749238
366.828918	864.883728	7317.480469	1045.959351	2.806244
367.193665	862.877441	7218.732422	1051.903442	2.974045
367.558411	862.951843	7148.665527	1048.188477	2.946947
367.923126	861.688660	7045.012207	1044.919189	2.963302
368.287781	860.945618	7012.839844	1036.745972	2.857662
368.652435	854.481262	6984.381348	1038.677734	3.004885
369.017059	858.419250	7010.907715	1047.296875	3.069939
369.381653	854.035461	7039.365234	1049.303101	3.156948
369.746185	858.419250	7107.277832	1048.039917	3.034485
370.110687	856.190247	7201.568359	1050.046021	3.055071
370.475220	857.304871	7276.019531	1055.544556	3.088464
370.839661	852.177917	7330.854980	1060.076782	3.208971
371.204041	857.230530	7349.802246	1056.956177	3.076218
371.568451	858.865173	7360.501465	1057.104736	3.049072
371.932770	859.756836	7348.464355	1059.928345	3.084921
372.297150	854.852844	7327.288574	1060.671387	3.179924
372.661377	859.831055	7350.916504	1061.786011	3.111266
373.025696	860.945618	7389.925781	1059.110962	3.035166
373.389862	856.115906	7456.128906	1062.231812	3.122962
373.754059	851.137695	7523.298828	1066.764160	3.231734
374.118225	857.824890	7653.626465	1071.148071	3.139044
374.482361	864.958008	7827.643066	1075.457642	3.023254
374.846436	864.809387	8064.669434	1078.429810	2.967008
375.210510	856.413269	8378.002930	1078.206909	2.948760
375.574524	852.400879	8699.362305	1081.921997	2.924968
375.938538	847.051086	9010.170898	1084.002441	2.902706
376.302460	843.410217	9210.639648	1097.525391	3.037029
376.666412	850.840515	9331.975586	1106.813354	3.018144
377.030304	853.961243	9320.235352	1110.900024	3.034851
377.394196	859.831116	9176.980469	1113.277710	3.047277
377.757996	854.704163	8933.564453	1108.299438	3.138998
378.121796	854.629883	8618.447266	1097.302612	3.125688
378.485565	852.326477	8347.835938	1085.859985	3.115646
378.849304	850.023193	8149.373535	1071.370972	3.032431
379.212982	853.069580	8015.703125	1069.364746	3.019771
379.576630	853.366760	7958.564941	1066.838501	3.004445
379.940277	857.899231	7944.669922	1072.559814	3.029032
380.303864	858.865051	7948.385254	1074.343140	3.039389
380.667450	860.054016	7972.756348	1073.451538	3.000231
381.030945	853.366760	7965.845703	1067.432983	3.009727
381.394501	855.075745	8019.417969	1061.117188	2.875930
381.757935	856.784668	8056.569824	1062.454590	2.856612
382.121399	860.202637	8159.033203	1068.324585	2.851442
382.484741	855.818665	8314.102539	1085.042603	3.073414
382.848145	854.407043	8489.829102	1090.095215	3.086773
383.211487	862.357422	8625.282227	1092.324341	2.962375
383.574768	859.905334	8698.545898	1089.129272	2.924282
383.938019	858.716553	8729.233398	1091.804321	2.961531
384.301270	850.914795	8736.365234	1097.599854	3.128357
384.664459	858.270691	8733.690430	1093.067383	2.981386
385.027649	854.035461	8766.977539	1083.407959	2.898701
385.390778	852.326477	8884.227539	1081.847534	2.857618
385.753876	846.530945	9023.099609	1099.160156	3.089673
386.116943	851.063293	9143.469727	1107.927856	3.097588
386.479980	853.366699	9177.204102	1111.271484	3.098388
386.842987	853.069519	9177.352539	1103.618286	3.009854
387.205994	859.013733	9151.420898	1102.652344	2.938093
387.568909	853.961121	9146.516602	1107.036255	3.051835
387.931793	864.066345	9083.061523	1111.494385	3.010442
388.294678	856.859070	9042.937500	1112.534546	3.123296
388.657471	867.187073	9031.124023	1110.082642	2.975226
389.020294	863.694885	9118.355469	1108.893799	2.970430
389.383057	870.679382	9338.588867	1114.317993	2.877199
389.745819	865.849609	9545.596680	1114.540771	2.865189
390.108521	870.902161	9809.964844	1116.026855	2.742175
390.471191	873.428467	10043.275391	1121.971069	2.710433
390.833801	874.022888	10259.421875	1129.995728	2.727352
391.196442	871.496582	10410.479492	1136.905884	2.782365
391.558960	866.072571	10405.798828	1135.048462	2.819535
391.921509	871.199402	10360.696289	1128.881348	2.715444
392.284027	864.586426	10288.177734	1129.104126	2.806973
392.646484	863.026062	10256.970703	1135.865723	2.904421
393.008911	858.345032	10237.949219	1140.323853	3.006298
393.371307	861.614319	10240.772461	1133.413696	2.897908
393.733673	863.992004	10208.227539	1129.401367	2.840354
394.096008	859.979736	10132.811523	1126.800659	2.877448
394.458344	859.385254	9977.517578	1130.070068	2.968643
394.820587	853.515381	9737.594727	1127.766724	3.086998
395.182831	860.574036	9514.463867	1123.011353	3.032594
395.545013	860.053955	9273.797852	1108.522339	2.953125
395.907196	866.666931	9123.185547	1103.098267	2.863572
396.269287	866.666931	9022.059570	1093.884644	2.786104
396.631409	863.769104	8992.858398	1101.537964	2.924914
396.993469	860.797058	8993.377930	1094.924927	2.878888
397.355530	854.778503	8997.688477	1097.674072	2.982909
397.717499	856.933289	9031.570313	1089.575073	2.845897
398.079468	857.973572	9075.854492	1091.358398	2.839964
398.441376	855.447205	9113.155273	1088.906372	2.827167
398.803284	848.091248	9092.424805	1086.602905	2.893037
399.165131	842.815735	9047.323242	1085.637085	2.959609
399.526978	840.215149	9011.062500	1092.324341	3.085472
399.888763	844.227478	8977.774414	1099.680298	3.140731
400.250519	848.239807	8991.223633	1103.915527	3.139828
400.612244	858.865051	9024.213867	1108.670898	3.059341
400.973938	865.106628	9151.568359	1107.779297	2.928544
401.335602	869.044617	9247.939453	1106.590454	2.835050
401.697205	862.877502	9426.637695	1109.711060	2.882304
402.058807	861.688660	9572.122070	1116.101196	2.920779
402.420349	856.710388	9831.438477	1129.178589	3.035949
402.781860	863.026123	10029.009766	1124.051636	2.847763
403.143341	861.985901	10244.785156	1132.373413	2.881736
403.504822	856.710388	10425.861328	1138.466309	2.944419
403.866241	855.595764	10578.479492	1149.983276	3.027780
404.227631	852.920898	10687.703125	1147.531250	2.995596
404.588959	855.744385	10681.461914	1150.726196	3.002140
404.950287	853.218201	10591.778320	1151.766479	3.065630
405.311554	854.481262	10445.625977	1157.041870	3.154583
405.672821	858.939453	10333.280273	1143.444458	3.002900
406.034027	854.258301	10220.042969	1133.042114	2.976620
406.395203	855.224304	10060.811523	1119.296265	2.868605
406.756348	860.722656	9937.022461	1119.147583	2.847250
407.117493	864.735107	9876.985352	1119.816406	2.830384
407.478516	862.728821	9956.713867	1122.639771	2.858053
407.839600	859.013672	10035.102539	1120.707886	2.851915
408.200592	862.580261	10174.717773	1129.252808	2.863709
408.561554	863.694824	10279.187500	1138.020508	2.913557
408.922485	859.236755	10428.684570	1141.364136	2.948210
409.283417	851.360596	10531.667969	1130.887329	2.887581
409.644257	850.097473	10641.115234	1129.549927	2.854172
410.005096	859.459534	10669.945313	1137.574585	2.834876
410.365906	862.208740	10630.861328	1148.200073	2.927644
410.726715	867.112793	10595.865234	1142.404419	2.829670
411.087433	861.317139	10529.958984	1136.014282	2.841114
411.448120	867.781494	10513.389648	1139.432129	2.816314
411.808807	875.434631	10469.475586	1147.011108	2.830679
412.169434	872.016785	10434.850586	1145.599243	2.860893
412.530029	872.685486	10479.655273	1138.912231	2.771183
412.890564	852.252197	10580.260742	1139.878052	2.956678
413.251099	850.171692	10755.318359	1147.234009	2.999070
413.611572	844.896240	10895.973633	1154.961426	3.084895
413.972076	851.657776	11037.222656	1157.116211	2.998935
414.332489	852.475098	11170.671875	1159.345337	2.974068
414.692871	847.645325	11398.409180	1158.676636	2.947951
415.053223	847.571106	11586.023438	1162.243042	2.930329
415.413574	851.583496	11868.002930	1169.227539	2.883369
415.773834	856.561768	12095.666992	1173.462891	2.819629
416.134094	859.088074	12429.286133	1179.481445	2.769126
416.494263	856.487488	12718.620117	1189.883789	2.810593
416.854462	855.372864	13097.118164	1204.001343	2.847866
417.214630	858.270752	13489.734375	1223.542847	2.891764
417.574738	849.057190	13884.801758	1232.830688	2.944009
417.934784	852.400879	14369.776367	1251.406372	2.951797
418.294861	853.292480	14948.964844	1267.753052	2.940339
418.654846	857.081848	15622.890625	1291.009644	2.938734
419.014832	854.035461	16269.843750	1301.709351	2.903992
419.374756	850.394592	16903.869141	1314.860840	2.893244
419.734680	854.778503	17566.871094	1330.761719	2.848137
420.094543	849.577332	18107.498047	1346.662476	2.880331
420.454376	847.199646	18415.781250	1360.408569	2.921175
420.814148	847.051025	18568.101563	1356.841919	2.876753
421.173920	854.704102	18654.664063	1354.910156	2.810153
421.533691	853.441101	18760.099609	1357.436401	2.814569
421.893341	855.595886	18810.847656	1366.947144	2.847920
422.253021	847.794128	18759.208984	1378.018188	2.960258
422.612640	847.273926	18708.310547	1371.033813	2.932416
422.972260	845.193420	18660.980469	1365.832520	2.922347
423.331757	854.704163	18759.654297	1369.027710	2.872522
423.691315	866.815613	18877.796875	1374.005859	2.816006
424.050781	866.889832	18920.966797	1385.151367	2.870607
424.410248	859.682434	18715.814453	1377.572632	2.900349
424.769653	849.948914	18385.167969	1370.142212	2.966563
425.128998	852.400879	17947.525391	1349.783203	2.909498
425.488373	856.338867	17470.130859	1339.603882	2.908818
425.847656	856.933289	17015.101563	1333.362305	2.948534
426.206940	855.967346	16572.255859	1319.616333	2.950118
426.566193	857.007629	16194.871094	1300.743408	2.893074
426.925385	851.657776	15757.229492	1283.356567	2.896224
427.284576	853.366699	15351.460938	1271.468140	2.883837
427.643677	849.280090	15041.024414	1272.359863	2.981168
428.002777	851.583496	14839.590820	1259.133911	2.913570
428.361847	849.651611	14661.264648	1265.003784	3.007268
428.720856	843.038757	14491.112305	1254.527222	3.014993
429.079865	846.605225	14390.281250	1255.195923	3.016838
429.438812	849.057190	14395.855469	1240.038208	2.886151
429.797760	861.837219	14389.315430	1236.248657	2.767784
430.156616	860.648438	14300.598633	1239.146484	2.816216
430.515503	864.512207	14215.596680	1240.038086	2.812700
430.874268	864.586426	14167.151367	1233.722290	2.774923
431.233093	869.341797	14231.795898	1232.905029	2.720782
431.591827	861.763000	14410.937500	1230.378784	2.720577
431.950562	857.750671	14602.268555	1244.421997	2.813277
432.309204	861.242859	14746.711914	1243.604614	2.753683
432.667877	863.694824	14890.339844	1259.208130	2.819729
433.026459	862.431702	14957.805664	1270.948120	2.898230
433.385010	855.744385	15065.395508	1282.984985	3.006693
433.743561	860.202637	15064.801758	1283.207886	2.977946
434.102051	856.933350	15080.331055	1274.143066	2.933264
434.460510	861.763000	15096.752930	1275.554810	2.906864
434.818939	860.128357	15102.027344	1277.115112	2.927887
435.177338	865.255188	15137.097656	1278.675415	2.896754
435.535675	861.094238	15153.000000	1273.771484	2.887489
435.894012	858.047852	15209.692383	1276.074829	2.912746
436.252289	863.917786	15402.210938	1280.013062	2.862064
436.610535	858.865173	15477.182617	1277.858276	2.866220
436.968719	859.979675	15718.516602	1280.533203	2.830383
437.326935	853.515381	15927.753906	1283.059448	2.849524
437.685028	861.837341	16253.276367	1291.604126	2.792246
438.043152	863.471985	16453.744141	1300.074707	2.800482
438.401215	860.054016	16758.681641	1308.693726	2.821877
438.759277	861.094238	17103.150391	1321.696777	2.835863
439.117249	857.527771	17664.134766	1332.693481	2.827255
439.475250	859.831116	18097.169922	1345.176514	2.815663
439.833130	855.521545	18533.847656	1360.482788	2.856386
440.191071	848.314209	18634.972656	1370.513672	2.935905
440.548889	849.205811	18664.173828	1375.492065	2.954180
440.906708	842.815735	18497.142578	1372.519897	3.000421
441.264496	849.057129	18280.773438	1363.083374	2.948799
441.622223	847.051025	18014.843750	1349.411743	2.926181
441.979950	851.211914	17751.291016	1342.873047	2.909224
442.337616	856.190247	17539.232422	1337.225952	2.883381
442.695251	863.397644	17315.728516	1333.882446	2.859685
443.052887	867.781433	17246.328125	1334.030884	2.846708
443.410461	863.769104	17368.408203	1339.009399	2.879435
443.768005	856.561768	17624.826172	1351.046387	2.948931
444.125458	855.670105	17941.431641	1351.194946	2.900221
444.482941	858.939453	18289.689453	1356.470459	2.854329
444.840393	864.735046	18804.681641	1365.535522	2.791538
445.197754	865.923889	19259.189453	1373.782837	2.761114
445.555084	863.397644	19625.130859	1380.395996	2.755600
445.912415	862.877502	19827.158203	1379.950073	2.726560
446.269714	862.580261	19923.529297	1380.841797	2.718970
446.626953	868.153015	19916.248047	1379.727173	2.685697
446.984161	869.564758	19735.619141	1385.745728	2.736030
447.341309	873.651428	19534.185547	1389.015015	2.761784
447.698456	866.815613	19237.048828	1389.460815	2.845066
448.055542	857.973572	19033.830078	1379.652954	2.870178
448.412598	855.670166	18634.677734	1373.485718	2.912511
448.769653	856.784668	18245.033203	1355.653198	2.868998
449.126617	861.911560	17729.447266	1344.953491	2.863738
449.483582	863.026123	17413.289063	1335.368530	2.853987
449.840515	869.341858	17147.880859	1334.774048	2.859177
450.197388	867.038513	16983.744141	1327.195190	2.855153
450.554230	858.122131	16852.080078	1319.467651	2.884499
450.911041	855.224304	16802.966797	1316.272705	2.890995
451.267822	856.338867	16860.849609	1321.102417	2.903954
451.624573	857.527649	16937.750000	1313.969238	2.838528
451.981262	855.744446	16920.216797	1313.894897	2.851948
452.337921	854.184082	16774.880859	1307.059082	2.844568
452.694580	859.682434	16441.259766	1307.505005	2.874052
453.051147	858.047791	16202.526367	1300.000366	2.880206
453.407715	862.134460	15820.238281	1292.570190	2.877609
453.764221	867.930115	15705.291992	1288.334839	2.833420
454.120728	859.459534	15360.528320	1278.601196	2.890419
454.477142	853.366699	15346.929688	1279.938599	2.943182
454.833557	850.840393	15225.148438	1277.412476	2.967601
455.189911	859.236633	15285.854492	1281.721924	2.928512
455.546265	869.416077	15355.102539	1274.440308	2.796031
455.902557	871.645203	15451.770508	1279.121216	2.794736
456.258820	877.886658	15710.195313	1286.700195	2.756237
456.615051	871.719543	15994.182617	1295.170776	2.800147
456.971252	862.877502	16346.672852	1303.492554	2.845653
457.327393	860.128357	16940.500000	1313.746338	2.820942
457.683502	860.574158	17630.474609	1333.436646	2.819710
458.039612	860.797058	18645.896484	1350.897705	2.755681
458.395630	863.323425	19582.630859	1373.262817	2.724136
458.751648	871.050781	20366.896484	1397.485474	2.700240
459.107605	878.555359	20962.953125	1418.067383	2.686224
459.463562	880.710144	21098.257813	1422.599731	2.680294
459.819458	872.982666	20902.841797	1416.358398	2.712828
460.175323	870.233398	20235.380859	1401.646484	2.744173
460.531158	869.193176	19410.843750	1389.832397	2.807944
460.886932	866.889893	18617.142578	1377.423828	2.876207
461.242676	863.323303	17937.568359	1358.253784	2.898696
461.598419	858.716553	17458.093750	1336.631714	2.879115
461.954102	862.283020	16962.046875	1316.569946	2.821699
462.309723	861.614441	16559.773438	1316.867065	2.900038
462.665344	861.688660	16248.221680	1317.238647	2.960706
463.020905	857.750671	16121.460938	1313.226196	2.984042
463.376373	860.054016	16093.820313	1301.189209	2.895772
463.731873	855.670105	16139.293945	1294.947876	2.874173
464.087341	857.230469	16154.452148	1300.371948	2.896876
464.442749	864.660828	16311.454102	1316.198364	2.923180
464.798126	868.524475	16425.062500	1313.449097	2.860049
465.153503	873.279968	16653.322266	1313.746338	2.791288
465.508820	858.716614	16807.126953	1301.189209	2.774399
465.864105	852.623718	16913.158203	1305.275879	2.818413
466.219330	850.320313	17120.312500	1312.186035	2.838758
466.574524	856.487488	17132.498047	1312.260376	2.800274
466.929657	857.824890	16990.134766	1322.439819	2.880027
467.284790	858.567871	16721.009766	1321.325195	2.917315
467.639893	851.806335	16473.435547	1315.455444	2.967995
467.994934	852.697998	16324.159180	1306.390503	2.932448
468.349945	843.781738	16159.504883	1289.598022	2.910841
468.704926	847.719727	16044.187500	1296.656738	2.954220
469.059875	849.577332	15925.303711	1292.644409	2.938943
469.414764	859.979675	15827.075195	1295.170654	2.907651
469.769653	863.323242	15769.043945	1280.681641	2.799988
470.124451	864.883606	15826.479492	1270.130737	2.708582
470.479248	857.081848	15895.507813	1270.427856	2.748599
470.834015	857.676270	15971.295898	1276.000732	2.767864
471.188721	863.769104	16176.817383	1287.220459	2.765298
471.543365	869.193176	16457.830078	1303.046875	2.783141
471.898010	860.945618	16775.029297	1310.105591	2.822405
472.252625	853.812683	17046.679688	1312.037476	2.829794
472.607178	851.063416	17288.683594	1310.179810	2.793083
472.961700	859.385254	17334.230469	1323.034302	2.814285
473.316193	859.459534	17357.189453	1336.185913	2.889648
473.670654	858.716553	17251.976563	1334.773926	2.903982
474.025055	853.812500	17337.648438	1334.402466	2.915523
474.379456	851.955017	17399.169922	1337.077393	2.931746
474.733795	854.481262	17610.560547	1343.021606	2.915601
475.088104	857.824951	17906.806641	1343.021606	2.845898
475.442383	863.843445	18268.066406	1346.662598	2.774149
475.796570	861.540039	18597.748047	1350.674927	2.757833
476.150787	862.431641	18979.960938	1364.792358	2.772788
476.504944	860.054016	19358.904297	1373.634399	2.776283
476.859070	862.654602	19669.712891	1385.374146	2.779380
477.213135	865.403809	19863.865234	1387.677612	2.749032
477.567200	869.936279	20082.613281	1400.977905	2.764017
477.921173	869.564758	20408.132813	1413.089233	2.781803
478.275146	860.722717	20719.609375	1430.030273	2.866765
478.629089	862.654602	21060.289063	1431.293335	2.815373
478.983002	861.911621	21487.826172	1438.872070	2.797260
479.336823	863.546204	22084.625000	1451.800781	2.772030
479.690643	855.744446	22793.400391	1473.051392	2.813915
480.044403	848.017029	23708.068359	1501.212036	2.857365
480.398163	844.376160	24935.843750	1533.310913	2.859663
480.751862	842.072754	26623.333984	1565.781250	2.807111
481.105499	850.245911	28925.158203	1619.873657	2.741336
481.459137	857.081848	32312.767578	1704.504395	2.694020
481.812744	861.391418	36803.921875	1834.385620	2.707083
482.166290	859.905457	42061.503906	1979.424438	2.717174
482.519806	861.688660	47213.511719	2122.234375	2.719517
482.873291	858.567932	51251.636719	2260.288818	2.781575
483.226715	861.019958	53707.046875	2356.287842	2.829480
483.580139	855.893066	54228.203125	2398.045898	2.889425
483.933502	859.831116	53218.425781	2359.482666	2.864194
484.286804	860.425476	50886.218750	2284.065430	2.845812
484.640106	862.060242	47806.816406	2189.701172	2.828092
484.993347	854.109863	44890.582031	2112.352051	2.857273
485.346558	846.605225	42907.070313	2051.720947	2.865198
485.699738	844.747559	42382.792969	2022.074219	2.834333
486.052887	845.193420	42950.242188	2015.238647	2.778872
486.405975	854.109802	44070.058594	2047.485840	2.761425
486.759064	860.871399	45052.269531	2074.903320	2.747213
487.112061	861.540039	45353.339844	2095.411133	2.773255
487.464996	854.927185	44850.015625	2074.308838	2.771631
487.817963	845.639343	43498.964844	2041.541504	2.803772
488.170868	845.565002	41534.847656	1987.969360	2.807630
488.523743	845.787903	39325.753906	1935.585938	2.832118
488.876587	850.171692	37407.781250	1888.032227	2.838973
489.229401	857.527771	36355.800781	1858.013794	2.818408
489.582153	866.815613	36279.644531	1847.239868	2.768557
489.934845	867.632996	37214.667969	1865.741211	2.746051
490.287537	859.905457	38522.394531	1902.892700	2.769300
490.640198	854.332703	39756.269531	1934.545532	2.776759
490.992798	852.400696	40155.644531	1950.074829	2.792833
491.345337	852.995178	39787.769531	1934.322876	2.777280
491.697876	856.338867	38403.734375	1899.028931	2.776997
492.050354	866.889893	36333.062500	1842.113159	2.749728
492.402832	868.450195	33684.542969	1770.113647	2.747626
492.755219	865.255188	30965.437500	1700.343384	2.774363
493.107605	858.419250	28562.041016	1635.997192	2.806774
493.459930	864.215027	26730.923828	1587.774780	2.797262
493.812225	867.855774	25575.591797	1548.171509	2.753452
494.164490	869.341797	24926.484375	1521.273804	2.709931
494.516724	870.456360	24698.521484	1517.632935	2.716027
494.868896	866.369690	24697.259766	1513.992188	2.717576
495.221039	863.620544	24953.529297	1529.298462	2.763306
495.573120	859.608215	25137.279297	1525.434937	2.742548
495.925201	873.056946	25429.437500	1543.936157	2.731996
496.277222	872.982666	25528.705078	1551.069336	2.750220
496.629211	875.583252	25531.083984	1562.437622	2.785806
496.981140	864.214905	25317.908203	1545.199341	2.784792
497.333069	862.357422	25053.390625	1535.837280	2.784006
497.684967	867.261414	24719.994141	1522.462769	2.746861
498.036804	862.283142	24303.525391	1516.147095	2.789374
498.388580	860.574158	23828.509766	1494.970703	2.762096
498.740326	855.372864	23330.978516	1486.054321	2.806071
499.092072	852.995300	22814.056641	1474.463257	2.829863
499.443756	853.515381	22392.835938	1463.466431	2.831803
499.795410	851.732117	22078.236328	1450.983521	2.823128
500.147003	859.608215	21804.505859	1452.023804	2.828448
500.498566	861.985840	21530.328125	1445.336548	2.822436
500.850098	860.648438	21323.617188	1448.234375	2.871460
501.201599	853.440979	21245.822266	1435.825684	2.855894
501.553009	854.778503	21216.548828	1428.841309	2.819317
501.904449	848.388367	21179.099609	1423.194336	2.827279
502.255859	853.589600	21190.021484	1429.287109	2.830868
502.607178	855.447205	21231.259766	1443.033203	2.883743
502.958405	863.620544	21345.832031	1446.748169	2.846996
503.309692	859.385254	21389.150391	1447.640015	2.865375
503.660919	855.967346	21534.857422	1442.884399	2.838243
504.012115	857.527771	21559.007813	1446.822632	2.846632
504.363251	862.134460	21574.015625	1439.838257	2.789239
504.714294	870.753601	21397.771484	1433.670898	2.742324
505.065369	874.245789	21245.154297	1422.897095	2.693308
505.416443	876.177673	21115.123047	1415.392456	2.664243
505.767395	877.217834	21102.937500	1427.949707	2.722929
506.118317	869.713379	21123.076172	1428.841309	2.760667
506.469238	862.357422	21265.513672	1436.494507	2.813962
506.820160	854.778564	21454.167969	1429.881714	2.791846
507.170929	855.670166	21649.212891	1437.014648	2.795793
507.521729	859.756836	21878.585938	1438.351929	2.752747
507.872498	852.623779	22105.728516	1447.862793	2.800715
508.223236	849.948914	22413.859375	1458.562500	2.822371
508.573883	842.741516	22650.515625	1470.896606	2.880418
508.924500	847.125305	22826.537109	1472.457031	2.845079
509.275116	849.280090	22971.427734	1465.249634	2.784402
509.625702	858.419373	23135.044922	1477.360962	2.778435
509.976196	855.967346	23315.673828	1486.574585	2.807727
510.326660	857.081848	23567.115234	1508.567993	2.868715
510.677124	849.948914	23782.000000	1507.379272	2.866863
511.027557	857.304871	23969.984375	1511.243164	2.829349
511.377869	860.574158	24092.359375	1504.853027	2.773265
511.728180	869.193176	24097.265625	1516.444336	2.786504
512.078430	871.496582	24071.482422	1520.605103	2.797883
512.428650	874.691589	23890.478516	1513.323608	2.774756
512.778931	874.914551	23706.062500	1493.038696	2.707372
513.129028	863.620544	23471.412109	1482.859375	2.739051
513.479126	847.868347	23356.912109	1475.206177	2.787048
513.829285	841.924133	23324.812500	1475.949219	2.820034
514.179382	846.902527	23297.171875	1466.735718	2.760916
514.529297	852.475098	23259.203125	1474.611816	2.776562
514.879272	857.750671	23349.406250	1480.556030	2.769051
515.229187	860.574036	23510.197266	1491.478516	2.785497
515.579163	865.998230	23929.634766	1496.382446	2.733239
515.928955	859.310974	24435.490234	1503.664063	2.733068
516.278748	858.196472	25191.296875	1518.673340	2.714314
516.628540	853.738281	26101.726563	1541.335571	2.723375
516.978333	862.283020	27075.615234	1568.381836	2.693663
517.327942	865.775330	28049.873047	1591.787109	2.670722
517.677612	866.295410	28671.859375	1615.266968	2.693603
518.027222	859.385254	29045.826172	1626.932251	2.723107
518.376831	856.784668	29023.384766	1630.201660	2.745866
518.726379	855.967285	28766.224609	1619.502075	2.735678
519.075867	850.617493	28107.755859	1599.811890	2.748617
519.425293	852.772278	27366.212891	1590.895508	2.783959
519.774658	857.453369	26573.849609	1578.635620	2.804368
520.124084	862.580322	25984.923828	1567.192993	2.804725
520.473389	857.602051	25571.578125	1550.326172	2.802965
520.822693	860.425537	25350.156250	1540.741211	2.777963
521.171997	867.929993	25231.939453	1535.094116	2.738318
521.521240	869.638977	25265.822266	1529.967285	2.706687
521.870361	855.447205	25364.423828	1527.441040	2.741827
522.219482	856.636047	25634.884766	1534.128296	2.734222
522.568604	861.837219	25910.326172	1538.958008	2.703240
522.917664	870.010559	26411.646484	1555.527466	2.683919
523.266724	864.289307	27055.478516	1570.388062	2.695940
523.615662	853.589661	28042.439453	1598.771606	2.740763
523.964600	855.149963	29200.150391	1624.257446	2.713380
524.313538	851.434814	30544.583984	1662.597656	2.731818
524.662354	856.487488	31874.380859	1697.148438	2.710245
525.011169	856.933289	33110.855469	1732.516602	2.714657
525.359985	863.620605	34355.574219	1761.346069	2.680421
525.708740	862.506042	35670.953125	1800.949219	2.696022
526.057434	868.301575	37312.152344	1849.469116	2.692272
526.406067	870.827881	39598.449219	1910.174194	2.683734
526.754700	870.976501	42586.160156	1986.929077	2.675171
527.103333	868.895996	46052.312500	2079.584473	2.679497
527.451782	869.564758	49387.386719	2190.815674	2.723228
527.800293	872.759766	51813.890625	2280.796143	2.764046
528.148743	873.354187	53126.964844	2328.647217	2.785057
528.497131	876.251953	52756.191406	2329.538818	2.801250
528.845642	870.976563	51098.355469	2286.888916	2.819005
529.193909	868.078796	48251.667969	2208.128174	2.828087
529.542175	856.636169	44746.136719	2096.674072	2.825363
529.890503	865.552429	41195.433594	1989.603882	2.787143
530.238770	866.295410	38145.457031	1898.360352	2.768477
530.586914	870.679199	36224.730469	1845.085083	2.756136
530.934998	865.552307	35243.941406	1813.357910	2.756981
531.283142	860.945618	35410.746094	1815.215454	2.762012
531.631226	856.190247	36159.199219	1835.574585	2.774224
531.979248	856.115967	37524.660156	1862.694946	2.745075
532.327148	857.156250	38751.917969	1896.428345	2.742522
532.675110	861.911621	39608.777344	1911.734741	2.709440
533.023071	860.871338	39682.480469	1926.000854	2.743651
533.370850	863.471863	38808.089844	1904.601685	2.743814
533.718689	865.478088	37394.253906	1869.456543	2.748459
534.066467	859.608154	35615.152344	1814.769531	2.748227
534.414246	851.880676	34079.835938	1773.531616	2.773721
534.761963	843.038635	32965.296875	1736.826172	2.782455
535.109619	849.354309	32510.562500	1728.875610	2.777915
535.457153	857.304871	32423.033203	1717.730347	2.725822
535.804749	863.917725	32419.318359	1727.538208	2.736839
536.152344	861.391418	32227.617188	1713.272095	2.715917
536.499817	862.580261	31797.404297	1710.523071	2.741062
536.847229	860.648438	31156.171875	1695.885376	2.756965
537.194641	862.506042	30302.804688	1679.612915	2.775471
537.542114	856.041687	29473.734375	1655.761841	2.794496
537.889404	858.567932	28804.859375	1640.455566	2.797822
538.236694	860.054016	28500.962891	1627.601196	2.776852
538.583984	861.242859	28865.271484	1628.195435	2.738722
538.931213	857.156250	29873.705078	1631.687866	2.669276
539.278381	859.905457	31560.228516	1679.092773	2.668334
539.625488	861.837219	33556.523438	1746.931274	2.707150
539.972595	866.295410	35983.769531	1831.636353	2.748891
540.319641	866.518250	38350.386719	1901.332397	2.760692
540.666687	868.153015	40254.832031	1941.678711	2.725606
541.013611	861.094177	41222.253906	1970.508301	2.748717
541.360596	859.979675	41145.355469	1963.226563	2.738579
541.707458	856.710388	40204.609375	1932.762207	2.734712
542.054260	857.453430	38619.433594	1889.815430	2.733866
542.401062	851.880676	36793.890625	1858.533813	2.800770
542.747864	855.967346	34850.425781	1830.447632	2.866586
543.094666	866.518311	33026.742188	1787.500488	2.863731
543.441284	872.908386	31238.572266	1725.829224	2.808833
543.787903	868.747375	29787.958984	1689.569458	2.838328
544.134460	854.332703	28598.226563	1653.681274	2.881169
544.481079	856.190247	27867.013672	1640.158203	2.902421
544.827637	854.109680	27402.916016	1607.762207	2.838743
545.174072	860.796875	27145.978516	1587.329102	2.764037
545.520508	858.567871	27043.591797	1563.626465	2.692602
545.866943	863.174805	26986.898438	1567.490234	2.696076
546.213318	861.465820	26906.873047	1563.477905	2.695339
546.559631	860.276917	26614.789063	1571.799805	2.762712
546.905823	863.620605	26023.562500	1556.939087	2.755644
547.252136	862.803223	25157.416016	1544.159180	2.804556
547.598389	863.026123	24205.744141	1521.273804	2.819927
547.944458	864.066345	23260.837891	1498.834473	2.834195
548.290588	866.815491	22328.787109	1470.153687	2.811197
548.636658	865.552429	21486.490234	1444.296387	2.806584
548.982727	854.704163	20787.820313	1424.977661	2.860935
549.328735	865.626648	20343.046875	1412.197632	2.806178
549.674622	865.329407	19964.771484	1394.810547	2.772234
550.020569	874.097168	19763.484375	1384.036743	2.699609
550.366455	871.719543	19581.738281	1379.652832	2.714766
550.712280	872.016663	19570.443359	1377.646851	2.704132
551.058044	866.964172	19622.158203	1372.965820	2.697928
551.403748	862.877441	19733.835938	1379.132813	2.735713
551.749512	864.215027	19927.916016	1386.117310	2.737675
552.095154	862.357361	20021.314453	1395.702271	2.783789
552.440735	857.081848	20107.728516	1397.113892	2.805267
552.786316	857.304688	19960.757813	1396.296753	2.821438
553.131897	864.214905	19780.794922	1387.306030	2.765252
553.477417	865.255188	19434.322266	1372.594238	2.732173
553.822815	860.499817	19024.765625	1365.163940	2.778335
554.168213	861.391418	18579.099609	1362.191772	2.826553
554.513672	862.654602	18211.298828	1361.968872	2.878117
554.859009	865.180908	17987.796875	1351.937988	2.842773
555.204285	854.927063	17808.800781	1339.083618	2.855728
555.549500	847.125305	17686.648438	1329.498535	2.864530
555.894714	849.354309	17543.244141	1332.024780	2.891300
556.239990	853.069519	17470.947266	1333.287964	2.889770
556.585022	866.221130	17356.892578	1323.182739	2.771031
556.930115	866.741211	17266.541016	1311.814575	2.713895
557.275146	871.422363	17095.125000	1303.715454	2.664577
557.620178	859.682434	16999.126953	1305.201660	2.760437
557.965149	856.338867	16920.140625	1299.703247	2.760021
558.310059	852.995178	16897.255859	1299.108887	2.780519
558.654968	857.676331	16849.404297	1306.762085	2.808238
558.999756	856.858948	16811.064453	1310.997192	2.846511
559.344604	860.722717	16869.912109	1312.706177	2.823275
559.689331	855.149963	16985.082031	1309.362427	2.815960
560.033997	855.744446	17104.041016	1311.145752	2.802763
560.378723	853.292480	17194.244141	1315.232422	2.826885
560.723389	857.973572	17175.593750	1306.316040	2.747597
561.067932	854.332703	17177.824219	1309.436890	2.788032
561.412476	855.595886	17083.978516	1305.127319	2.770032
561.757019	864.363525	16998.083984	1319.021851	2.818063
562.101501	871.347961	16922.666016	1310.551392	2.736245
562.445862	878.406738	16867.013672	1300.223389	2.638232
562.790222	867.558594	16846.804688	1292.718872	2.660703
563.134644	873.205566	16866.865234	1301.857910	2.680139
563.478943	866.518372	16947.707031	1311.963257	2.769975
563.823181	876.920715	17067.408203	1318.204590	2.725575
564.167358	873.354187	17272.632813	1312.408936	2.677281
564.511536	870.233398	17623.193359	1319.764893	2.683296
564.855774	859.533875	18052.958984	1326.972168	2.718704
565.199768	850.766174	18490.306641	1343.021606	2.790636
565.543823	845.193542	18771.689453	1358.105103	2.861192
565.887817	843.558838	18973.199219	1363.232056	2.866429
566.231812	850.246094	18935.083984	1367.987305	2.862847
566.575745	859.459656	18794.724609	1362.860474	2.806765
566.919617	863.397644	18526.267578	1352.383789	2.768441
567.263428	860.054016	18229.875000	1342.873047	2.779643
567.607239	858.865234	17995.525391	1333.510864	2.769768
567.950989	858.493652	17783.314453	1325.857788	2.761413
568.294678	861.985901	17660.048828	1316.569946	2.706170
568.638367	855.447266	17570.587891	1310.254150	2.720928
568.981995	859.979736	17569.621094	1313.895020	2.716487
569.325623	857.379150	17676.320313	1312.929077	2.708553
569.669128	862.431641	17820.689453	1318.650513	2.690246
570.012573	854.481262	18073.169922	1326.526489	2.741470
570.356140	852.995178	18333.007813	1339.158081	2.781250
570.699524	857.304871	18598.861328	1351.863770	2.787573
571.042908	856.859070	18897.857422	1347.182617	2.717829
571.386230	858.196472	19088.591797	1350.303345	2.699376
571.729492	852.103577	19182.955078	1353.052612	2.732819
572.072815	856.264648	19088.740234	1363.009155	2.779351
572.416016	855.075684	18906.103516	1359.665405	2.795352
572.759094	858.493713	18721.833984	1355.950317	2.784791
573.102234	862.208801	18518.837891	1347.851196	2.750482
573.445374	861.985840	18389.255859	1342.427246	2.741108
573.788391	859.087952	18219.474609	1328.681274	2.704970
574.131409	857.899170	18120.427734	1327.715332	2.721595
574.474365	850.394592	18036.912109	1332.842163	2.807128
574.817261	853.886902	17989.505859	1342.278687	2.850155
575.160156	846.679443	17823.958984	1337.226074	2.889430
575.502930	858.642273	17576.904297	1330.687500	2.823530
575.845703	857.602051	17289.351563	1317.164307	2.796794
576.188477	871.868164	16963.533203	1312.483276	2.738157
576.531250	863.249023	16609.927734	1301.709351	2.784462
576.873901	862.505920	16194.054688	1294.724976	2.819148
577.216431	853.292480	15885.625000	1288.706421	2.896516
577.559082	857.750671	15548.141602	1280.607300	2.878457
577.901611	852.772400	15320.776367	1271.542480	2.894457
578.244080	850.246033	15048.604492	1255.641602	2.855228
578.586487	853.143860	14858.241211	1242.638672	2.781093
578.928955	873.205566	14633.624023	1250.440430	2.741449
579.271301	880.412903	14452.399414	1250.812012	2.729144
579.613647	887.991760	14253.713867	1257.053345	2.761255
579.955872	875.063171	14088.910156	1243.827515	2.790742
580.298157	874.914551	13951.229492	1239.220703	2.786000
580.640320	866.444031	13852.480469	1231.939087	2.814524
580.982483	868.598816	13810.793945	1228.000977	2.776980
581.324524	860.202576	13727.352539	1236.768799	2.926570
581.666626	862.654602	13658.770508	1232.310669	2.888814
582.008728	859.682556	13576.147461	1231.716309	2.925607
582.350647	861.391418	13515.070313	1213.437866	2.782167
582.692566	859.979675	13497.088867	1210.762817	2.775818
583.034424	855.298584	13474.277344	1202.589478	2.752132
583.376343	857.007568	13451.838867	1207.493530	2.782776
583.718201	854.109802	13407.554688	1209.796875	2.833382
584.059937	855.818787	13337.562500	1213.512085	2.865732
584.401611	848.834290	13277.301758	1208.013550	2.889972
584.743347	852.400696	13239.703125	1211.431519	2.898378
585.085022	847.571106	13211.394531	1212.397461	2.950757
585.426514	856.710266	13210.428711	1221.462280	2.952569
585.768127	858.716492	13204.187500	1216.484009	2.897966
586.109619	868.970215	13179.593750	1209.722656	2.767955
586.451172	870.159180	13155.593750	1208.236572	2.751855
586.792542	859.459534	13182.863281	1209.573975	2.841053
587.133850	856.413269	13224.174805	1220.496460	2.943808
587.475220	850.989075	13306.057617	1219.827759	2.961354
587.816589	861.242859	13366.614258	1220.793701	2.875171
588.157776	866.518372	13481.856445	1220.719360	2.807701
588.498962	866.964172	13550.067383	1228.892700	2.853627
588.840210	864.883728	13633.211914	1231.641968	2.872406
589.181335	864.883606	13704.617188	1232.236328	2.861062
589.522400	867.112793	13749.718750	1226.960815	2.793286
589.863403	861.911621	13736.566406	1230.973145	2.866574
590.204407	859.013855	13670.511719	1229.784302	2.894044
590.545410	856.041687	13609.062500	1225.251831	2.895080
590.886353	861.688660	13469.152344	1212.991943	2.786471
591.227112	856.264587	13356.807617	1208.979614	2.821598
591.567932	863.174744	13236.882813	1207.939331	2.786267
591.908752	861.391418	13178.405273	1214.626587	2.867864
592.249512	867.929993	13180.635742	1207.716431	2.759641
592.590149	869.267517	13190.442383	1205.413086	2.728194
592.930786	867.632813	13296.250000	1210.539917	2.759012
593.271423	865.552429	13364.458008	1217.821655	2.818401
593.612000	858.939453	13555.639648	1227.778198	2.904997
593.952576	856.190247	13715.614258	1229.710083	2.904639
594.292969	853.069580	13909.840820	1235.208496	2.926749
594.633484	854.555603	14076.948242	1237.363159	2.895146
594.973877	862.357422	14295.471680	1244.124634	2.841986
595.314209	866.592590	14551.964844	1256.830444	2.851496
595.654480	874.988831	14878.153320	1259.059570	2.742743
595.994812	871.570862	15230.573242	1265.672607	2.744632
596.335022	865.180908	15496.426758	1259.431152	2.694577
596.675171	861.614441	15530.606445	1262.997681	2.736270
597.015320	861.763000	15370.484375	1255.418701	2.713235
597.355408	865.032288	15016.729492	1252.223755	2.736007
597.695496	851.955017	14609.476563	1245.462158	2.860306
598.035461	848.239929	14124.575195	1232.384888	2.893456
598.375366	849.874512	13700.531250	1221.462402	2.891587
598.715271	857.750671	13324.410156	1208.013672	2.809598
599.055176	858.939453	12976.301758	1199.989014	2.814553
599.395081	858.122070	12710.075195	1193.227539	2.827428
599.734802	859.979675	12494.746094	1198.057007	2.905751
600.074524	863.769226	12424.233398	1200.657593	2.914142
600.414246	863.620544	12390.424805	1198.428589	2.904604
600.753906	869.713379	12425.346680	1192.261597	2.791264
601.093506	871.942444	12502.101563	1191.072754	2.743989
601.433044	871.199402	12676.043945	1187.283203	2.677577
601.772583	865.552429	12889.441406	1188.843506	2.688740
602.112122	861.614319	13200.918945	1188.620728	2.650120
602.451538	863.620544	13546.128906	1208.979492	2.723112
602.790894	859.385254	13925.890625	1226.069214	2.806289
603.130310	856.413147	14286.481445	1238.775024	2.847058
603.469604	848.462708	14645.511719	1246.576782	2.885502
603.808838	849.354309	14984.778320	1248.062866	2.820634
604.148010	841.478271	15200.702148	1254.972900	2.879645
604.487305	847.571106	15211.252930	1247.988403	2.787707
604.826416	853.292419	15069.112305	1250.737671	2.795795
605.165527	862.951721	14749.833008	1242.490112	2.733072
605.504456	868.524475	14422.604492	1232.682129	2.686701
605.843445	860.128357	13974.708008	1211.654419	2.680422
606.182434	854.555664	13543.454102	1207.716431	2.783226
606.521423	851.657898	13118.218750	1204.075562	2.872995
606.860229	857.379150	12835.051758	1212.546021	2.965241
607.199036	862.951843	12694.768555	1206.230347	2.901317
607.537903	862.431641	12715.796875	1209.202515	2.925506
607.876648	860.722656	12847.609375	1207.493530	2.892919
608.215271	857.304749	13072.375000	1204.892944	2.845568
608.553955	848.165527	13311.183594	1208.533813	2.891501
608.892578	840.809570	13497.832031	1208.533691	2.905297
609.231140	841.552551	13573.027344	1219.381836	2.967679
609.569641	841.552551	13539.144531	1211.951660	2.917082
609.908081	845.044861	13407.628906	1214.849487	2.943699
610.246521	850.023132	13174.762695	1213.809204	2.951674
610.584961	854.109802	12892.487305	1215.889771	3.005222
610.923340	855.670105	12567.190430	1206.899170	2.999005
611.261597	853.366699	12208.976563	1201.995117	3.070099
611.599854	858.047852	11893.338867	1197.759888	3.078415
611.938110	862.654602	11640.487305	1192.187134	3.057503
612.276245	867.112793	11510.829102	1183.345093	2.971070
612.614319	866.964172	11346.916992	1173.016968	2.920364
612.952393	865.775391	11201.581055	1168.410278	2.928024
613.290466	861.985901	11065.977539	1158.973755	2.910507
613.628479	857.007629	10914.326172	1153.401123	2.947043
613.966370	857.750549	10798.934570	1141.661255	2.855904
614.304260	863.397644	10687.183594	1136.162964	2.776580
614.642151	859.905334	10577.809570	1130.292969	2.782366
614.979980	865.626648	10493.847656	1129.252808	2.738057
615.317749	864.140625	10422.368164	1129.772827	2.779095
615.655396	872.685486	10411.222656	1132.076294	2.719398
615.993164	865.775391	10411.445313	1128.881226	2.756285
616.330811	862.506042	10402.751953	1127.246582	2.774987
616.668396	862.803223	10396.659180	1122.788452	2.726969
617.005859	866.369812	10375.483398	1128.583984	2.757504
617.343445	868.524475	10348.881836	1130.367310	2.761951
617.680908	870.902161	10360.696289	1134.528198	2.777995
618.018311	871.719543	10343.904297	1137.054565	2.801202
618.355652	869.193298	10339.743164	1132.893555	2.784424
618.692993	866.741272	10284.610352	1133.710938	2.834714
619.030273	858.345032	10270.493164	1128.212524	2.867225
619.367554	865.775330	10235.868164	1130.218628	2.822206
619.704712	859.013733	10215.806641	1128.955444	2.884981
620.041870	863.397644	10201.837891	1130.367188	2.858824
620.379028	857.973450	10187.051758	1133.413696	2.952492
620.716064	863.471863	10191.287109	1125.760498	2.811898
621.053040	858.567932	10139.573242	1121.153687	2.829282
621.389954	858.493652	10100.339844	1110.528442	2.727104
621.726929	857.379089	10061.925781	1112.609009	2.772868
622.063843	862.134460	10058.656250	1117.289917	2.774478
622.400635	860.871338	10054.124023	1122.639771	2.847397
622.737427	861.911560	10031.165039	1123.159790	2.849177
623.074219	866.369690	10044.985352	1115.283813	2.711892
623.410889	867.409973	10069.504883	1114.243652	2.682364
623.747559	868.747375	10123.597656	1120.410767	2.719259
624.084167	863.174744	10168.922852	1126.800781	2.832938
624.420715	862.951843	10276.512695	1126.503540	2.799703
624.757324	857.973572	10392.202148	1126.726440	2.818821
625.093750	860.202576	10570.528320	1127.989624	2.757756
625.430176	858.196472	10762.229492	1137.426025	2.819352
625.766602	860.871338	10971.687500	1149.165894	2.851348
626.102905	855.447266	11168.887695	1159.568237	2.948783
626.439209	860.054016	11272.987305	1159.270996	2.873513
626.775452	853.515320	11345.356445	1153.178223	2.856152
627.111694	856.933289	11274.621094	1155.332886	2.864355
627.447876	852.029297	11182.485352	1157.636353	2.958311
627.783997	859.088074	11010.846680	1156.150391	2.926215
628.120056	868.598816	10890.401367	1154.812866	2.855914
628.456055	872.611145	10719.875977	1151.469238	2.831833
628.792053	875.434631	10551.358398	1145.079224	2.786758
629.128052	864.883606	10370.876953	1132.596436	2.816253
629.463928	865.700989	10274.581055	1126.800781	2.775036
629.799744	871.570984	10210.680664	1120.336426	2.663696
630.135559	870.382080	10118.619141	1116.992798	2.666570
630.471375	858.716492	9986.583008	1110.454224	2.757903
630.807068	849.280090	9881.742188	1113.649292	2.926879
631.142700	852.400818	9832.776367	1117.735840	2.954609
631.478333	860.574036	9760.851563	1117.587280	2.887699
631.813965	863.992004	9680.975586	1119.073242	2.893067
632.149475	864.066406	9604.370117	1108.670898	2.798581
632.484924	875.508972	9625.768555	1104.955688	2.622170
632.820435	875.806152	9688.926758	1090.838257	2.439909
633.155884	870.753601	9752.381836	1093.587524	2.508931
633.491150	861.391418	9782.993164	1104.138550	2.720892
633.826477	853.961182	9738.932617	1111.122925	2.894345
634.161804	857.973450	9683.502930	1111.420044	2.871744
634.497009	856.487488	9560.606445	1110.974243	2.923751
634.832153	855.001465	9479.541992	1109.934082	2.955898
635.167297	850.840515	9390.898438	1100.126099	2.919015
635.502380	847.051025	9326.031250	1082.219116	2.773542
635.837463	848.165527	9205.958008	1079.692871	2.770197
636.172424	856.115967	9075.706055	1084.076660	2.773383
636.507324	856.858948	8967.297852	1084.968384	2.812541
636.842224	857.601990	8897.378906	1088.014771	2.865910
637.177124	856.264465	8819.733398	1090.318237	2.939093
637.511963	856.115906	8731.089844	1093.513184	3.014579
637.846741	860.053955	8657.975586	1087.197388	2.912871
638.181396	855.818787	8580.106445	1082.739258	2.937753
638.516113	858.567932	8505.877930	1079.692871	2.891539
638.850769	863.174744	8434.844727	1086.082886	2.943976
639.185303	868.895996	8376.219727	1083.259399	2.855391
639.519836	866.072510	8331.860352	1078.949829	2.851371
639.854370	865.255188	8286.165039	1068.993286	2.745460
640.188843	862.060120	8241.954102	1064.683716	2.745617
640.523254	862.283020	8235.788086	1071.073730	2.831635
640.857605	865.106628	8180.357910	1067.730103	2.769877
641.191895	860.351257	8134.067871	1060.894165	2.757090
641.526184	863.992004	8052.111816	1054.504272	2.650377
641.860413	853.515381	8003.146484	1050.566284	2.756099
642.194580	863.843506	7961.165527	1053.761230	2.675907
642.528748	857.602051	7924.904785	1048.337036	2.698837
642.862793	864.660828	7860.187500	1052.126465	2.679793
643.196838	862.951843	7817.240723	1055.395874	2.767271
643.530823	866.072571	7778.677246	1062.454712	2.840928
643.864746	861.168518	7778.380371	1068.324585	2.994792
644.198669	859.905457	7800.894043	1069.067505	3.013433
644.532532	861.168518	7813.153809	1064.163452	2.919956
644.866333	860.871338	7856.843750	1062.157349	2.877170
645.200073	860.054016	7851.791504	1065.426758	2.937364
645.533813	861.465637	7861.525391	1072.708374	3.017728
645.867554	864.660828	7854.243652	1063.940674	2.851098
646.201172	864.735046	7863.902832	1054.281372	2.708127
646.534729	862.431641	7875.122559	1040.535278	2.539733
646.868225	857.230469	7875.345215	1045.142090	2.677523
647.201782	845.936523	7882.850098	1044.770508	2.825585
647.535217	837.688904	7888.645996	1051.160522	3.027555
647.868591	837.540283	7877.796875	1051.160522	3.034268
648.201965	846.679504	7844.881348	1055.618774	2.985614
648.535278	853.441101	7805.426270	1051.680786	2.851555
648.868591	860.797058	7806.021484	1046.182251	2.669247
649.201782	857.899170	7815.458496	1040.238037	2.620730
649.534912	859.162415	7823.408203	1046.776611	2.693963
649.868103	852.029297	7817.538574	1053.240967	2.888686
650.201172	859.682434	7808.695313	1053.538208	2.789688
650.534180	862.728943	7797.698730	1049.080078	2.687123
650.867188	869.564697	7786.404785	1042.021362	2.493287
651.200134	872.908386	7791.011719	1043.730347	2.469202
651.533020	868.821716	7775.853516	1046.033569	2.565673
651.865845	863.546204	7756.535156	1053.315308	2.753074
652.198608	852.400879	7725.923340	1055.692993	2.957612
652.531433	850.989075	7703.482910	1064.683716	3.118495
652.864136	855.001465	7674.505371	1056.436157	2.953803
653.196777	960.659851	7738.107910	1154.441406	2.859211
653.529358	970.987976	7688.919434	1150.131958	2.666654
653.861938	965.563904	7605.031250	1148.422852	2.754121
654.194519	864.214905	7416.377441	1042.170044	2.715976
654.526978	858.419250	7354.260254	1033.699463	2.698345
654.859375	865.849609	7317.628906	1040.832520	2.712165
655.191833	872.165344	7312.799316	1038.677734	2.585342
655.524170	870.753601	7331.003906	1035.482666	2.549887
655.856445	867.484192	7360.056152	1031.321777	2.523462
656.188660	872.016785	7389.703125	1051.680786	2.756561
656.520874	873.725647	7414.891113	1055.692993	2.781880
656.853088	870.382019	7468.018066	1057.550781	2.836906
657.185181	860.054016	7542.246094	1045.439331	2.774319
657.517212	859.608154	7684.387207	1042.021362	2.672807
657.849243	863.397644	7870.069824	1047.965698	2.634176
658.181274	864.660828	8090.823730	1061.786011	2.727937
658.513123	861.837219	8305.038086	1076.052124	2.877995
658.844971	860.499817	8495.847656	1079.098511	2.862983
659.176819	857.453430	8597.494141	1079.841431	2.873215
659.508667	856.858948	8610.422852	1089.872314	3.005242
659.840393	858.047852	8565.246094	1097.153931	3.102374
660.172058	856.264465	8474.745117	1094.776245	3.130700
660.503662	861.019836	8325.545898	1079.321167	2.924517
660.835266	860.648376	8131.392578	1070.479126	2.885960
661.166931	864.140625	7932.484375	1060.374146	2.776231
661.498413	865.923889	7770.504395	1054.058472	2.724779
661.829773	866.964172	7590.914551	1041.575562	2.596857
662.161194	867.632813	7397.281738	1046.702515	2.742409
662.492615	862.283020	7204.763672	1041.055542	2.818653
662.823975	858.047852	7073.767578	1045.810791	3.020776
663.155212	855.075684	6978.511230	1033.773682	2.918264
663.486450	857.601990	6918.400879	1027.755249	2.807440
663.817627	860.722717	6845.435547	1028.795410	2.808367
664.148743	856.859070	6794.686035	1024.931641	2.830540
664.479858	854.555664	6741.114746	1029.835693	2.977631
664.810913	855.744446	6707.826660	1016.238281	2.742508
665.141907	860.351257	6692.669434	1017.724426	2.698295
665.472778	858.790833	6682.117676	1014.752258	2.678219
665.803711	859.905457	6709.981934	1022.554016	2.780281
666.134583	864.958008	6705.894531	1021.290833	2.676503
666.465454	865.478088	6707.603516	1035.334106	2.907435
666.796143	861.688660	6688.730469	1036.745850	3.004220
667.126831	863.323303	6687.765625	1035.854126	2.962186
667.457458	871.273743	6676.842285	1023.742981	2.626259
667.788147	870.456360	6677.140137	1022.405457	2.616796
668.118774	871.125183	6690.439941	1028.498291	2.704324
668.449219	865.255188	6714.514160	1034.739746	2.897539
668.779663	866.369690	6698.242188	1038.529175	2.952045
669.110107	853.886902	6696.458984	1036.077271	3.118325
669.440552	851.732117	6684.570313	1031.767578	3.086584
669.770874	853.218201	6651.654297	1025.674805	2.974192
670.101135	857.304749	6600.384766	1026.269165	2.942052
670.431396	859.608154	6544.138184	1027.755249	2.957977
670.761597	855.298645	6495.172363	1020.919373	2.936604
671.091797	856.710388	6464.411621	1016.535461	2.850100
671.421875	861.688660	6430.529297	1018.095947	2.808615
671.751892	869.936218	6409.947266	1019.953552	2.707889
672.081909	877.812317	6359.050293	1019.210449	2.579675
672.411865	874.765930	6297.824219	1007.321960	2.444304
672.741821	874.171570	6253.391113	1013.414795	2.588539
673.071716	869.341858	6228.871094	1011.408630	2.650732
673.401550	867.781494	6196.103516	1019.284668	2.843356
673.731262	863.100403	6186.295410	1009.996887	2.759555
674.060974	857.379089	6149.218750	1007.173401	2.830666
674.390625	858.047852	6154.568848	1005.464539	2.783274
674.720276	854.184082	6125.888184	1011.557312	2.985244
675.049927	864.140686	6114.593750	1017.873047	2.927983
675.379395	862.283142	6082.197754	1016.758484	2.959346
675.708923	864.660828	6049.132813	1013.043396	2.862057
676.038330	856.710388	6032.117676	1009.253906	2.947469
676.367737	858.865173	6023.943848	1006.950500	2.867049
676.697083	859.385254	6017.925781	1018.913147	3.092500
677.026428	858.939453	6021.046875	1020.845032	3.136424
677.355652	853.515320	6042.000000	1019.284668	3.194947
677.684875	857.007568	6119.126465	1009.625305	2.900309
678.013977	858.716553	6189.044922	1008.882324	2.817196
678.343079	868.301575	6271.446777	1006.058838	2.549576
678.672180	871.347961	6332.003418	1009.179688	2.524088
679.001221	867.335693	6393.005859	1011.111511	2.601962
679.330139	861.688660	6458.169434	1024.411621	2.907594
679.659058	860.574036	6539.085449	1031.098877	3.002985
679.987976	861.837219	6641.028809	1037.265991	3.035525
680.316772	859.236633	6673.796387	1036.225708	3.043895
680.645630	853.663879	6664.434082	1034.888306	3.118768
680.974304	859.310974	6617.846191	1025.600464	2.887705
681.302979	855.447266	6579.060059	1024.560181	2.954653
681.631653	864.735107	6511.593262	1015.049500	2.661912
681.960266	866.295471	6424.733887	1022.479736	2.809859
682.288757	871.273682	6342.108887	1018.170166	2.685083
682.617249	863.694824	6273.155762	1017.575745	2.844663
682.945679	860.871277	6194.617676	1014.083496	2.872507
683.274109	870.159180	6107.832031	1014.677917	2.759217
683.602478	875.806152	5982.111816	1011.037109	2.648313
683.930725	873.799988	5889.233887	1004.424255	2.604446
684.259033	860.797058	5797.915527	997.142395	2.761638
684.587280	853.292419	5775.104980	1003.383850	3.049515
684.915344	852.400818	5749.321777	1003.383850	3.083224
685.243469	858.493652	5757.717285	1010.145508	3.095426
685.571533	860.797058	5726.361816	1006.727539	2.999250
685.899536	861.837219	5715.365234	1005.835938	2.966888
686.227539	856.710388	5685.347168	1006.950439	3.111438
686.555420	853.961182	5689.507813	1008.287903	3.191505
686.883301	851.955078	5703.253906	1003.458191	3.122939
687.211121	855.818787	5739.662109	1002.343689	3.000197
687.538940	858.345032	5762.398926	1000.188904	2.892380
687.866638	858.790833	5760.169434	1003.904053	2.960661
688.194336	854.035583	5730.597656	1002.492371	3.044292
688.521973	853.069519	5688.467285	992.758606	2.888885
688.849609	848.091248	5614.387207	998.108459	3.147459
689.177063	855.967285	5538.970215	997.885498	3.030496
689.504578	858.122070	5481.237793	1000.263184	3.074574
689.832031	859.162354	5419.417480	988.597656	2.838335
690.159485	856.264587	5334.638184	980.870300	2.782388
690.486816	849.651672	5257.214844	974.851746	2.840574
690.814087	859.236755	5214.639160	976.412109	2.690345
691.141296	859.013855	5184.026855	973.737122	2.652553
691.468506	861.465759	5136.695801	975.446106	2.666064
691.795715	861.168457	5086.913086	974.777344	2.688494
692.122803	861.242859	5056.597656	975.520447	2.723907
692.449829	859.905334	5037.873047	984.288147	2.977113
692.776855	859.311035	5000.127441	980.870178	2.935632
693.103821	855.372986	4978.653809	975.966248	2.924692
693.430664	870.159180	4948.486816	969.576172	2.437690
693.757568	868.970398	4925.378418	968.535950	2.454525
694.084351	874.988831	4892.462402	975.520325	2.502356
694.411133	865.329407	4884.512207	977.675110	2.795237
694.737854	862.654602	4866.977051	977.377930	2.864987
695.064575	861.837219	4853.379395	974.777405	2.829487
695.391174	861.465759	4840.302246	970.096375	2.730211
695.717773	863.843445	4865.342285	976.635010	2.818733
696.044250	860.202637	4924.264160	975.520447	2.837502
696.370789	861.317078	4988.981934	979.161194	2.854983
696.697205	855.447205	5103.333496	979.607117	2.922863
697.023621	859.236633	5240.868164	987.111633	2.918434
697.349915	858.567871	5431.751953	992.089905	2.919673
697.676208	865.106628	5631.179688	992.907227	2.681465
698.002380	862.580261	5847.623535	988.077637	2.517478
698.328674	862.580261	6068.154785	998.777161	2.616366
698.654724	857.007629	6193.429199	1003.681152	2.748537
698.980896	856.190247	6271.520996	1018.095886	2.989765
699.306946	846.753723	6227.830566	1015.198059	3.130309
699.632935	848.908630	6165.416504	1022.256836	3.260565
699.958862	847.496887	6021.195313	1018.690247	3.308917
700.284729	857.007629	5855.500000	1015.123779	3.163277
700.610596	856.264587	5660.826660	1007.321960	3.144040
700.936340	856.413086	5468.160156	997.513977	3.059597
701.262146	853.292419	5286.192871	990.380920	3.092524
701.587830	852.029297	5140.410645	981.687500	3.023477
701.913513	859.236633	5010.009766	980.350037	2.917852
702.239075	864.289246	4898.109863	974.108643	2.722466
702.564697	867.558533	4795.349121	975.000305	2.735425
702.890137	856.784668	4704.104980	968.758972	2.910449
703.215698	855.670105	4617.468262	962.666016	2.844276
703.541016	856.338867	4551.562012	958.133606	2.754766
703.866455	857.676331	4497.469238	952.040710	2.592576
704.191711	853.441101	4474.435059	958.207825	2.893314
704.517029	857.824890	4440.776367	950.480286	2.586008
704.842163	866.518311	4402.213379	957.464844	2.572239
705.167419	872.016785	4358.969238	956.424622	2.420676
705.492493	862.580322	4329.396973	959.025208	2.781944
705.817566	858.493652	4311.415527	953.229675	2.743648
706.142578	852.549500	4290.462402	953.155273	2.926362
706.467590	859.459534	4281.099609	963.632019	3.044519
706.792480	858.865173	4264.827637	966.232605	3.152338
707.117371	856.561707	4269.805664	958.282227	2.980171
707.442200	862.505920	4272.629395	950.926270	2.592878
707.766907	866.146790	4293.136719	946.468079	2.343785
708.091675	871.793762	4303.613281	948.920105	2.247389
708.416321	864.289246	4315.130371	950.034607	2.484767
708.741028	857.750671	4326.721191	959.619629	2.936576
709.065552	854.555664	4347.675293	962.368896	3.086446
709.390137	851.360596	4378.213379	963.780701	3.187547
709.714600	843.707336	4398.423828	957.985046	3.214819
710.039063	850.394592	4435.872559	959.768250	3.050462
710.363403	852.920898	4449.395508	960.436951	2.989485
710.687744	861.317139	4503.488281	960.659851	2.727568
711.012085	861.019836	4547.698242	969.427673	2.940529
711.336304	857.750549	4610.483887	967.198547	2.916487
711.660461	862.654602	4633.963379	971.805359	2.894241
711.984619	854.407043	4624.378418	961.254395	2.834169
712.308716	858.939453	4563.970215	961.848816	2.777558
712.632751	858.196472	4507.648926	966.604187	2.970520
712.956726	864.883606	4446.869141	977.898132	3.155080
713.280701	861.837219	4411.798340	977.377991	3.254705
713.604553	869.639099	4364.541504	974.554443	3.001954
713.928467	860.499817	4343.811035	966.826965	3.052473
714.252258	856.116028	4322.783691	963.557617	3.099276
714.575989	850.097473	4321.223145	962.145935	3.228015
714.899719	856.115967	4296.703613	953.601074	2.833385
715.223267	866.741272	4296.257813	959.545410	2.706041
715.546936	857.676331	4296.332031	951.372070	2.724778
715.870422	857.081848	4301.756348	955.384338	2.853753
716.193970	855.967285	4273.446777	952.486572	2.824283
716.517395	862.803223	4241.570801	960.585632	2.894026
716.840820	857.081848	4202.784668	961.848816	3.131389
717.164124	849.725891	4173.509766	955.755920	3.190040
717.487488	848.314148	4115.033691	952.858093	3.200273
717.810730	852.475098	4048.384033	949.663086	3.041013
718.133972	853.961182	3965.610352	956.201721	3.285735
718.457092	856.487488	3895.840576	951.520691	3.126758
718.780212	858.939453	3834.020508	949.886047	3.056945
719.103210	857.156250	3797.463623	945.204895	2.994539
719.426208	858.196472	3760.163818	946.245117	3.034102
719.749207	857.824890	3729.699463	953.749695	3.340146
720.072083	859.459473	3700.647217	952.412292	3.271618
720.394958	849.874512	3674.120850	947.805481	3.467508
720.717773	851.583435	3637.861084	938.963562	3.136088
721.040527	847.199646	3609.254639	935.174133	3.185110
721.363281	854.109680	3583.991455	938.071838	3.075670
721.685913	853.663879	3581.093994	939.780823	3.157439
722.008545	857.750488	3554.567627	938.666321	3.000420
722.331055	855.075623	3540.524658	936.585754	3.035252
722.653503	862.951843	3525.738281	928.561096	2.463932
722.976013	862.208801	3522.766357	928.858337	2.505096
723.298401	868.747375	3524.549561	926.480652	2.173855
723.620789	856.636047	3522.840576	930.864441	2.784047
723.943115	861.614441	3511.917969	931.161682	2.624124
724.265381	859.756836	3492.525146	930.938782	2.703692
724.587585	866.518372	3484.797607	936.214294	2.661898
724.909790	862.208801	3487.769531	945.279236	3.163912
725.231873	862.060242	3480.636719	946.542297	3.226259
725.553894	861.391418	3481.156982	945.056335	3.193603
725.875916	912.140137	3536.512451	983.916687	2.734999
726.197937	905.378601	3554.270752	987.186035	3.088364
726.519775	903.669678	3559.323486	982.282043	2.960189
726.841675	859.831116	3525.887451	935.248352	2.828794
727.163513	866.666992	3556.425781	934.579651	2.524861
727.485291	860.722717	3600.487061	935.174072	2.717436
727.806946	856.115967	3641.873291	941.712646	3.072654
728.128662	853.292480	3655.842529	942.084167	3.168246
728.450256	857.824890	3657.997070	944.090332	3.080719
728.771790	857.676331	3653.984619	945.576477	3.143435
729.093323	871.793762	3661.563721	945.947937	2.658075
729.414795	874.691589	3664.387451	948.697205	2.652820
729.736145	877.143616	3659.037354	946.022278	2.475963
730.057495	860.871277	3652.276123	944.981934	3.013202
730.378845	867.112793	3647.669189	944.536133	2.784455
730.700134	868.598877	3660.375000	941.786926	2.621559
731.021301	872.982727	3694.108398	942.752930	2.473133
731.342468	868.153015	3740.918945	937.997559	2.431265
731.663574	870.604980	3782.751709	932.201965	2.115175
731.984680	866.444031	3790.627686	923.359863	1.946384
732.305664	857.304871	3778.590576	923.434265	2.263709
732.626648	845.416321	3744.039795	931.904785	2.983777
732.947571	844.301819	3728.584717	942.827209	3.415941
733.268433	853.143860	3698.863525	946.022278	3.263794
733.589233	850.989075	3683.111328	943.793152	3.276839
733.909973	851.880676	3664.981689	940.152344	3.137877
734.230713	849.725891	3627.458984	940.895325	3.282152
734.551331	853.143860	3576.561768	938.963562	3.151176
734.871948	853.143860	3513.627197	934.653992	3.063734
735.192505	855.967346	3479.001953	931.087402	2.863861
735.513062	866.444031	3428.104736	932.053284	2.561200
735.833435	874.022949	3376.538330	928.263916	2.167458
736.153931	869.193176	3326.904297	933.167908	2.603021
736.474304	862.654602	3316.204834	932.499207	2.846675
736.794617	860.128235	3307.288330	940.300964	3.276154
737.114807	861.317139	3314.718750	938.666321	3.152732
737.434998	863.100403	3310.037842	936.957275	3.018339
737.755188	867.855774	3321.034424	933.910889	2.692634
738.075256	876.400635	3334.037354	936.808777	2.457977
738.395325	875.508972	3353.653076	930.344421	2.212763
738.715271	873.279846	3379.584961	930.567322	2.285734
739.035278	865.552307	3373.269531	920.239197	2.180744
739.355164	866.444031	3371.560547	923.285583	2.269018
739.675049	867.261414	3347.337646	917.861389	2.040259
739.994873	863.323303	3343.547852	916.523987	2.144994
740.314636	857.973572	3314.272705	921.205078	2.574259
740.634277	853.589661	3282.619873	920.833679	2.768348
740.953979	856.784668	3243.388428	925.068848	2.861144
741.273499	862.431641	3206.756836	919.867676	2.450003
741.593140	864.660828	3185.654541	923.285645	2.525850
741.912598	860.722656	3161.506104	921.502258	2.641691
742.232117	859.979675	3133.048828	916.969788	2.507188
742.551453	857.527649	3096.937500	912.883240	2.471883
742.870850	854.406982	3054.733643	913.477600	2.684629
743.190063	855.150085	3022.188721	920.164856	3.000167
743.509338	856.487366	2987.861328	922.245422	3.085243
743.828552	865.626709	2969.434326	919.273254	2.549974
744.147705	864.437805	2956.876953	914.369324	2.386283
744.466797	871.199402	2938.672607	913.031738	2.023356
744.785828	873.948547	2936.815186	917.044189	2.089114
745.104858	877.440735	2918.387939	921.353760	2.151600
745.423706	869.639099	2923.514893	920.387878	2.470879
745.742615	871.348083	2901.149658	921.279358	2.459909
746.061401	869.341858	2905.905029	923.731445	2.670655
746.380249	869.193298	2894.536865	927.372253	2.872548
746.698975	861.837219	2905.385010	927.520813	3.214194
747.017639	862.357361	2895.577148	922.691162	2.967402
747.336304	860.425537	2880.641846	921.279480	3.012249
747.654907	855.818665	2873.063232	916.672668	3.016689
747.973389	849.354431	2874.994873	915.632507	3.271957
748.291931	843.707336	2886.437500	920.462097	3.757459
748.610352	846.828125	2882.499756	918.753174	3.533234
748.928711	859.162292	2884.431641	923.434265	3.173502
749.247070	870.159180	2885.843506	918.158691	2.381301
749.565308	872.685547	2872.914795	918.678772	2.299398
749.883545	869.044678	2862.215088	919.941956	2.553584
750.201782	865.403809	2855.899414	913.700500	2.426365
750.519836	859.533875	2860.802979	912.214539	2.632363
750.837952	850.617493	2854.264404	906.790344	2.803530
751.155884	849.725891	2842.301758	914.294922	3.240480
751.473877	853.515320	2814.364014	915.632385	3.167866
751.791809	854.184021	2807.973877	911.991638	2.958743
752.109619	862.580261	2797.125977	914.443604	2.680906
752.427490	865.775208	2805.225342	916.152588	2.597508
752.745300	865.329529	2818.079346	916.821289	2.636885
753.062988	856.413269	2831.305420	911.842957	2.806720
753.380615	857.081970	2835.614990	907.830627	2.564964
753.698303	860.276855	2819.862549	910.505554	2.563231
754.015808	859.682434	2813.843750	908.350769	2.490497
754.333374	857.602051	2804.407471	911.768738	2.782337
754.650757	854.927185	2794.599609	906.344543	2.650827
754.968262	856.933350	2787.615234	903.892578	2.432261
755.285583	857.899231	2789.621094	903.743958	2.373257
755.602905	863.397644	2793.930908	909.316711	2.378569
755.920105	860.276855	2782.042236	912.363098	2.710333
756.237305	861.465759	2779.218994	915.038025	2.793491
756.554443	859.831055	2775.875000	915.855286	2.923953
756.871582	866.666992	2783.751221	917.861511	2.670437
757.188599	864.437927	2797.125732	915.186584	2.625807
757.505615	863.917786	2818.748047	909.465332	2.330000
757.822510	865.775330	2842.599365	904.932861	1.980830
758.139465	867.484192	2878.635986	905.527161	1.891601
758.456238	857.899170	2896.542969	907.533386	2.434668
758.773010	853.069519	2920.245361	911.322937	2.818020
759.089783	847.868347	2918.908203	912.734619	3.132063
759.406433	854.035461	2933.620117	921.873840	3.262112
759.723145	852.103699	2934.957275	921.576599	3.335467
760.039673	853.218201	2942.461914	926.183411	3.492422
760.356201	854.852844	2958.437256	919.942078	3.094206
760.672668	856.784668	2968.319336	922.914063	3.131817
760.989136	865.923889	2968.319336	915.483826	2.357308
761.305481	873.279968	2964.901611	912.437500	1.872114
761.621826	872.016785	2954.350342	915.409485	2.083850
761.938049	865.106628	2970.325439	916.746887	2.452964
762.254333	854.852844	2997.966064	921.205078	3.096067
762.570496	855.224304	3102.658936	922.691223	3.001953
762.886597	854.852783	3252.824463	925.291809	2.937442
763.202637	854.852844	3466.519287	935.471252	3.086857
763.518677	858.939453	3713.278564	930.790222	2.517247
763.834656	863.397644	3929.425049	950.926270	2.854789
764.150574	866.518311	4060.049072	952.263672	2.684971
764.466370	857.750671	4075.281250	966.455383	3.378514
764.782288	853.961182	3969.028320	946.988098	2.986353
765.097961	858.642273	3809.351807	941.935608	2.822824
765.413696	863.100403	3602.196045	933.613708	2.574328
765.729309	867.632813	3428.178955	937.477356	2.727720
766.044861	865.552429	3272.960693	930.790222	2.709877
766.360474	871.199402	3163.884521	921.056458	2.174614
766.675903	867.558594	3080.219482	920.239197	2.380871
766.991394	864.512207	3021.891602	921.725281	2.651971
767.306763	859.088074	2969.731201	921.353760	2.950081
767.622131	855.670105	2921.508789	912.660339	2.758697
767.937378	855.447266	2868.605225	902.555176	2.340001
768.252625	863.620544	2809.757080	902.480774	1.996789
768.567810	863.323303	2751.727295	899.285828	1.904387
768.882996	865.106628	2710.489014	908.127869	2.331291
769.197998	856.116028	2681.733887	909.613953	2.930401
769.513062	851.286316	2685.003174	908.722229	3.132213
769.828064	852.920898	2667.541992	909.911133	3.140614
770.142944	861.168518	2663.752686	902.926697	2.316573
770.457825	865.552429	2624.594971	905.155762	2.251414
770.772705	861.911621	2595.988525	900.623291	2.232408
771.087402	851.286316	2564.409912	909.688232	3.409090
771.402100	853.069519	2550.143799	915.186584	3.660244
771.716736	861.317139	2524.955078	910.802734	2.974541
772.031372	862.877502	2495.382568	906.418884	2.667151
772.345947	868.524475	2466.850342	898.096985	1.850218
772.660461	865.032227	2452.955811	899.434387	2.166487
772.974854	869.267517	2453.624512	907.087585	2.387093
773.289246	865.478027	2454.961914	910.282715	2.818820
773.603638	868.821716	2441.810303	910.579895	2.654703
773.917908	859.310852	2422.491455	898.171387	2.485991
774.232178	862.506042	2401.463867	899.880310	2.428544
774.546265	856.338867	2395.891113	896.313782	2.596529
774.860474	858.865173	2390.764404	897.354004	2.512491
775.174561	860.054016	2387.718018	899.137207	2.558363
775.488586	861.242859	2383.928467	905.155762	2.883911
775.802551	865.998230	2371.148682	905.527161	2.626245
776.116516	864.289246	2343.210693	895.793518	2.130219
776.430359	866.518311	2335.557617	896.313660	2.028220
776.744202	873.354187	2327.904297	902.183594	1.982015
777.057922	874.765930	2338.232422	908.276428	2.289803
777.371704	877.292175	2332.436768	900.920410	1.623772
777.685303	869.267578	2325.006592	894.010315	1.699668
777.998962	868.450195	2319.210938	885.316895	1.162611
778.312500	861.762939	2308.214111	892.747253	2.142092
778.626038	861.168640	2297.811768	893.861816	2.275665
778.939453	858.419434	2286.146240	903.818298	3.179801
779.252869	855.298645	2285.031494	898.096985	2.993450
779.566223	853.441101	2284.139893	898.765686	3.168003
779.879578	848.982910	2290.901367	892.821533	3.040298
780.192749	848.908630	2284.363037	902.703796	3.747606
780.505920	849.280090	2281.019043	901.663574	3.658731
780.819031	851.360535	2267.718994	903.966858	3.714196
781.132141	864.363525	2269.353516	901.143372	2.617801
781.445190	866.815613	2273.737549	900.920593	2.424085
781.758118	863.174744	2281.836670	901.217712	2.681609
782.071045	864.215027	2273.663330	894.827698	2.171961
782.383911	871.050842	2261.626465	892.672852	1.554896
782.696838	880.115723	2240.004150	891.112488	0.808652
783.009583	871.645203	2216.747314	890.740967	1.419652
783.322266	863.917725	2198.246094	893.564453	2.221847
783.634888	861.540100	2185.168701	894.976257	2.526098
783.947510	856.710388	2178.110107	899.211609	3.216379
784.260132	851.880676	2167.187256	895.793640	3.338610
784.572571	847.422546	2153.738525	892.970154	3.486722
784.885010	854.035461	2143.707764	887.917542	2.627185
785.197449	863.546204	2141.404297	885.911377	1.750208
785.509766	866.295410	2151.955566	884.128113	1.387046
785.822083	866.592590	2155.224854	888.809143	1.724041
786.134277	861.540039	2158.865479	900.177490	2.978239
786.446533	856.413269	2146.977051	904.932861	3.759566
786.758606	854.927063	2150.617920	900.028870	3.480908
787.070740	855.967285	2144.376709	896.016541	3.108426
787.382690	861.391418	2160.723145	896.313721	2.687712
787.694641	865.032227	2184.871338	899.805969	2.634696
788.006653	869.936218	2237.180664	902.406555	2.374874
788.318481	877.738098	2289.712646	900.177429	1.589216
788.630310	862.431641	2332.510986	899.954590	2.552444
788.942017	856.636047	2345.959717	896.536621	2.679107
789.253784	848.239929	2347.222900	904.487061	3.752353
789.565430	853.218079	2327.606934	906.344666	3.603295
789.877014	852.177917	2303.012695	904.189880	3.584968
790.188538	856.264465	2249.812256	900.474670	3.172493
790.500061	863.397644	2213.552490	897.799805	2.548016
790.811462	860.722656	2175.732178	902.109375	3.147256
791.122925	852.326477	2160.351563	902.035095	3.800280
791.434204	847.422546	2135.014160	904.487000	4.431875
791.745483	848.016907	2117.032959	902.406555	4.285970
792.056702	848.834290	2094.296631	896.833923	3.853961
792.367920	849.354431	2080.104736	893.044434	3.549867
792.678955	848.982910	2059.745605	889.254944	3.326171
792.990112	848.165527	2041.690063	891.558350	3.635688
793.301086	850.617493	2021.925415	887.174500	3.121042
793.612122	850.171631	2030.470337	887.694580	3.179106
793.922974	857.081848	2033.219727	886.951599	2.539647
794.233826	855.818787	2042.358887	896.165100	3.400333
794.544556	863.769226	2043.622070	902.257874	3.262157
794.855286	856.710388	2052.018311	900.846191	3.692421
795.166016	855.372864	2052.984131	897.576843	3.524013
795.476624	851.731995	2060.785889	896.536621	3.705759
795.787292	852.177917	2080.178955	895.719238	3.545707
796.097778	852.400818	2120.451172	881.378845	2.285243
796.408264	853.589661	2148.686035	878.629639	1.933445
796.718689	855.818665	2161.614502	881.750427	1.985897
797.029053	854.481262	2163.175049	897.576904	3.293027
797.339355	855.001465	2150.618164	894.381836	3.039508
797.649658	856.190247	2144.005127	889.032043	2.550195
797.959839	863.174744	2121.937256	886.802979	1.877100
798.270020	864.883728	2105.590576	891.558411	2.149959
798.580078	863.843445	2079.733154	896.611023	2.694947
798.890137	858.642273	2055.213379	893.118652	2.881265
799.200195	856.264587	2039.386841	892.747131	3.083582
799.510071	854.704285	2023.040161	891.855530	3.179843
799.820007	851.360596	2012.786499	893.564453	3.633797
800.129883	850.246094	1996.885742	889.106384	3.389059
800.439575	856.933289	1993.096313	893.118652	3.184874
800.749329	863.620605	1985.740234	893.713074	2.681752
801.058960	871.496582	1971.250977	891.632629	1.830959
801.368591	865.700989	1967.090210	884.573914	1.713556
801.678162	867.484192	1956.242065	886.431458	1.740265
801.987671	867.781494	1958.173828	891.409668	2.166942
802.297119	872.834167	1956.093384	891.929871	1.762801
802.606506	863.917786	1958.248169	886.134277	2.030145
802.915894	856.561829	1950.446411	874.617371	1.650589
803.225159	852.029297	1930.087524	872.611084	1.909154
803.534424	853.738220	1918.570679	876.697754	2.156164
803.843628	857.156189	1916.118530	893.713135	3.452148
804.152771	861.614319	1924.068970	898.245605	3.447798
804.461792	864.586426	1932.836548	899.360168	3.255206
804.770874	861.019958	1937.814941	893.713196	3.036162
805.079773	860.499817	1948.143066	900.846191	3.709523
805.388733	859.385254	1955.870605	897.279602	3.455983
805.697571	864.363586	1971.994263	892.301453	2.522309
806.006470	865.032227	1978.607056	884.945374	1.788218
806.315125	864.289246	1989.009399	885.762756	1.909231
806.623901	872.091003	1989.083862	890.592346	1.656353
806.932495	875.731750	1970.136597	878.555359	0.258004
807.241150	877.515137	1950.446411	874.988770	-0.235464
807.549622	868.970398	1948.886108	875.508972	0.605471
807.858154	861.094238	1942.867554	883.162109	2.039972
808.166565	858.790833	1939.895508	885.019714	2.426118
808.474915	850.394714	1917.233276	883.459412	3.099316
808.783264	848.016907	1907.648071	886.580078	3.639302
809.091492	846.307922	1887.586426	883.310791	3.553599
809.399719	845.936523	1866.855957	880.264343	3.362442
809.707825	847.645325	1850.435059	875.954834	2.823075
810.015930	854.555603	1843.301880	881.453186	2.720373
810.323975	863.471863	1835.128540	880.933105	1.797059
810.632080	865.329407	1836.466187	887.100159	2.241780
810.939880	868.450195	1833.568237	884.053772	1.616753
811.247864	861.317139	1829.481445	881.378906	2.072145
811.555664	858.196472	1818.930542	880.561523	2.327913
811.863464	852.698059	1811.946167	882.716309	3.129352
812.171143	852.475098	1810.980103	885.391296	3.434119
812.478882	859.088074	1803.475708	883.905212	2.627855
812.786438	865.329590	1785.345825	884.128113	2.043282
813.094055	874.468750	1769.742188	886.580078	1.352808
813.401489	872.091064	1765.581177	880.115723	0.898125
813.708984	861.391418	1779.698853	876.549133	1.650614
814.016357	852.326477	1788.986694	880.115723	2.966844
814.323730	849.280090	1791.513062	882.121887	3.485528
814.630981	852.549377	1772.342773	888.363342	3.893697
814.938232	858.865173	1755.476074	885.316895	2.950190
815.245361	856.933289	1742.993164	887.471680	3.446538
815.552490	862.951843	1750.497681	880.487244	1.975718
815.859619	857.824890	1766.026978	876.177734	2.020789
816.166565	863.174622	1785.494263	877.440857	1.546778
816.473572	860.276917	1798.497437	883.385071	2.462977
816.780457	865.998230	1806.893555	885.316895	2.053221
817.087341	866.592712	1808.156738	885.019714	1.957063
817.394043	867.484314	1814.769897	877.589355	1.066737
817.700806	863.397644	1823.166016	880.338623	1.765111
818.007507	863.323242	1833.642578	874.394348	1.140975
818.314209	862.357361	1836.168823	882.790588	2.098274
818.620667	866.295410	1844.416382	885.242676	1.937109
818.927246	863.620544	1868.936157	898.914368	3.510721
819.233704	859.162415	1909.654175	897.056824	3.607302
819.540161	857.304871	1949.480469	891.112549	3.095444
819.846497	866.072571	2009.071289	891.929871	2.262233
820.152832	870.010559	2075.052002	893.341614	1.936120
820.458984	865.775391	2181.379395	901.886414	2.744825
820.765259	854.927063	2282.208008	899.508789	3.123542
821.071350	860.202576	2411.717529	898.691406	2.480726
821.377502	865.998230	2606.465088	902.183655	2.079064
821.683472	870.382080	2999.377930	915.781067	2.132413
821.989441	866.815613	3786.243408	948.548523	2.799621
822.295349	862.580322	4969.811523	978.789734	2.829386
822.601196	863.992004	6462.998535	1016.981262	2.732436
822.907043	859.682434	7811.296387	1042.912964	2.635798
823.212769	859.831055	8566.137695	1065.946899	2.674639
823.518494	855.967285	8475.339844	1067.507324	2.776345
823.824097	854.035461	7689.662598	1051.383423	2.887050
824.129700	850.617615	6587.382324	1023.965820	3.021707
824.435242	848.016907	5502.710938	986.145691	2.967516
824.740723	850.320313	4587.747559	961.105652	2.964214
825.046082	854.184082	3935.072021	947.062500	3.014664
825.351501	858.716553	3481.379639	944.461914	3.269401
825.656799	859.979736	3193.382568	934.951172	3.212966
825.962036	860.053955	3010.746338	920.610657	2.815684
826.267212	859.756775	2931.762451	914.369324	2.635734
826.572449	862.283020	2958.808594	920.907898	2.796287
826.877502	867.558533	3127.550049	925.514648	2.564440
827.182495	869.787598	3428.402100	934.876770	2.543923
827.487488	864.660828	3785.352295	940.746765	2.605066
827.792419	857.379150	4044.817139	946.542297	2.797330
828.097290	854.629944	4083.157227	946.839539	2.856088
828.402100	862.283142	3899.183838	941.935547	2.622819
828.706848	867.112793	3574.183838	936.882996	2.577332
829.011597	866.592712	3198.955078	921.205078	2.341504
829.316223	863.843445	2841.633057	905.304382	2.096327
829.620789	866.369690	2563.146484	898.394226	1.887375
829.925354	869.490417	2350.195068	898.617126	1.967084
830.229797	873.354187	2196.536865	898.542786	1.903637
830.534302	874.022949	2059.448486	896.462341	1.892940
830.838562	871.645264	1968.056030	889.626465	1.640006
831.142944	868.078674	1904.601563	892.301453	2.336926
831.447144	860.128235	1862.694824	892.747131	3.253539
831.751404	854.481262	1832.750977	892.672913	3.904000
832.055542	853.886902	1818.782104	891.632629	3.911899
832.359619	852.697998	1818.410522	888.214661	3.677768
832.663635	860.202637	1858.756836	889.180664	2.901999
832.967651	862.208740	1923.623047	889.775085	2.597133
833.271545	863.174622	2060.860107	891.335449	2.351271
833.575439	860.053955	2234.505615	892.004211	2.324582
833.879211	859.831055	2483.419922	895.496399	2.196698
834.183044	859.385254	2719.999756	901.737854	2.276269
834.486694	860.128235	2898.549072	913.700500	2.628126
834.790344	852.029297	2953.681641	921.873840	3.323316
835.093933	856.264648	2899.143555	920.387756	3.138860
835.397522	857.527649	2717.696289	911.322937	2.891958
835.700928	863.843445	2489.289795	900.103210	2.230757
836.004395	867.781494	2263.112305	892.078552	1.741312
836.307739	866.666931	2107.373779	887.768860	1.700799
836.611023	868.598816	1980.762085	883.905090	1.376261
836.914307	869.787659	1881.344849	889.477844	1.946522
837.217529	868.153015	1800.726440	883.682312	1.665209
837.520691	868.375793	1737.271851	879.892822	1.325478
837.823730	865.552429	1680.058716	870.233459	0.574708
838.126831	870.382080	1623.960083	878.926941	1.133905
838.429749	868.673096	1593.421875	880.115723	1.578840
838.732727	865.032227	1562.957642	884.945496	2.853209
839.035522	863.471924	1550.623413	883.236511	2.876307
839.338379	854.852783	1544.827759	885.391296	4.426032
839.641113	855.595886	1569.942261	887.100159	4.410223
839.943848	855.447266	1604.121460	887.397400	4.267562
840.246460	861.911560	1657.842285	885.762756	2.996642
840.549072	860.202637	1711.265991	876.549316	1.920736
840.851563	859.013672	1756.442017	882.196228	2.583221
841.154053	860.351135	1759.339966	884.425293	2.677915
841.456482	863.249023	1710.523071	889.849365	3.139520
841.758850	868.821716	1640.307007	880.115723	1.463930
842.061157	865.700989	1569.050659	869.267578	0.507086
842.363403	863.249023	1516.221313	869.564758	0.967229
842.665588	856.338867	1475.057617	864.512207	1.321011
842.967712	859.013733	1440.655640	869.787598	1.852319
843.269775	860.574158	1419.033325	862.654602	0.372533
843.571777	860.351257	1404.618652	868.673096	1.528998
843.873840	859.756836	1391.169922	866.964172	1.356259
844.175659	853.961121	1375.789429	875.211731	4.072338
844.477600	856.710266	1366.278442	869.713379	2.551790
844.779297	858.790833	1367.690308	874.840332	3.153766
845.081116	861.317139	1354.390015	875.880554	2.953603
845.382751	860.202637	1343.616089	881.081726	4.319096
845.684387	861.465759	1317.535767	877.143616	3.437599
845.985962	862.728821	1302.378052	873.725647	2.501273
846.287537	852.549500	1276.595093	876.623535	5.677228
846.588989	847.422546	1263.666382	878.926941	7.568736
846.890381	851.509216	1263.517700	872.611145	5.121722
847.191711	866.369812	1271.468140	868.153015	0.440190
847.493042	868.450195	1271.319580	866.221191	-0.553282
847.794250	867.781433	1275.331909	866.741211	-0.255238
848.095459	864.363586	1272.434082	870.827942	1.584127
848.396606	867.335632	1264.186523	873.948669	1.666378
848.697693	869.341797	1256.087524	872.982727	0.941427
848.998657	866.146790	1247.914185	869.416199	0.856388
849.299622	853.738281	1254.527100	862.060242	2.076395
849.600464	847.199646	1242.564453	868.747375	5.450088
849.901367	845.564941	1240.186646	867.929993	5.667466
850.202087	853.218079	1234.093872	871.496582	4.799072
850.502808	854.555664	1230.527344	865.478027	2.905103
850.803467	852.920959	1225.177490	867.261414	3.852304
851.104065	851.955017	1221.833862	872.239685	5.484138
851.404663	855.595886	1232.533447	880.784485	6.682433
851.705139	858.790833	1235.728516	880.190125	5.677143
852.005615	860.648438	1227.183716	875.211731	3.973231
852.306030	859.682434	1221.685303	870.827881	3.078828
852.606384	861.094238	1215.592651	861.911560	0.230557
852.906616	862.060242	1218.267456	867.187012	1.439266
853.206909	855.893066	1207.047729	864.883606	2.560279
853.506958	854.258362	1210.614258	871.347961	4.795655
853.807129	856.413269	1211.134277	863.397644	1.968977
854.107178	860.722717	1218.416016	863.323303	0.727044
854.407166	861.911621	1209.425415	868.227234	1.817370
854.707092	862.951843	1212.100220	867.929993	1.425798
855.007019	860.648438	1197.908569	871.793762	3.304667
855.306763	853.812561	1204.447144	868.153015	4.089857
855.606567	849.948792	1200.137573	867.707214	5.071100
855.906250	856.264465	1200.137573	861.985840	1.663804
856.205933	865.849609	1195.828003	857.527649	-2.521971
856.505493	870.679260	1190.255249	859.385254	-3.534060
856.805054	874.468750	1199.914673	866.815491	-2.351622
857.104492	873.354187	1197.611206	873.279846	-0.022927
857.403931	867.187073	1197.016846	871.868164	1.419245
857.703308	859.162415	1191.072632	868.970398	2.955011
858.002563	858.345032	1189.586548	870.233459	3.589051
858.301819	858.047852	1190.403931	874.245789	4.873670
858.601013	857.676270	1186.094360	873.205566	4.728515
858.900208	857.156189	1181.413330	867.707214	3.253907
859.199219	856.264465	1183.642334	866.741211	3.200200
859.498291	853.143799	1183.716675	867.855774	4.450449
859.797302	859.013855	1181.859009	868.153076	2.830837
860.096191	864.215027	1177.029419	870.010559	1.852706
860.395020	867.632874	1169.376343	864.289246	-1.108103
860.693787	868.895996	1162.020386	863.249023	-1.926477
860.992554	865.106506	1162.391724	859.162354	-1.999478
861.291260	874.394348	1168.038696	866.146790	-2.808690
861.589844	869.564758	1179.630005	864.214905	-1.725396
861.888428	875.806152	1176.583618	871.050781	-1.581026
862.186890	871.273682	1173.240112	869.118958	-0.713564
862.485413	864.809326	1172.942749	869.787659	1.615642
862.783813	860.351135	1172.719849	861.242859	0.285471
863.082153	856.115967	1177.029419	856.858948	0.231521
863.380371	862.283020	1181.338989	855.224304	-2.212375
863.678589	858.493652	1181.784790	858.270691	-0.068966
863.976746	855.447266	1186.763062	861.465637	1.816506
864.274902	856.338867	1180.521606	868.078613	3.621336
864.572937	865.626648	1177.029419	866.889832	0.405643
864.870911	864.512146	1173.537109	868.450195	1.274347
865.168884	868.673096	1166.552612	865.329529	-1.122456
865.466736	860.722656	1164.546509	868.821777	2.665729
865.764587	872.982605	1160.608398	866.741211	-2.169970
866.062317	868.747375	1163.803467	866.666931	-0.705101
866.360107	879.372742	1165.512451	863.471985	-5.556991
866.657715	875.360352	1159.419678	866.444031	-3.138894
866.955322	874.468750	1158.082153	866.666992	-2.750842
867.252808	865.329407	1151.915161	866.518372	0.414872
867.550293	863.917725	1158.007935	864.883728	0.328472
867.847717	859.311035	1151.246338	859.459534	0.050867
868.145081	854.629944	1155.333008	857.527649	0.963643
868.442383	847.348328	1149.834595	859.533875	4.028463
868.739624	844.450439	1151.915039	865.775208	6.935682
869.036804	851.880676	1152.658081	868.078613	5.385357
869.333984	855.149963	1156.967651	863.174622	2.658777
869.631042	860.945618	1164.174927	865.478027	1.494714
869.928101	859.979675	1164.620850	867.632813	2.512181
870.224976	864.066345	1159.271118	873.279846	3.121054
870.521851	866.444031	1167.890259	870.753601	1.429631
870.818726	859.608215	1162.391724	868.153015	2.822082
871.115479	860.945618	1159.270996	862.283020	0.448303
871.412231	854.332703	1153.772583	869.564697	5.086829
871.708862	858.345032	1153.995483	872.091003	4.649400
872.005493	857.602051	1166.404175	878.109558	6.640986
872.302063	868.895996	1162.688843	872.165283	1.112787
872.598572	865.329407	1170.564941	877.217957	3.894877
872.895020	863.249023	1166.329834	874.543030	3.726401
873.191406	850.246033	1166.998657	871.793762	6.802700
873.487671	848.908691	1169.970703	866.221008	5.392203
873.783997	848.462830	1173.685913	868.673035	6.214259
874.080200	862.654602	1171.307983	869.861877	2.335071
874.376343	867.335632	1158.453735	874.914551	2.603383
874.672424	865.255127	1159.196655	871.422363	2.098117
874.968445	858.419250	1154.292725	871.868164	4.545495
875.264465	859.385254	1166.627075	862.728821	1.088253
875.560364	858.345032	1162.614624	857.453369	-0.293050
875.856201	860.276855	1163.729248	850.543274	-3.207614
876.152039	865.923889	1160.088379	846.753723	-6.516819
876.447754	869.936218	1160.162720	848.685730	-7.322036
876.743469	871.942383	1159.865601	853.738281	-6.322554
877.039063	870.233398	1164.175171	861.019958	-3.134444
877.334595	870.307800	1160.608521	859.236633	-3.813689
877.630127	866.964172	1173.314331	859.310974	-2.498187
877.925537	862.283020	1168.484619	860.276917	-0.655158
878.221008	855.447205	1170.193481	865.701111	3.257833
878.516296	852.400818	1166.404175	861.614441	2.934243
878.811646	855.521484	1180.447266	859.013855	1.074821
879.106812	861.094238	1198.205688	861.020020	-0.022016
879.401978	862.951721	1218.267334	864.363586	0.397355
879.697083	854.184082	1249.920410	859.905457	1.445754
879.992126	860.574036	1293.313110	861.985840	0.326248
880.287109	862.654602	1350.452026	871.125000	1.736458
880.582031	871.868164	1428.024048	883.236511	2.044094
880.876892	862.580322	1588.443726	882.493408	2.743366
881.171753	854.555664	1869.902344	887.991882	3.293084
881.466492	856.933289	2324.486084	904.264160	3.225157
881.761230	862.357422	2904.641846	920.685059	2.856000
882.055786	867.335632	3481.973877	937.328857	2.676975
882.350403	866.444031	3834.912109	944.536316	2.630727
882.644958	860.945618	3864.038330	942.009949	2.699362
882.939453	859.905334	3605.613525	924.845947	2.365168
883.233826	856.190247	3198.880615	907.979248	2.210664
883.528137	856.710388	2781.522217	901.960754	2.350898
883.822449	855.447205	2416.398926	896.908142	2.656132
884.116577	857.750488	2144.302246	883.087830	1.969399
884.410828	861.168457	1926.000977	875.657532	1.360690
884.704956	865.106628	1757.110718	876.326233	1.257797
884.999023	864.289246	1621.136841	882.344788	2.385625
885.292969	865.329529	1520.828125	881.230286	2.425750
885.586914	865.626709	1450.686401	872.016785	1.092209
885.880798	876.623535	1400.903442	865.552429	-2.111678
886.174622	874.022949	1370.439453	860.425537	-2.739114
886.468384	871.942383	1345.325073	860.797058	-2.354401
886.762085	860.053955	1317.387207	857.453430	-0.568628
887.055664	860.053955	1283.059448	849.131531	-2.582100
887.349304	858.939453	1253.189575	851.806335	-1.809287
887.642822	849.725891	1237.511841	852.549377	0.728104
887.936340	845.862244	1228.744141	860.722717	3.881216
888.229736	845.119141	1212.100464	857.453430	3.361013
888.523071	851.657715	1188.620728	859.533936	2.337414
888.816284	854.704163	1166.181274	863.397644	2.791050
889.109619	859.088074	1147.679810	869.564758	3.630279
889.402710	860.351135	1147.605591	873.948547	4.733577
889.695862	861.391418	1140.472534	871.719543	3.700761
889.988892	861.985840	1136.459961	864.363586	0.866292
890.281921	867.781555	1116.992798	856.413208	-4.561731
>>>>>End Processed Spectral Data<<<<<
