Jaz Data File
++++++++++++++++++++++++++++++++++++
Date: Fri Jun 04 15:57:22 2021
User: jaz
Dark Spectrum Present: Yes
Reference Spectrum Present: Yes
Processed Spectrum Present: Yes
Spectrometers: JAZA3586
Integration Time (usec): 66300 (JAZA3586)
Spectra Averaged: 10 (JAZA3586)
Boxcar Smoothing: 1 (JAZA3586)
Correct for Electrical Dark: No (JAZA3586)
Strobe/Lamp Enabled: Yes (JAZA3586)
Correct for Detector Non-linearity: No (JAZA3586)
Correct for Stray Light: No (JAZA3586)
Number of Pixels in Processed Spectrum: 2048
>>>>>Begin Processed Spectral Data<<<<<
W	D	R	S	P
191.335022	0.000000	0.000000	0.000000	0.000000
191.713211	413.271729	406.584473	406.733063	97.778008
192.091385	820.970703	817.552795	817.404236	104.346504
192.469528	1233.870972	1233.722290	1223.245728	7146.305176
192.847641	1238.849243	1246.056519	1225.028931	-191.755020
193.225739	1254.452759	1253.635498	1232.459351	2691.112793
193.603790	1262.328857	1260.842896	1248.137207	955.048035
193.981842	1271.245239	1263.220581	1258.539551	158.333084
194.359863	1271.393921	1267.084351	1265.598267	134.483337
194.737854	1274.960327	1268.347290	1270.130737	73.031342
195.115829	1267.158691	1270.724976	1278.452515	316.683197
195.493774	1262.551880	1268.718872	1279.864380	280.728424
195.871704	1261.363159	1272.805542	1277.932495	144.806686
196.249603	1265.895630	1277.189331	1274.737427	78.289627
196.627457	1277.561035	1284.025269	1271.913940	-87.359077
197.005310	1277.263794	1278.749756	1266.564331	-720.036133
197.383133	1283.505127	1272.805542	1274.886230	80.553558
197.760910	1280.978882	1272.211182	1277.040894	44.914722
198.138687	1283.505127	1274.291626	1287.220337	-40.323544
198.516449	1272.434082	1272.211182	1280.979004	-3833.515869
198.894180	1262.180298	1264.037842	1271.913940	524.006042
199.271866	1263.815063	1257.870728	1265.003784	-19.997536
199.649536	1266.192749	1265.969727	1257.053345	4097.974609
200.027191	1263.220581	1277.040894	1258.167969	-36.559319
200.404816	1257.202026	1284.916870	1257.276367	0.268235
200.782410	1257.796509	1293.090210	1262.849121	14.315904
201.159988	1259.356812	1296.656738	1267.010132	20.518326
201.537537	1263.592041	1299.628906	1267.010010	9.484645
201.915070	1265.152466	1293.090210	1263.814941	-4.787518
202.292557	1268.570435	1294.204712	1262.477539	-23.768547
202.670029	1262.700439	1302.526733	1263.294922	1.492688
203.047485	1255.790283	1310.254150	1267.455933	21.419062
203.424911	1260.396973	1306.093140	1268.496094	17.723852
203.802292	1264.037964	1306.984741	1268.421753	10.207493
204.179688	1263.889282	1303.195313	1267.827271	10.018789
204.557037	1259.653931	1305.647339	1262.477661	6.139424
204.934357	1260.025513	1301.412109	1259.356812	-1.615743
205.311661	1261.808838	1302.600952	1247.691284	-34.608536
205.688934	1262.328857	1304.755737	1252.966797	-22.066341
206.066177	1255.715942	1299.183105	1249.623169	-14.016956
206.443390	1249.102905	1302.006470	1256.756226	14.466550
206.820587	1251.034790	1296.359497	1251.109253	0.164288
207.197769	1252.818237	1299.777466	1252.223755	-1.265954
207.574921	1255.270142	1289.598022	1245.536499	-28.354918
207.952042	1250.514771	1288.706421	1242.936035	-19.843958
208.329147	1241.895630	1292.272949	1246.502441	9.144614
208.706223	1261.437378	1310.848511	1273.474365	24.360882
209.083267	1267.010010	1316.124146	1284.991211	36.611050
209.460297	1269.982056	1308.991089	1285.734375	40.381210
209.837280	1258.167847	1295.096558	1258.613892	1.207854
210.214264	1254.378540	1286.031372	1249.028687	-16.901659
210.591217	1257.870850	1284.768433	1245.090698	-47.514126
210.968124	1247.914307	1288.334839	1252.075073	10.293695
211.345016	1248.508667	1293.610352	1261.140015	28.006376
211.721893	1249.400269	1295.542114	1254.601440	11.272137
212.098724	1253.041138	1288.037598	1250.960571	-5.945077
212.475555	1249.103149	1290.118042	1237.437622	-28.442175
212.852356	1245.833862	1296.582397	1238.849365	-13.762953
213.229126	1245.759399	1303.864136	1240.038086	-9.846553
213.605865	1238.403442	1303.641235	1243.381714	7.630962
213.982590	1245.982300	1298.885864	1238.329102	-14.466319
214.359283	1241.970093	1303.344116	1237.957642	-6.537703
214.735931	1252.669678	1305.201660	1245.462280	-13.720018
215.112579	1246.353882	1308.619507	1254.824341	13.603748
215.489197	1251.777954	1308.173706	1258.242310	11.462486
215.865799	1252.372314	1306.390503	1248.211426	-7.702755
216.242355	1254.972900	1297.622803	1245.610840	-21.950954
216.618896	1252.818237	1289.078003	1238.775024	-38.729465
216.995407	1249.623169	1286.105835	1241.152588	-23.218098
217.371902	1249.474487	1289.449463	1247.394043	-5.204367
217.748367	1242.192993	1288.409180	1247.022583	10.449996
218.124802	1240.929810	1301.560669	1250.217651	15.318671
218.501236	1235.357056	1305.127319	1246.279419	15.654755
218.877609	1245.536499	1308.099487	1245.462158	-0.118826
219.253983	1250.663452	1299.108765	1244.198975	-13.343866
219.630295	1249.771851	1293.684692	1243.233032	-14.890447
220.006592	1252.149536	1293.684692	1249.177246	-7.156083
220.382889	1244.719116	1289.598022	1242.713013	-4.470037
220.759140	1246.799683	1294.873657	1244.867798	-4.018567
221.135391	1246.279663	1295.170776	1241.004028	-10.790580
221.511581	1252.743774	1300.371948	1243.530273	-19.344645
221.887772	1261.362915	1307.727905	1238.849243	-48.557484
222.263931	1254.081177	1307.207764	1243.604614	-19.719999
222.640060	1243.010254	1311.368652	1246.502319	5.108466
223.016159	1232.161987	1312.111694	1250.291870	22.676609
223.392212	1238.700562	1315.752563	1238.849243	0.192963
223.768265	1249.623169	1307.430542	1238.626343	-19.023224
224.144302	1253.486938	1304.607056	1241.672729	-23.110685
224.520294	1250.291870	1301.560913	1244.867798	-10.579624
224.896286	1245.016479	1312.631958	1244.867798	-0.219893
225.272217	1248.657227	1320.062134	1240.038208	-12.070625
225.648148	1252.669556	1327.120972	1249.548828	-4.191629
226.024048	1254.675781	1320.953735	1251.703613	-4.484399
226.399902	1251.183472	1315.975464	1250.440430	-1.146811
226.775772	1255.195801	1312.631714	1238.254761	-29.495552
227.151581	1253.932739	1315.232300	1237.288818	-27.151779
227.527374	1251.109253	1319.913452	1234.985474	-23.434296
227.903137	1244.273315	1328.904175	1240.706909	-4.214073
228.278870	1241.078247	1344.953613	1238.254761	-2.718148
228.654572	1246.130859	1350.972046	1241.747070	-4.181362
229.030273	1241.672852	1364.420898	1244.124878	1.997609
229.405930	1249.697510	1376.458008	1244.867798	-3.810108
229.781555	1244.719238	1392.730103	1242.713013	-1.355458
230.157181	1251.852173	1401.720825	1244.496216	-4.908269
230.532761	1243.307495	1395.182129	1242.713013	-0.391430
230.908325	1245.239258	1387.157593	1250.588989	3.769584
231.283859	1244.570557	1373.337280	1249.325806	3.692918
231.659332	1252.743774	1378.835571	1254.675659	1.532126
232.034821	1254.973022	1375.417603	1247.468384	-6.230782
232.410263	1258.167969	1374.303223	1248.137085	-8.637242
232.785690	1255.493042	1362.414673	1238.626343	-15.774824
233.161087	1253.858398	1360.705688	1240.855469	-12.169640
233.536469	1251.257813	1351.417847	1228.744141	-22.477699
233.911804	1254.750000	1356.693237	1232.384888	-21.938789
234.287140	1253.784058	1355.504517	1234.168091	-19.284191
234.662430	1251.406372	1369.770508	1248.657104	-2.322720
235.037704	1242.118530	1361.002930	1249.028687	5.812500
235.412933	1239.592285	1362.934692	1243.827515	3.433717
235.788162	1235.654297	1363.083496	1238.477783	2.215729
236.163345	1245.982422	1375.789185	1239.666626	-4.865537
236.538513	1251.406372	1375.492065	1236.248657	-12.215522
236.913635	1255.864624	1377.126587	1238.254883	-14.522065
237.288742	1241.895630	1379.504272	1243.010132	0.809907
237.663834	1242.787231	1383.070801	1246.799683	2.860243
238.038879	1240.706787	1381.510376	1242.490112	1.266534
238.413910	1248.062866	1382.773560	1239.443726	-6.398260
238.788910	1249.846069	1388.271973	1237.660522	-8.802938
239.163879	1253.264038	1398.600098	1242.935913	-7.106375
239.538834	1256.236206	1392.210083	1246.428223	-7.213138
239.913757	1250.143311	1402.389648	1255.047363	3.221130
240.288651	1242.935913	1410.042603	1255.938965	7.781287
240.663528	1241.895752	1424.085938	1259.356812	9.583974
241.038361	1246.056763	1431.367554	1258.390991	6.655969
241.413177	1246.948364	1447.714233	1258.688110	5.847481
241.787979	1242.861694	1468.741821	1252.966675	4.473603
242.162735	1239.295044	1496.531128	1252.000854	4.939358
242.537476	1243.158813	1521.794312	1241.895630	-0.453346
242.912170	1249.846069	1552.629883	1244.793457	-1.668719
243.286865	1250.366333	1570.833984	1245.313599	-1.576675
243.661514	1251.703735	1575.440552	1252.223633	0.160593
244.036148	1251.257813	1565.409668	1245.016357	-1.986764
244.410751	1248.508667	1534.276855	1240.855347	-2.678157
244.785339	1243.456177	1516.890015	1240.781128	-0.978317
245.159882	1251.555054	1500.692017	1242.787231	-3.519278
245.534378	1254.750122	1509.459839	1241.895630	-5.046722
245.908890	1255.864624	1515.701172	1240.855469	-5.776383
246.283356	1245.908081	1547.131226	1237.957642	-2.639385
246.657791	1254.750000	1589.632446	1240.558228	-4.237837
247.032196	1253.264038	1646.771118	1242.415649	-2.756847
247.406586	1253.115356	1701.606567	1243.827515	-2.070908
247.780960	1243.010132	1749.531738	1251.629395	1.701657
248.155289	1251.777954	1769.965210	1249.474609	-0.444500
248.529602	1254.155640	1756.962036	1254.452759	0.059092
248.903870	1253.412598	1729.990234	1243.827515	-2.011232
249.278122	1245.833862	1679.018555	1249.400269	0.823299
249.652344	1233.722534	1644.244995	1249.103027	3.746566
250.026550	1239.220825	1600.703491	1255.195923	4.419326
250.400711	1239.072144	1589.706665	1251.703613	3.602460
250.774857	1248.583008	1575.217773	1249.920288	0.409411
251.148987	1244.644897	1571.651245	1250.291870	1.726869
251.523071	1242.861694	1569.273438	1249.326050	1.980430
251.897125	1243.381714	1575.440552	1256.830444	4.050105
252.271164	1239.369385	1588.071899	1256.087402	4.794350
252.645187	1247.617065	1603.824219	1260.396851	3.587740
253.019165	1249.920532	1614.895142	1253.412476	0.956763
253.393112	1256.161865	1618.313110	1250.068970	-1.682417
253.767044	1246.725342	1599.217407	1239.963745	-1.918227
254.140930	1246.428101	1579.973145	1238.031860	-2.517273
254.514801	1240.781128	1555.230469	1237.214478	-1.134253
254.888657	1248.954468	1550.251953	1246.130981	-0.937109
255.262466	1243.381714	1553.595581	1241.821411	-0.502976
255.636276	1246.502441	1556.047485	1243.084595	-1.104152
256.010010	1248.285767	1557.533569	1244.347778	-1.273409
256.383759	1246.056641	1559.242554	1247.765625	0.545677
256.757446	1253.858521	1578.189819	1255.641724	0.549809
257.131134	1246.428223	1603.304077	1252.966797	1.832170
257.504791	1247.691406	1624.703491	1260.694214	3.448910
257.878418	1242.564331	1648.182983	1260.025513	4.304827
258.252014	1250.068970	1683.328125	1264.334961	3.292716
258.625580	1253.635498	1732.145142	1254.229858	0.124211
258.999115	1251.406372	1787.723633	1245.313599	-1.136039
259.372650	1247.022461	1852.292603	1239.666626	-1.215298
259.746124	1245.090698	1929.864624	1246.502319	0.206144
260.119598	1246.428101	2011.894897	1252.520996	0.795971
260.493042	1245.833740	2085.825928	1247.914185	0.247674
260.866425	1250.588989	2130.110352	1246.725464	-0.439276
261.239838	1255.790283	2113.540771	1238.923584	-1.966388
261.613159	1251.480713	2045.479492	1238.626343	-1.618941
261.986511	1252.000854	1950.223511	1232.682129	-2.766843
262.359802	1250.663330	1880.156128	1240.558228	-1.605277
262.733063	1257.573486	1836.986206	1235.877075	-3.744552
263.106293	1257.053345	1809.940063	1238.180542	-3.413503
263.479523	1258.167969	1793.964966	1239.666626	-3.453051
263.852692	1253.189575	1779.550171	1249.771851	-0.649312
264.225861	1247.914185	1777.915649	1255.864624	1.500079
264.598969	1251.109253	1778.361328	1255.195923	0.775088
264.972076	1254.155640	1781.333618	1255.790283	0.310074
265.345154	1258.688110	1785.123047	1250.960693	-1.467877
265.718201	1250.143188	1797.085571	1239.741089	-1.901864
266.091217	1252.818237	1822.571411	1232.087769	-3.638500
266.464203	1251.034912	1857.419434	1237.363159	-2.254634
266.837158	1245.462158	1893.827759	1250.811890	0.825110
267.210114	1241.375610	1922.508667	1254.378540	1.909015
267.583038	1238.997925	1941.604492	1251.034790	1.713173
267.955902	1249.103149	1955.127441	1243.307495	-0.820886
268.328766	1245.685181	1961.442993	1241.821411	-0.539815
268.701569	1251.109253	1952.972656	1238.254761	-1.831481
269.074371	1242.341431	1953.492798	1242.192993	-0.020873
269.447144	1247.617065	1960.477173	1248.137207	0.072965
269.819885	1239.220825	1985.963257	1251.777954	1.681588
270.192596	1242.935913	2010.780273	1242.267212	-0.087088
270.565277	1235.134155	2044.142212	1248.880249	1.699129
270.937927	1235.802856	2092.513184	1252.149536	1.908075
271.310577	1241.301147	2158.048340	1263.443481	2.415315
271.683136	1251.555054	2231.979492	1262.700439	1.136792
272.055725	1256.384766	2300.337891	1259.059570	0.256219
272.428284	1249.548828	2335.631836	1253.932739	0.403644
272.800812	1246.428101	2325.303711	1243.976074	-0.227276
273.173279	1246.502563	2291.570313	1245.759277	-0.071123
273.545776	1249.400269	2259.694580	1243.381714	-0.595723
273.918152	1252.669556	2237.700684	1252.520996	-0.015082
274.290558	1252.149414	2225.515137	1251.183472	-0.099237
274.662964	1249.697388	2198.766113	1251.406372	0.180070
275.035278	1249.697388	2178.927490	1241.747070	-0.855581
275.407593	1258.390747	2163.843750	1247.542725	-1.198077
275.779907	1261.585815	2164.884033	1251.332153	-1.135136
276.152161	1261.362915	2191.707275	1253.486938	-0.846566
276.524384	1246.279541	2228.710205	1244.199097	-0.211765
276.896606	1249.697388	2266.827393	1238.997925	-1.051927
277.268799	1244.496338	2285.031494	1235.134155	-0.899747
277.640930	1256.236206	2301.898193	1242.415771	-1.321692
278.013031	1256.830444	2318.021973	1250.440552	-0.602143
278.385162	1256.681885	2328.498779	1252.595215	-0.381284
278.757233	1250.589111	2316.759033	1248.880249	-0.160280
279.129272	1245.165039	2308.808594	1242.341431	-0.265466
279.501282	1249.251587	2312.820801	1247.616943	-0.153694
279.873230	1248.657349	2335.185791	1245.833740	-0.259874
280.245178	1252.446655	2370.925537	1255.121582	0.239158
280.617126	1249.400146	2414.392822	1252.372437	0.255134
280.988983	1251.629272	2464.250000	1251.480835	-0.012241
281.360870	1250.812012	2511.952393	1248.211426	-0.206209
281.732697	1253.858521	2571.171631	1248.582886	-0.400485
282.104492	1257.573608	2619.468018	1243.010132	-1.069354
282.476288	1249.920410	2671.256836	1240.186646	-0.684832
282.848053	1249.920532	2698.749268	1234.168213	-1.087245
283.219757	1250.812012	2718.885498	1239.517944	-0.769312
283.591461	1253.784058	2713.238037	1237.437622	-1.120038
283.963135	1250.811890	2711.826416	1246.651123	-0.284786
284.334747	1248.880127	2692.507568	1240.038208	-0.612479
284.706360	1254.229980	2705.064697	1241.152710	-0.901362
285.077942	1255.344604	2733.374268	1232.979370	-1.513179
285.449524	1250.143311	2795.937256	1237.660400	-0.807540
285.821014	1243.456177	2835.540283	1235.877075	-0.476049
286.192535	1241.152710	2887.329346	1238.774902	-0.144444
286.563995	1241.227051	2941.942139	1241.078247	-0.008749
286.935425	1245.165039	2970.399658	1243.381714	-0.103367
287.306824	1245.833618	2966.907471	1247.468384	0.094985
287.678223	1248.731445	2914.747314	1245.759399	-0.178392
288.049561	1251.703613	2885.546143	1246.799683	-0.300147
288.420898	1254.452759	2839.850342	1251.034790	-0.215591
288.792145	1256.236084	2829.001953	1257.053345	0.051963
289.163452	1252.372314	2827.441406	1256.458862	0.259452
289.534668	1243.084595	2868.753906	1247.914185	0.297083
289.905914	1241.598511	2908.505859	1245.536499	0.236245
290.277039	1238.255005	2974.932373	1247.096802	0.509121
290.648193	1252.966919	3037.197998	1257.499146	0.254016
291.019318	1251.926636	3104.962158	1251.183594	-0.040099
291.390381	1248.805786	3116.776367	1250.663452	0.099448
291.761475	1245.982300	3096.789063	1241.449829	-0.244892
292.132507	1248.062866	3060.380127	1246.799683	-0.069700
292.503510	1254.824341	3037.049561	1241.747070	-0.733761
292.874481	1253.784058	3015.278564	1248.285767	-0.312138
293.245422	1248.582886	3014.758789	1252.818237	0.239803
293.616364	1245.610718	3045.668701	1258.465210	0.714115
293.987213	1245.610840	3103.550537	1253.338379	0.415920
294.358093	1249.994751	3171.091553	1249.103149	-0.046411
294.728943	1250.514771	3254.756592	1246.353882	-0.207604
295.099731	1245.982300	3352.984619	1247.839966	0.088166
295.470490	1245.536499	3427.213135	1252.297974	0.309921
295.841248	1249.920410	3458.642822	1256.384644	0.292668
296.211975	1258.688110	3468.005127	1257.202026	-0.067264
296.582642	1252.297974	3513.552734	1254.230103	0.085445
296.953308	1251.109253	3588.821533	1245.462280	-0.241560
297.323883	1245.536499	3659.706299	1243.827637	-0.070785
297.694519	1251.480713	3700.052490	1241.524048	-0.406632
298.065063	1255.047241	3702.653076	1240.632446	-0.588934
298.435608	1252.075195	3656.808594	1245.016479	-0.293534
298.806122	1251.109253	3557.614258	1246.205200	-0.212618
299.176575	1249.846069	3432.860107	1250.737793	0.040848
299.547028	1262.403198	3352.093018	1244.719116	-0.846254
299.917450	1259.728394	3306.991211	1245.685059	-0.685957
300.287872	1252.818115	3301.046875	1243.976196	-0.431686
300.658234	1239.443726	3280.688232	1249.028687	0.469565
301.028564	1240.706665	3264.489990	1248.211304	0.370822
301.398865	1242.564331	3251.263916	1246.873901	0.214545
301.769135	1240.260864	3234.174561	1237.957642	-0.115513
302.139374	1243.901733	3231.573975	1230.824585	-0.657913
302.509583	1240.260986	3226.149658	1235.431274	-0.243202
302.879791	1240.335327	3227.933350	1247.914185	0.381307
303.249939	1239.592285	3205.642578	1257.796509	0.925929
303.620087	1250.143188	3183.053955	1259.876953	0.503581
303.990173	1257.127686	3165.221680	1249.623169	-0.393299
304.360260	1253.412598	3158.014404	1247.617065	-0.304291
304.730286	1252.892456	3158.014404	1243.827637	-0.475813
305.100281	1248.137207	3161.506592	1241.598511	-0.341737
305.470276	1252.298096	3178.001709	1237.288940	-0.779411
305.840179	1251.257813	3183.722656	1239.295044	-0.619042
306.210144	1248.359985	3198.434814	1252.892456	0.232425
306.579987	1244.347656	3213.592529	1260.694336	0.830099
306.949890	1243.158813	3239.301514	1265.152466	1.101808
307.319702	1247.022583	3260.031982	1252.297974	0.262065
307.689484	1243.233032	3288.118408	1249.400269	0.301593
308.059265	1245.759399	3320.588623	1249.251587	0.168312
308.429016	1252.818237	3372.303467	1251.109253	-0.080632
308.798737	1257.796509	3427.064453	1250.291870	-0.345953
309.168396	1257.722168	3488.735596	1245.907837	-0.529550
309.538055	1251.852173	3540.078857	1252.223755	0.016239
309.907684	1251.852295	3559.471680	1252.446655	0.025756
310.277313	1249.474609	3586.443604	1252.223755	0.117637
310.646851	1257.796509	3601.898682	1247.394043	-0.443772
311.016388	1265.821167	3624.932617	1245.536499	-0.859844
311.385895	1256.161743	3611.112305	1245.165039	-0.466961
311.755371	1246.353882	3606.430908	1248.805786	0.103891
312.124817	1243.679077	3613.638428	1251.629395	0.335462
312.494232	1255.641724	3633.254150	1248.731567	-0.290634
312.863617	1246.205200	3619.359375	1243.084473	-0.131501
313.232971	1244.793457	3592.164795	1245.462280	0.028492
313.602295	1239.146484	3558.654297	1251.183472	0.518946
313.971619	1249.548828	3562.220947	1258.316528	0.379116
314.340820	1247.468384	3561.626221	1246.205200	-0.054585
314.710083	1249.474609	3606.059570	1248.582886	-0.037840
315.079285	1241.598389	3629.316406	1242.415894	0.034238
315.448486	1236.991577	3669.513916	1254.452881	0.717827
315.817596	1241.821411	3637.341064	1253.412598	0.483869
316.186707	1250.291870	3591.199219	1259.876953	0.409460
316.555786	1259.133911	3526.184326	1256.013184	-0.137656
316.924866	1256.458984	3476.252686	1252.520996	-0.177403
317.293884	1257.202026	3451.212891	1245.685059	-0.524928
317.662872	1249.028687	3433.157227	1247.319824	-0.078240
318.031830	1245.090698	3449.132080	1242.415894	-0.121359
318.400757	1247.542725	3456.116943	1241.598633	-0.269137
318.769684	1255.715942	3482.865967	1237.288940	-0.827380
319.138550	1255.641602	3493.788086	1233.945313	-0.969386
319.507416	1245.833740	3518.753906	1229.412720	-0.722464
319.876190	1241.598511	3527.075439	1232.905029	-0.380379
320.244995	1241.598511	3528.338867	1244.124878	0.110479
320.613770	1246.353882	3499.212158	1248.582886	0.098941
320.982483	1242.638672	3468.376709	1252.149414	0.427307
321.351166	1238.552002	3437.392578	1245.462036	0.314258
321.719818	1240.558228	3422.011719	1254.750000	0.650565
322.088440	1235.802856	3432.711670	1250.217529	0.656134
322.457062	1238.849243	3465.924561	1255.790283	0.760686
322.825623	1238.552002	3528.190186	1248.731567	0.444593
323.194183	1245.610718	3580.053711	1248.582886	0.127318
323.562653	1251.480835	3638.455811	1241.672729	-0.410901
323.931183	1253.338257	3698.269531	1241.226929	-0.495365
324.299591	1255.344482	3768.336670	1237.734741	-0.700748
324.668060	1245.982300	3831.271240	1239.963867	-0.232795
325.036407	1247.171143	3864.410156	1241.152710	-0.229953
325.404755	1249.177368	3874.664063	1246.353882	-0.107541
325.773102	1255.641724	3859.060547	1246.056641	-0.368173
326.141388	1257.796509	3856.014404	1243.233032	-0.560518
326.509674	1252.669556	3850.515869	1241.449829	-0.431886
326.877899	1248.805786	3856.979736	1248.434326	-0.014242
327.246124	1251.852173	3856.831299	1246.205200	-0.216776
327.614288	1251.926514	3846.949219	1245.387939	-0.251966
327.982422	1259.431152	3839.518799	1243.530396	-0.616287
328.350525	1258.539429	3811.135010	1249.920410	-0.337657
328.718628	1260.619995	3807.122803	1251.555176	-0.355971
329.086700	1261.734497	3805.785400	1249.623169	-0.476065
329.454712	1256.681885	3833.128662	1245.982300	-0.415285
329.822693	1260.917114	3853.933594	1244.199097	-0.644732
330.190674	1255.195923	3866.044678	1246.279541	-0.341513
330.558563	1261.065796	3880.162109	1247.319702	-0.524841
330.926483	1256.681885	3900.447021	1257.276245	0.022482
331.294312	1254.229858	3934.329102	1250.589111	-0.135844
331.662231	1247.393921	3986.117920	1250.812012	0.124806
332.029999	1247.468262	4037.832764	1240.484009	-0.250299
332.397766	1248.954468	4084.420654	1240.112427	-0.311837
332.765503	1246.576782	4132.791504	1244.644897	-0.066935
333.133240	1244.793457	4196.022949	1246.353882	0.052874
333.500916	1252.000854	4252.716309	1249.920532	-0.069328
333.868561	1252.818237	4288.753418	1247.617065	-0.171320
334.236176	1256.161865	4306.511719	1250.960571	-0.170515
334.603790	1247.988403	4319.886230	1258.316528	0.336213
334.971344	1251.257935	4311.563965	1264.186401	0.422457
335.338867	1250.737671	4304.579590	1260.694214	0.326033
335.706360	1249.325928	4300.344238	1254.081299	0.155862
336.073853	1248.062866	4282.511719	1242.341431	-0.188549
336.441284	1252.297974	4278.350586	1243.233276	-0.299555
336.808655	1254.006958	4264.679199	1240.929810	-0.434360
337.176086	1252.297974	4249.520996	1248.805786	-0.116514
337.543396	1246.428223	4185.323730	1245.090698	-0.045511
337.910706	1241.004028	4125.138184	1248.731567	0.267933
338.277954	1238.849243	4117.410645	1242.118652	0.113578
338.645264	1234.688354	4171.948730	1242.564453	0.268144
339.012421	1247.394165	4273.743652	1242.564453	-0.159589
339.379669	1247.542603	4389.729980	1248.880127	0.042567
339.746796	1254.527222	4488.775879	1252.818237	-0.052840
340.113953	1250.217651	4554.682129	1246.725342	-0.105685
340.481018	1251.777954	4592.799805	1243.158813	-0.257979
340.848114	1248.508667	4604.539551	1239.963867	-0.254610
341.215118	1251.034912	4610.632324	1236.545898	-0.431272
341.582153	1252.966797	4630.990723	1235.431274	-0.519106
341.949066	1255.790161	4656.848633	1236.322998	-0.572385
342.316010	1250.514771	4704.402832	1239.443726	-0.320539
342.682922	1252.818237	4718.966309	1245.165039	-0.220798
343.049835	1247.171143	4767.263184	1245.016479	-0.061210
343.416656	1254.378540	4815.707520	1258.762329	0.123094
343.783478	1253.635498	4911.483887	1252.520874	-0.030472
344.150269	1251.555054	5037.650391	1252.520874	0.025510
344.516998	1250.143188	5185.884277	1247.542725	-0.066073
344.883728	1252.669556	5303.208496	1251.480835	-0.029347
345.250427	1249.251709	5367.405762	1255.567383	0.153362
345.617065	1247.914185	5371.864258	1251.555054	0.088286
345.983704	1237.437500	5348.532715	1252.223755	0.359667
346.350281	1247.914185	5320.743652	1251.926514	0.098515
346.716827	1248.434326	5259.889648	1252.000854	0.088909
347.083405	1254.155640	5218.874512	1244.421875	-0.245510
347.449860	1259.208130	5146.949219	1251.629395	-0.194939
347.816376	1254.675781	5101.253418	1254.452881	-0.005795
348.182770	1249.920288	5048.424316	1261.808716	0.312977
348.549194	1248.582886	5031.259766	1251.257813	0.070715
348.915558	1248.954468	5041.216309	1247.765625	-0.031349
349.281921	1253.932739	5059.123535	1237.214600	-0.439351
349.648193	1252.075195	5089.661621	1241.152588	-0.284622
350.014526	1252.000854	5146.949707	1239.592163	-0.318584
350.380737	1256.904785	5216.125488	1243.307495	-0.343433
350.746948	1250.068970	5291.170898	1239.592285	-0.259253
351.113159	1248.954468	5324.235840	1242.564453	-0.156799
351.479309	1245.462280	5355.442871	1248.211426	0.066890
351.845428	1250.811890	5382.191895	1244.644897	-0.149272
352.211517	1253.858398	5425.584473	1245.685181	-0.195919
352.577576	1252.743774	5474.847656	1243.158936	-0.227016
352.943604	1253.561279	5525.521484	1248.285767	-0.123492
353.309601	1256.904907	5583.478027	1249.177368	-0.178606
353.675537	1257.647827	5666.250488	1249.028809	-0.195505
354.041473	1259.951172	5782.312500	1246.279663	-0.302309
354.407379	1251.555054	5898.298828	1238.477661	-0.281431
354.773254	1250.143188	6032.415527	1240.929810	-0.192657
355.139038	1239.295044	6118.308594	1245.759399	0.132493
355.504913	1241.003906	6242.320313	1258.093750	0.341707
355.870636	1242.935913	6321.080566	1255.344360	0.244350
356.236389	1244.570557	6449.030762	1250.143188	0.107074
356.602081	1250.143188	6572.744141	1242.267212	-0.147972
356.967804	1246.725342	6718.824219	1245.833740	-0.016294
357.333405	1250.737671	6861.931152	1247.096802	-0.064886
357.699036	1245.908081	7014.474609	1247.914185	0.034776
358.064606	1249.400269	7168.800781	1243.604614	-0.097909
358.430176	1248.211426	7279.660156	1240.706787	-0.124425
358.795654	1246.428101	7357.009766	1240.558105	-0.096063
359.161163	1241.672729	7392.154785	1237.883301	-0.061612
359.526581	1241.301270	7396.761719	1244.719238	0.055527
359.892029	1245.610840	7437.777344	1244.942139	-0.010799
360.257416	1249.103027	7552.425781	1243.976196	-0.081335
360.622772	1252.000854	7762.330566	1236.694458	-0.235109
360.988098	1250.440552	8004.111328	1235.802856	-0.216737
361.353394	1245.685181	8265.657227	1242.415771	-0.046573
361.718658	1247.171265	8493.840820	1245.982422	-0.016405
362.083893	1251.629272	8677.443359	1244.496216	-0.096058
362.449097	1254.750000	8766.977539	1244.273315	-0.139462
362.814209	1242.787231	8772.327148	1242.192871	-0.007894
363.179382	1234.614136	8602.991211	1246.205200	0.157308
363.544434	1242.341431	8298.722656	1244.273438	0.027380
363.909546	1250.440552	7880.546875	1241.747192	-0.131119
364.274536	1249.400269	7535.781738	1238.477783	-0.173748
364.639587	1245.313599	7254.991699	1236.917358	-0.139712
365.004517	1248.805786	7118.497559	1241.449829	-0.125321
365.369507	1257.647827	7013.805176	1245.462280	-0.211696
365.734344	1259.654175	6978.289063	1251.777954	-0.137729
366.099274	1259.728394	6929.620605	1254.229858	-0.096978
366.464081	1257.870728	6888.753906	1249.994629	-0.139873
366.828918	1258.762329	6859.775391	1246.428101	-0.220214
367.193665	1257.202026	6860.295410	1241.969849	-0.271853
367.558411	1255.121460	6872.704590	1242.341431	-0.227500
367.923126	1249.697510	6862.302246	1243.010132	-0.119149
368.287781	1247.765625	6834.810059	1250.588989	0.050534
368.652435	1241.152710	6794.834473	1255.641602	0.260888
369.017059	1247.914185	6768.458496	1257.127808	0.166897
369.381653	1248.137085	6750.104980	1260.099854	0.217427
369.746185	1256.087402	6746.019043	1256.979126	0.016243
370.110687	1254.675659	6748.767578	1253.858398	-0.014875
370.475220	1253.635376	6777.002441	1250.143188	-0.063226
370.839661	1248.582886	6830.128906	1251.109253	0.045263
371.204041	1238.106201	6914.685059	1257.796509	0.346869
371.568451	1241.598511	6980.517090	1254.452759	0.223984
371.932770	1250.440430	7026.361816	1249.920410	-0.009003
372.297150	1260.174194	7032.380859	1241.226929	-0.328250
372.661377	1254.304321	7068.714844	1243.307373	-0.189133
373.025696	1251.852295	7113.445313	1248.582886	-0.055777
373.389862	1245.685181	7134.398438	1246.576782	0.015141
373.754059	1249.177368	7130.312500	1247.617065	-0.026531
374.118225	1252.223755	7141.605469	1240.483887	-0.199340
374.482361	1247.988525	7184.404297	1246.056641	-0.032543
374.846436	1245.165039	7255.809082	1238.031982	-0.118674
375.210510	1235.728638	7333.901855	1243.976196	0.135246
375.574524	1240.186646	7457.838379	1242.935913	0.044217
375.938538	1242.713013	7593.812500	1242.564331	-0.002341
376.302460	1242.044189	7757.352051	1245.833618	0.058162
376.666412	1252.223755	7920.744629	1243.010132	-0.138166
377.030304	1257.573608	8070.018066	1243.976074	-0.199598
377.394196	1265.375366	8183.924316	1239.666626	-0.371592
377.757996	1252.966797	8303.922852	1247.616943	-0.075874
378.121796	1249.177246	8369.458008	1251.480835	0.032352
378.485565	1239.592285	8399.773438	1251.109253	0.160847
378.849304	1244.124878	8298.721680	1245.833862	0.024225
379.212982	1245.833862	8198.264648	1245.165039	-0.009620
379.576630	1247.765747	8023.579590	1243.753296	-0.059217
379.940277	1253.709839	7905.734375	1246.428101	-0.109467
380.303864	1244.347656	7774.144531	1242.415771	-0.029586
380.667450	1250.737671	7736.770996	1243.307373	-0.114558
381.030945	1242.638794	7700.660156	1230.601563	-0.186392
381.394501	1250.737671	7725.699707	1232.756470	-0.277704
381.757935	1252.892456	7738.257324	1240.706909	-0.187893
382.121399	1257.276367	7774.813965	1248.657349	-0.132243
382.484741	1264.558105	7815.457031	1250.514771	-0.214373
382.848145	1264.037964	7856.397949	1241.301270	-0.344895
383.211487	1257.647949	7897.338379	1250.068970	-0.114147
383.574768	1246.725464	7982.712402	1254.972900	0.122438
383.938019	1241.375610	8085.398926	1261.065796	0.287699
384.301270	1250.812012	8216.989258	1266.044067	0.218657
384.664459	1256.533325	8289.286133	1264.186523	0.108822
385.027649	1263.443359	8342.561523	1262.477539	-0.013643
385.390778	1256.681885	8398.511719	1264.929565	0.115484
385.753876	1256.979126	8442.348633	1263.294800	0.087896
386.116943	1247.691162	8499.711914	1269.090454	0.295080
386.479980	1249.697388	8494.065430	1267.753052	0.249237
386.842987	1245.685059	8534.708008	1276.595093	0.424063
387.205994	1251.480835	8568.738281	1277.932495	0.361497
387.568909	1252.892456	8640.663086	1281.870483	0.392243
387.931793	1257.647827	8659.313477	1289.226440	0.426642
388.294678	1260.397095	8707.313477	1296.805298	0.488903
388.657471	1265.375366	8742.532227	1295.765015	0.406433
389.020294	1260.471313	8753.231445	1296.731079	0.483931
389.383057	1257.499268	8756.799805	1304.607178	0.628164
389.745819	1250.143188	8751.821289	1306.761963	0.754748
390.108521	1249.325806	8802.272461	1308.322266	0.781105
390.471191	1249.325928	8866.097656	1306.464722	0.750171
390.833801	1249.103027	8975.992188	1320.730835	0.926994
391.196442	1256.830566	9128.981445	1332.619263	0.962744
391.558960	1254.155640	9270.303711	1345.696655	1.141958
391.921509	1256.013184	9439.268555	1351.417847	1.165852
392.284027	1252.669556	9571.082031	1348.965942	1.157629
392.646484	1254.081421	9686.622070	1355.653076	1.204520
393.008911	1247.171265	9718.944336	1353.498291	1.255074
393.371307	1247.765625	9738.411133	1371.999634	1.463187
393.733673	1249.400269	9694.201172	1369.399292	1.420981
394.096008	1255.047241	9649.322266	1376.680786	1.449006
394.458344	1241.524292	9610.833984	1375.566284	1.601590
394.820587	1237.511841	9595.528320	1384.705444	1.761107
395.182831	1240.409546	9619.156250	1383.813965	1.711526
395.545013	1246.948364	9575.168945	1387.528931	1.688002
395.907196	1246.651001	9507.032227	1385.597046	1.682078
396.269287	1245.982422	9394.910156	1398.154297	1.867385
396.631409	1254.304199	9262.725586	1396.593872	1.776751
396.993469	1250.663452	9133.661133	1405.361694	1.962429
397.355530	1247.914185	9022.801758	1411.454468	2.103442
397.717499	1246.799683	8993.229492	1420.593750	2.243538
398.079468	1247.096802	8998.727539	1421.708374	2.252578
398.441376	1240.558228	9001.998047	1415.541382	2.254519
398.803284	1236.843140	9012.325195	1409.968384	2.226553
399.165131	1241.821411	9023.470703	1407.813843	2.133126
399.526978	1243.010254	9025.328125	1410.117188	2.147264
399.888763	1249.548828	9005.563477	1418.513306	2.178496
400.250519	1254.229980	9009.651367	1431.219116	2.282134
400.612244	1264.632324	9052.821289	1439.540894	2.245818
400.973938	1255.790161	9059.434570	1439.317993	2.351822
401.335602	1253.040894	9070.950195	1439.095093	2.379846
401.697205	1247.393921	9093.019531	1444.890625	2.517284
402.058807	1249.251587	9178.168945	1453.881348	2.580803
402.420349	1251.926514	9271.567383	1460.419922	2.599785
402.781860	1254.527222	9386.811523	1463.912231	2.574738
403.143341	1254.527100	9514.315430	1479.887329	2.728402
403.504822	1248.880127	9662.920898	1476.766602	2.708407
403.866241	1245.462280	9802.832031	1490.512573	2.863617
404.227631	1239.666626	9941.035156	1490.215332	2.879417
404.588959	1241.672729	10093.579102	1509.905640	3.030228
404.950287	1243.901855	10219.374023	1510.648804	2.971954
405.311554	1247.319824	10309.280273	1510.202759	2.900950
405.672821	1243.307495	10353.565430	1518.079102	3.016068
406.034027	1245.387939	10343.086914	1514.809570	2.961426
406.395203	1249.177368	10301.998047	1522.016968	3.013863
406.756348	1253.635620	10244.785156	1510.351440	2.855206
407.117493	1257.870850	10200.872070	1512.060425	2.842330
407.478516	1259.579834	10179.621094	1498.165649	2.674716
407.839600	1259.505493	10161.937500	1496.382446	2.660812
408.200592	1253.189697	10170.259766	1501.732300	2.787267
408.561554	1252.743774	10139.720703	1511.094360	2.907069
408.922485	1252.966797	10138.829102	1520.902344	3.015301
409.283417	1245.239258	10117.579102	1520.233521	3.099456
409.644257	1239.963745	10197.082031	1519.341919	3.119063
410.005096	1234.688354	10313.737305	1522.016968	3.164744
410.365906	1240.112427	10458.405273	1522.908569	3.067771
410.726715	1243.456055	10559.903320	1521.348267	2.982813
411.087433	1247.022461	10623.952148	1522.685547	2.939801
411.448120	1245.536499	10687.332031	1529.521484	3.007743
411.808807	1244.942017	10695.430664	1545.868164	3.184239
412.169434	1253.041138	10645.424805	1541.855835	3.074988
412.530029	1256.607544	10589.549805	1537.472046	3.009389
412.890564	1262.031860	10573.648438	1537.917847	2.962815
413.251099	1253.561157	10603.889648	1542.078735	3.085641
413.611572	1253.486938	10631.456055	1549.063110	3.151814
413.972076	1248.285645	10669.945313	1549.508911	3.197136
414.332489	1244.570679	10710.663086	1552.109375	3.248845
414.692871	1246.651001	10818.030273	1558.053711	3.253478
415.053223	1249.474487	10958.760742	1560.208618	3.200381
415.413574	1258.168091	11153.804688	1567.192993	3.122840
415.773834	1255.195923	11317.270508	1576.332397	3.191553
416.134094	1250.663452	11452.128906	1583.242554	3.260111
416.494263	1249.177368	11586.246094	1590.449707	3.301442
416.854462	1247.245483	11848.906250	1587.849243	3.212739
417.214630	1250.366211	12120.780273	1599.886230	3.215333
417.574738	1248.657227	12428.245117	1607.613647	3.210820
417.934784	1250.514771	12700.860352	1627.601074	3.293231
418.294861	1251.703613	13058.925781	1640.529785	3.293121
418.654846	1256.607666	13451.690430	1660.442993	3.311460
419.014832	1248.583008	13847.500000	1675.229126	3.386371
419.374756	1242.415894	14306.468750	1696.108276	3.472830
419.734680	1238.106323	14784.383789	1715.278320	3.522532
420.094543	1250.663452	15287.116211	1730.659058	3.419636
420.454376	1250.886230	15724.312500	1740.466919	3.382618
420.814148	1250.514771	16157.497070	1753.544312	3.374456
421.173920	1245.610840	16589.419922	1769.742188	3.415914
421.533691	1248.359985	17056.857422	1776.280762	3.339475
421.893341	1247.542603	17389.289063	1776.280884	3.275595
422.253021	1249.623169	17652.767578	1778.807129	3.226113
422.612640	1249.326050	17733.312500	1788.317993	3.269791
422.972260	1249.994629	17754.634766	1785.197266	3.242740
423.331757	1238.106079	17713.693359	1779.773071	3.287694
423.691315	1231.344604	17676.691406	1779.847290	3.335306
424.050781	1229.858521	17748.466797	1792.999023	3.409128
424.410248	1242.044189	17767.117188	1792.404663	3.330457
424.769653	1258.167969	17877.755859	1786.831909	3.180969
425.128998	1255.047241	17886.298828	1779.401733	3.152826
425.488373	1257.202026	17846.099609	1773.234375	3.110709
425.847656	1251.703613	17637.904297	1763.797974	3.125156
426.206940	1258.093628	17466.562500	1752.726929	3.051697
426.566193	1249.994751	17163.779297	1735.637207	3.051709
426.925385	1243.233276	16873.703125	1729.247192	3.109401
427.284576	1236.620239	16378.549805	1719.439331	3.188623
427.643677	1240.781128	16017.512695	1713.197876	3.197031
428.002777	1239.443848	15675.348633	1703.315430	3.213319
428.361847	1247.839966	15337.196289	1698.263062	3.196903
428.720856	1246.651001	15033.520508	1698.485840	3.277284
429.079865	1249.846191	14812.024414	1688.157837	3.231868
429.438812	1244.942139	14700.125000	1681.619141	3.245419
429.797760	1242.118530	14597.512695	1676.343750	3.251310
430.156616	1248.211426	14412.202148	1669.879272	3.203192
430.515503	1255.493042	14285.590820	1661.557495	3.116358
430.874268	1254.601440	14228.971680	1658.139526	3.110271
431.233093	1245.982300	14232.834961	1658.585449	3.177083
431.591827	1239.592285	14284.176758	1665.347046	3.263843
431.950562	1241.301270	14301.788086	1677.309692	3.338378
432.309204	1245.462280	14346.592773	1687.637695	3.375093
432.667877	1249.103027	14433.155273	1691.872925	3.358375
433.026459	1246.353882	14524.546875	1694.250610	3.373175
433.385010	1243.158813	14655.765625	1703.464233	3.431886
433.743561	1238.329224	14807.268555	1723.154419	3.573051
434.102051	1241.524048	14964.344727	1729.395874	3.555186
434.460510	1238.032104	15144.528320	1742.993164	3.631116
434.818939	1234.093872	15214.820313	1737.420532	3.600147
435.177338	1238.700684	15275.971680	1742.473145	3.588820
435.535675	1250.068970	15224.776367	1732.962280	3.455481
435.894012	1253.412598	15179.971680	1734.671265	3.455690
436.252289	1249.771851	15190.819336	1740.095337	3.517121
436.610535	1244.942017	15161.692383	1744.925171	3.592672
436.968719	1252.669556	15259.476563	1745.073853	3.515464
437.326935	1250.514771	15346.781250	1743.067505	3.494207
437.685028	1250.068970	15497.319336	1732.962280	3.389379
438.043152	1248.211426	15600.598633	1736.008789	3.398720
438.401215	1249.920288	15773.204102	1730.287476	3.307566
438.759277	1254.973022	15988.608398	1749.903442	3.359187
439.117249	1248.731445	16362.796875	1755.401733	3.352310
439.475250	1247.765503	16671.302734	1771.897095	3.398258
439.833130	1246.874023	17026.320313	1774.646118	3.344681
440.191071	1248.359985	17250.417969	1784.677124	3.351551
440.548889	1252.297974	17511.740234	1785.642944	3.280217
440.906708	1249.028687	17779.673828	1791.438599	3.281239
441.264496	1246.651001	17987.500000	1794.336426	3.271551
441.622223	1245.462280	18110.173828	1796.342651	3.266468
441.979950	1248.657227	18157.802734	1790.769897	3.206033
442.337616	1246.428223	18224.451172	1785.940063	3.177707
442.695251	1253.412598	18169.095703	1777.989746	3.101129
443.052887	1246.576782	18076.216797	1769.890747	3.109478
443.410461	1244.273315	17909.333984	1763.277832	3.114327
443.768005	1233.499390	17798.548828	1767.884644	3.225981
444.125458	1235.654175	17650.462891	1776.949585	3.297604
444.482941	1242.118530	17632.406250	1787.351929	3.326564
444.840393	1245.164917	17682.486328	1782.150757	3.266869
445.197754	1250.663452	17920.552734	1783.265259	3.194993
445.555084	1249.697388	18137.070313	1781.110474	3.146807
445.912415	1245.016357	18469.351563	1796.565430	3.202150
446.269714	1242.713013	18712.693359	1797.828491	3.177539
446.626953	1249.920410	19023.501953	1813.952271	3.173428
446.984161	1252.669556	19312.539063	1824.800415	3.167968
447.341309	1252.223755	19557.443359	1835.203003	3.184771
447.698456	1245.610718	19707.683594	1827.029663	3.149261
448.055542	1252.446655	19799.744141	1822.794434	3.075099
448.412598	1249.474487	19768.164063	1820.862671	3.085468
448.769653	1254.304199	19672.908203	1824.800415	3.097391
449.126617	1257.796509	19370.421875	1816.998657	3.087361
449.483582	1258.316650	19132.207031	1807.487915	3.072478
449.840515	1254.378540	18808.841797	1793.370483	3.070398
450.197388	1249.846069	18603.318359	1784.528442	3.081126
450.554230	1245.239258	18421.576172	1783.636719	3.134530
450.911041	1237.808960	18236.859375	1777.320923	3.173777
451.267822	1231.196167	18040.031250	1769.890747	3.204830
451.624573	1235.505737	17851.822266	1761.123047	3.163260
451.981262	1248.285645	17753.816406	1760.751587	3.104813
452.337921	1254.304199	17645.259766	1758.002441	3.073025
452.694580	1256.533325	17497.771484	1749.234741	3.033644
453.051147	1251.926636	17466.044922	1748.268921	3.061173
453.407715	1247.319824	17354.960938	1745.222290	3.091095
453.764221	1243.307495	17408.310547	1752.801147	3.151831
454.120728	1248.805786	17188.894531	1748.640259	3.135707
454.477142	1253.041016	17163.556641	1747.525757	3.107912
454.833557	1259.653931	16988.126953	1737.123413	3.035702
455.189911	1259.133789	16859.212891	1728.207031	3.006865
455.546265	1254.229858	16671.228516	1723.748657	3.045462
455.902557	1244.942017	16532.283203	1728.504272	3.163155
456.258820	1238.700684	16511.775391	1729.172974	3.211353
456.615051	1239.146484	16564.009766	1733.110962	3.223288
456.971252	1245.090698	16565.939453	1742.844727	3.248867
457.327393	1246.725342	16754.296875	1752.578247	3.261974
457.683502	1248.731567	16978.617188	1773.011597	3.333019
458.039612	1249.103027	17394.712891	1777.989868	3.275732
458.395630	1247.542725	17769.718750	1804.070190	3.368367
458.751648	1247.542603	18155.201172	1814.992554	3.356171
459.107605	1247.394165	18712.250000	1835.128540	3.365240
459.463562	1241.301270	19246.857422	1842.112915	3.336812
459.819458	1245.165039	19820.845703	1856.601929	3.291599
460.175323	1243.901855	20267.923828	1872.725708	3.305420
460.531158	1253.932739	20748.587891	1884.391235	3.234007
460.886932	1252.372437	21057.244141	1876.366577	3.150710
461.242676	1257.350708	21277.775391	1862.992065	3.025118
461.598419	1251.777954	21232.152344	1844.936523	2.968706
461.954102	1253.709839	20936.427734	1834.534180	2.950936
462.309723	1247.542847	20401.892578	1814.175171	2.958244
462.665344	1244.867798	19808.140625	1796.937012	2.973986
463.020905	1238.923462	19317.222656	1789.358032	3.044725
463.376373	1244.496338	18916.580078	1779.104126	3.025154
463.731873	1258.019409	18544.771484	1784.008179	3.042727
464.087341	1260.694336	18246.148438	1779.698730	3.055582
464.442749	1262.403320	18033.048828	1784.305664	3.111999
464.798126	1250.589111	17893.431641	1765.729858	3.095269
465.153503	1249.548950	17944.998047	1763.872437	3.080621
465.508820	1244.793579	17964.392578	1772.565796	3.156608
465.864105	1253.041138	18090.333984	1780.515991	3.132777
466.219330	1253.041138	18295.410156	1789.432251	3.147398
466.574524	1257.945068	18493.722656	1786.386108	3.065954
466.929657	1254.081421	18663.728516	1791.067017	3.084414
467.284790	1254.601440	18808.992188	1791.215698	3.056866
467.639893	1257.127808	18943.257813	1797.828613	3.057202
467.994934	1261.734497	19149.150391	1798.868774	3.002861
468.349945	1261.957397	19241.878906	1783.339722	2.899803
468.704926	1255.195801	19272.193359	1777.692749	2.900022
469.059875	1251.777954	19121.210938	1771.599731	2.909000
469.414764	1244.793457	18904.320313	1783.042358	3.047924
469.769653	1250.663330	18745.015625	1777.321167	3.010445
470.124451	1249.548950	18574.937500	1781.036255	3.067679
470.479248	1256.533325	18413.773438	1768.999023	2.986877
470.834015	1245.685181	18289.093750	1769.593628	3.073965
471.188721	1247.319824	18365.107422	1771.079590	3.059740
471.543365	1252.446655	18446.841797	1773.828979	3.032281
471.898010	1256.458984	18550.044922	1783.859741	3.049690
472.252625	1256.830566	18672.347656	1788.540649	3.053082
472.607178	1254.898560	18913.832031	1806.150513	3.121660
472.961700	1253.932617	19107.687500	1803.475586	3.078025
473.316193	1255.047241	19347.611328	1808.453735	3.058751
473.670654	1248.211304	19475.634766	1797.234253	3.012071
474.025055	1254.155640	19718.902344	1806.299194	2.990258
474.379456	1245.536499	19921.005859	1809.196899	3.018186
474.733795	1246.948364	20101.931641	1818.781860	3.032798
475.088104	1241.598511	20266.660156	1824.800415	3.065440
475.442383	1244.867798	20286.277344	1827.921265	3.062029
475.796570	1240.706909	20351.515625	1832.230835	3.095232
476.150787	1246.279541	20452.494141	1832.750977	3.053550
476.504944	1245.388062	20654.373047	1837.654907	3.051509
476.859070	1249.697510	20895.931641	1849.691895	3.053992
477.213135	1249.028809	21118.914063	1858.756836	3.068604
477.567200	1250.589111	21490.279297	1867.673218	3.048881
477.921173	1256.458984	21875.687500	1866.855957	2.960329
478.275146	1249.697388	22353.380859	1875.177734	2.963844
478.629089	1252.892456	22651.037109	1886.471680	2.960907
478.983002	1250.366089	23037.853516	1904.007202	3.000076
479.336823	1253.932739	23373.185547	1913.963867	2.983967
479.690643	1258.316650	23836.537109	1935.660156	2.999986
480.044403	1259.282593	24353.906250	1955.721680	3.015590
480.398163	1257.350708	25010.296875	1982.842407	3.054323
480.751862	1245.685181	25858.685547	2008.253906	3.098236
481.105499	1240.484009	26884.359375	2052.166748	3.165211
481.459137	1240.261108	28241.943359	2115.398193	3.241047
481.812744	1239.740845	29871.328125	2189.180908	3.316058
482.166290	1240.335327	31862.568359	2281.910889	3.401371
482.519806	1245.982300	34209.863281	2381.922363	3.446014
482.873291	1252.075195	36934.171875	2491.816162	3.474406
483.226715	1258.019409	39970.406250	2593.685303	3.450229
483.580139	1263.889282	42924.535156	2681.065186	3.401714
483.933502	1265.375366	45865.808594	2750.463867	3.329762
484.286804	1265.078247	48557.050781	2800.321045	3.246307
484.640106	1250.589111	51016.468750	2825.286865	3.164212
484.993347	1247.765503	52700.988281	2828.778564	3.072719
485.346558	1237.065918	53596.707031	2804.407471	2.993415
485.699738	1241.821289	53609.343750	2769.856689	2.917907
486.052887	1245.313599	52953.843750	2730.773438	2.872756
486.405975	1245.833618	51785.730469	2703.876221	2.884934
486.759064	1248.062866	50169.269531	2680.544922	2.928141
487.112061	1236.843140	48534.238281	2658.031250	3.004791
487.464996	1248.583008	47176.281250	2643.096436	3.036323
487.817963	1242.564331	46427.386719	2630.910645	3.072594
488.170868	1247.914185	46038.113281	2608.917236	3.038618
488.523743	1244.942017	45920.496094	2581.053467	2.990699
488.876587	1247.096924	45867.886719	2542.267578	2.902617
489.229401	1254.081299	45797.968750	2527.109619	2.857919
489.582153	1250.589111	45386.183594	2508.088135	2.849172
489.934845	1254.452881	44720.730469	2499.915039	2.865353
490.287537	1245.833740	43803.906250	2486.837646	2.916025
490.640198	1247.245483	42968.296875	2480.744873	2.956540
490.992798	1243.604614	42105.050781	2476.286865	3.016737
491.345337	1244.793579	41617.328125	2468.113525	3.030080
491.697876	1246.799683	41264.761719	2451.543945	3.010509
492.050354	1244.867798	41357.117188	2431.779541	2.958976
492.402832	1241.078369	41426.964844	2406.219482	2.899379
492.755219	1242.044312	41455.421875	2383.928711	2.839563
493.107605	1240.632446	41075.437500	2345.513916	2.773659
493.459930	1252.520996	40328.769531	2298.554688	2.676904
493.812225	1250.143311	39148.765625	2251.892578	2.643234
494.164490	1261.214355	37654.093750	2204.784912	2.592734
494.516724	1259.802612	35876.105469	2167.187500	2.621264
494.868896	1264.186401	34045.507813	2133.305420	2.651263
495.221039	1255.121582	32429.275391	2118.742188	2.770310
495.573120	1253.486938	31109.585938	2105.664795	2.854284
495.925201	1251.777954	30311.796875	2102.321045	2.926850
496.277222	1252.669556	29735.726563	2094.890869	2.956920
496.629211	1249.103027	29485.474609	2091.250244	2.982491
496.981140	1249.548828	29292.212891	2072.302979	2.933937
497.333069	1255.195801	29326.837891	2068.587646	2.897557
497.684967	1256.236084	29395.046875	2061.083252	2.860274
498.036804	1248.211426	29465.708984	2060.711670	2.879420
498.388580	1248.137085	29412.212891	2048.080322	2.840296
498.740326	1255.641724	29327.283203	2037.083496	2.783741
499.092072	1256.979126	29143.904297	2024.452026	2.752089
499.443756	1252.297974	28934.593750	2013.455078	2.749617
499.795410	1244.421997	28655.513672	2015.981445	2.814771
500.147003	1251.257813	28331.181641	2015.238403	2.821207
500.498566	1252.149414	27953.353516	2017.318848	2.865674
500.850098	1250.960571	27559.623047	2002.086914	2.855053
501.201599	1247.542603	27232.169922	1999.040405	2.892086
501.553009	1245.685181	26913.408203	1987.375000	2.889582
501.904449	1248.285767	26687.306641	1983.882813	2.891609
502.255859	1254.006958	26453.921875	1980.018921	2.881010
502.607178	1257.647827	26378.728516	1969.319336	2.832965
502.958405	1256.458984	26271.734375	1973.851685	2.867819
503.309692	1249.920410	26215.929688	1951.263672	2.809192
503.660919	1246.205200	26185.244141	1960.105591	2.862582
504.012115	1250.737671	26198.693359	1962.929321	2.854710
504.363251	1258.093750	26270.841797	1983.436890	2.899894
504.714294	1259.876953	26275.744141	1991.090210	2.922998
505.065369	1257.350708	26340.984375	1988.786743	2.915989
505.416443	1250.886353	26320.031250	1981.505005	2.914414
505.767395	1257.647827	26375.164063	1972.960083	2.847862
506.118317	1260.619995	26284.140625	1966.347290	2.820256
506.469238	1260.843018	26316.687500	1971.251343	2.835300
506.820160	1257.202148	26304.578125	1974.000366	2.861770
507.170929	1253.263916	26386.904297	1972.960327	2.863479
507.521729	1254.229858	26438.171875	1972.291382	2.851267
507.872498	1246.353882	26546.134766	1965.678589	2.843205
508.223236	1246.948242	26704.771484	1975.709351	2.862621
508.573883	1241.821411	26892.085938	1976.600952	2.864608
508.924500	1245.759399	27023.599609	1988.563843	2.881562
509.275116	1241.078247	27153.927734	1988.935181	2.886047
509.625702	1242.118530	27268.654297	1997.331543	2.901704
509.976196	1240.632568	27474.843750	2004.835938	2.913003
510.326660	1240.483887	27717.666016	2011.597534	2.912371
510.677124	1236.917480	28019.333984	2013.232300	2.898599
511.027557	1234.093872	28256.435547	2018.507446	2.902833
511.377869	1237.214600	28492.568359	2026.383789	2.895465
511.728180	1244.644897	28605.359375	2036.488892	2.894091
512.078430	1254.081299	28704.255859	2037.900757	2.855426
512.428650	1253.635376	28765.779297	2038.049316	2.851155
512.778931	1252.149414	28867.126953	2026.681030	2.804752
513.129028	1244.867798	28949.306641	2031.956543	2.841020
513.479126	1244.496216	29050.210938	2029.876099	2.824527
513.829285	1244.496216	29047.240234	2029.727417	2.824294
514.179382	1244.050415	29016.697266	2018.284790	2.787759
514.529297	1245.982422	28926.421875	2012.563477	2.769396
514.879272	1247.616943	28935.634766	2018.210571	2.783130
515.229187	1252.669556	28911.115234	2018.804810	2.769987
515.579163	1254.155640	28921.664063	2021.108276	2.772034
515.928955	1248.508667	28926.570313	2026.458008	2.810707
516.278748	1245.387817	29061.875000	2040.352661	2.857891
516.628540	1244.644897	29253.281250	2059.745605	2.910176
516.978333	1250.366211	29613.130859	2079.955811	2.924925
517.327942	1253.486938	30027.958984	2093.925049	2.920777
517.677612	1248.508667	30532.845703	2105.962158	2.928028
518.027222	1247.765625	31013.806641	2109.156982	2.893873
518.376831	1245.239258	31600.648438	2125.800781	2.900839
518.726379	1249.697388	32175.380859	2132.859619	2.855757
519.075867	1248.880249	32661.396484	2140.289795	2.837753
519.425293	1254.155640	33060.773438	2141.553223	2.789978
519.774658	1252.743774	33310.503906	2137.392090	2.759545
520.124084	1256.607544	33521.746094	2134.791504	2.721773
520.473389	1251.629272	33452.199219	2110.568848	2.667467
520.822693	1251.555054	33271.792969	2099.274902	2.647450
521.171997	1248.062866	32959.054688	2095.708252	2.673033
521.521240	1247.914185	32598.759766	2085.157227	2.670560
521.870361	1245.759399	32217.953125	2086.346436	2.714005
522.219482	1244.496216	31853.947266	2075.795166	2.715824
522.568604	1240.409546	31576.501953	2091.250000	2.804713
522.917664	1239.443726	31431.015625	2082.705078	2.793036
523.266724	1242.935913	31401.517578	2081.813477	2.781555
523.615662	1248.062866	31563.720703	2090.432861	2.778663
523.964600	1253.264038	31869.849609	2102.692871	2.774407
524.313538	1249.177368	32311.429688	2120.005371	2.803493
524.662354	1243.158813	32857.925781	2144.970947	2.852503
525.011169	1243.233032	33552.953125	2191.930176	2.936259
525.359985	1244.050415	34472.152344	2236.734619	2.987484
525.708740	1249.846069	35561.503906	2263.037842	2.952908
526.057434	1247.245361	36756.589844	2295.062500	2.950821
526.406067	1254.378418	38085.269531	2329.761963	2.919787
526.754700	1255.567383	39595.105469	2390.169922	2.959354
527.103333	1259.802612	41355.035156	2456.076660	2.983582
527.451782	1255.641846	43322.644531	2541.450439	3.056573
527.800293	1250.440552	45330.828125	2617.164795	3.100527
528.148743	1252.892456	47232.828125	2672.446045	3.087332
528.497131	1251.183472	48956.281250	2714.575684	3.067580
528.845642	1253.932617	50523.105469	2733.894531	3.003829
529.193909	1253.486816	51942.800781	2732.928467	2.918646
529.542175	1255.493042	52999.906250	2714.501465	2.819644
529.890503	1259.059448	53662.167969	2675.715576	2.703382
530.238770	1249.846069	53851.714844	2645.623047	2.653474
530.586914	1248.880005	53627.324219	2598.737793	2.577125
530.934998	1243.753174	52895.589844	2559.282959	2.546918
531.283142	1245.982300	51816.562500	2523.171875	2.525558
531.631226	1242.787231	50270.917969	2499.915039	2.564095
531.979248	1243.901855	48485.050781	2487.209229	2.631831
532.327148	1243.381714	46590.550781	2465.512939	2.695055
532.675110	1244.867798	44991.859375	2448.200195	2.750663
533.023071	1245.610840	43867.656250	2438.169434	2.797985
533.370850	1247.096924	43247.234375	2433.711426	2.825264
533.718689	1244.273438	43077.300781	2427.395752	2.828202
534.066467	1242.787354	43138.746094	2398.640381	2.758865
534.414246	1245.833740	43229.843750	2381.253662	2.704410
534.761963	1254.304321	43293.371094	2357.105225	2.623276
535.109619	1258.762329	43233.855469	2354.058594	2.609396
535.457153	1260.694336	42942.292969	2339.123779	2.587304
535.804749	1255.715942	42382.496094	2328.498779	2.608478
536.152344	1246.948242	41665.917969	2321.662842	2.658936
536.499817	1241.449829	40752.738281	2311.260498	2.707608
536.847229	1243.679077	39753.593750	2303.087158	2.751001
537.194641	1255.418823	38774.281250	2271.805664	2.709002
537.542114	1261.585938	38041.730469	2247.657227	2.680988
537.889404	1254.750000	37556.386719	2227.372803	2.679281
538.236694	1254.973022	37186.800781	2235.620361	2.729188
538.583984	1252.595215	36930.011719	2245.576904	2.783222
538.931213	1253.041138	36756.070313	2251.149658	2.811334
539.278381	1244.942261	36667.207031	2263.186523	2.874588
539.625488	1238.700806	36663.488281	2282.728271	2.947166
539.972595	1244.124878	36829.777344	2323.297607	3.032606
540.319641	1249.697510	37172.609375	2373.154541	3.127411
540.666687	1257.424927	37760.714844	2430.070557	3.212438
541.013611	1253.486938	38645.738281	2468.559570	3.249531
541.360596	1247.245483	39663.832031	2484.385742	3.220329
541.707458	1241.524170	40841.605469	2499.840820	3.177561
542.054260	1242.044312	41896.183594	2512.546631	3.125149
542.401062	1242.341553	42956.035156	2534.465820	3.097602
542.747864	1244.421997	43638.062500	2522.503174	3.014795
543.094666	1248.583130	43995.312500	2503.258789	2.935138
543.441284	1251.035034	43826.421875	2458.900146	2.837003
543.787903	1251.555054	43308.527344	2423.086182	2.785581
544.134460	1243.530396	42398.542969	2394.479248	2.796619
544.481079	1240.038086	41254.953125	2370.182373	2.824308
544.827637	1238.923462	39883.398438	2345.662354	2.863899
545.174072	1243.158813	38380.480469	2326.864014	2.918103
545.520508	1246.428101	36960.406250	2311.483154	2.982180
545.866943	1249.028687	35696.964844	2291.495850	3.026211
546.213318	1245.536499	34708.957031	2264.449707	3.044857
546.559631	1244.793579	33876.617188	2239.335205	3.047766
546.905823	1243.604614	33199.644531	2228.561523	3.082225
547.252136	1246.873901	32585.603516	2208.871338	3.069676
547.598389	1251.703613	32065.187500	2169.045166	2.977078
547.944458	1249.623169	31653.554688	2132.116943	2.902565
548.290588	1253.561157	31188.716797	2098.977539	2.824159
548.636658	1250.291870	30675.431641	2084.488525	2.834979
548.982727	1253.561157	30080.044922	2054.470215	2.778379
549.328735	1252.149414	29527.380859	2037.974976	2.779201
549.674622	1248.657227	28936.083984	2018.804810	2.781579
550.020569	1240.706909	28326.578125	2003.721313	2.817020
550.366455	1246.799683	27579.384766	1980.390259	2.785866
550.712280	1252.743896	26916.458984	1962.854980	2.766985
551.058044	1256.756348	26340.906250	1951.560913	2.769895
551.403748	1249.623169	25926.595703	1942.347534	2.807169
551.749512	1243.233154	25592.904297	1927.412598	2.809810
552.095154	1243.381714	25331.580078	1928.155640	2.842777
552.440735	1243.381714	25246.654297	1913.963745	2.793711
552.786316	1242.861450	25150.876953	1913.815063	2.806396
553.131897	1240.261108	25178.218750	1894.793579	2.734287
553.477417	1237.363159	25132.078125	1889.963867	2.731151
553.822815	1243.233032	25176.585938	1889.889648	2.701905
554.168213	1249.548828	25120.931641	1880.899048	2.644799
554.513672	1251.183472	25067.583984	1885.431519	2.663073
554.859009	1250.291870	24951.375000	1869.456421	2.612389
555.204285	1246.428223	24761.009766	1868.490356	2.645431
555.549500	1250.068970	24572.281250	1852.961060	2.585055
555.894714	1249.920288	24344.990234	1849.840454	2.597611
556.239990	1255.195923	24108.484375	1840.329712	2.560392
556.585022	1256.087524	23870.046875	1836.540405	2.566790
556.930115	1250.440552	23559.609375	1832.750977	2.610184
557.275146	1243.976196	23298.435547	1833.791138	2.674357
557.620178	1232.310669	23029.681641	1826.138062	2.724307
557.965149	1232.533569	22889.322266	1818.633301	2.706310
558.310059	1244.124634	22744.583984	1808.602539	2.625422
558.654968	1257.202026	22648.361328	1807.785156	2.573882
558.999756	1260.991455	22518.107422	1796.119751	2.517408
559.344604	1246.948364	22430.578125	1799.240601	2.607165
559.689331	1239.815308	22321.802734	1795.896851	2.637709
560.033997	1238.180542	22225.802734	1796.937134	2.662315
560.378723	1248.805786	22166.134766	1794.931030	2.610875
560.723389	1253.635376	22123.859375	1800.652222	2.621040
561.067932	1256.979126	22165.318359	1809.939941	2.644690
561.412476	1253.412598	22154.619141	1805.184570	2.639905
561.757019	1251.183594	22163.833984	1812.614868	2.684649
562.101501	1250.588989	22143.101563	1810.980347	2.682259
562.445862	1253.041138	22149.568359	1811.277710	2.671432
562.790222	1254.452759	22159.896484	1799.240601	2.605962
563.134644	1252.892456	22176.837891	1793.816406	2.585191
563.478943	1249.028687	22243.412109	1792.701782	2.589612
563.823181	1246.651001	22248.611328	1793.073242	2.601768
564.167358	1254.973022	22247.201172	1790.398438	2.550589
564.511536	1249.400269	22253.515625	1796.565430	2.605038
564.855774	1243.901855	22285.392578	1811.574707	2.697874
565.199768	1231.047485	22371.361328	1818.559204	2.779106
565.543823	1241.524292	22457.255859	1825.171997	2.751014
565.887817	1250.068970	22623.171875	1818.856323	2.661230
566.231812	1263.889282	22795.257813	1824.726196	2.604743
566.575745	1255.715942	22921.572266	1821.531250	2.611553
566.919617	1250.514771	23052.046875	1819.004883	2.607570
567.263428	1242.861694	23156.664063	1812.763550	2.600652
567.607239	1250.143311	23278.150391	1809.939941	2.541295
567.950989	1252.520874	23348.439453	1808.602539	2.516671
568.294678	1253.041138	23420.587891	1814.546753	2.533007
568.638367	1249.251587	23420.884766	1806.819336	2.514780
568.981995	1245.685059	23372.736328	1798.943237	2.500370
569.325623	1244.570557	23222.718750	1794.633667	2.502773
569.669128	1244.421875	23053.384766	1798.943237	2.542631
570.012573	1251.257813	22916.521484	1801.023560	2.537545
570.356140	1253.561157	22840.656250	1799.463379	2.528836
570.699524	1250.217529	22792.359375	1805.407593	2.577228
571.042908	1243.604492	22778.912109	1813.135132	2.644637
571.386230	1241.152588	22808.187500	1815.289917	2.662106
571.729492	1251.629272	22895.119141	1818.187500	2.617684
572.072815	1257.053345	23034.585938	1812.466309	2.550394
572.416016	1259.653931	23116.248047	1812.540527	2.529610
572.759094	1248.731445	23240.775391	1811.203125	2.557615
573.102234	1250.291870	23286.322266	1812.986328	2.553520
573.445374	1255.641724	23394.509766	1818.856323	2.544008
573.788391	1256.013306	23440.056641	1815.215454	2.520741
574.131409	1254.750122	23522.162109	1809.196899	2.489947
574.474365	1251.926636	23513.615234	1803.624146	2.478237
574.817261	1252.966919	23467.326172	1803.327026	2.477497
575.160156	1256.533325	23306.906250	1796.416870	2.448410
575.502930	1246.948242	23087.265625	1789.655273	2.484886
575.845703	1250.143433	22844.742188	1786.460327	2.483570
576.188477	1248.137085	22602.664063	1800.057617	2.584560
576.531250	1258.167969	22378.119141	1799.686157	2.564013
576.873901	1256.607544	22176.615234	1788.615112	2.543056
577.216431	1248.582886	21942.337891	1771.228394	2.525619
577.559082	1245.685059	21691.417969	1766.101440	2.545355
577.901611	1244.347656	21391.085938	1751.761108	2.518589
578.244080	1256.458984	21067.197266	1749.606079	2.489292
578.586487	1250.886230	20776.750000	1739.575317	2.502778
578.928955	1303.269653	20502.126953	1791.884399	2.545020
579.271301	1303.269653	20200.753906	1786.014648	2.554546
579.613647	1300.594849	19866.466797	1775.983765	2.560553
579.955872	1248.582886	19501.341797	1721.445435	2.590636
580.298157	1242.118530	19241.357422	1711.117310	2.605659
580.640320	1253.858521	18965.173828	1710.002808	2.575440
580.982483	1255.567383	18751.927734	1709.779907	2.596040
581.324524	1251.035034	18575.607422	1714.981079	2.677965
581.666626	1251.480713	18457.761719	1714.832520	2.692922
582.008728	1260.025513	18354.035156	1705.990356	2.608896
582.350647	1257.573608	18216.425781	1696.033813	2.585436
582.692566	1257.053345	18091.894531	1692.838867	2.588593
583.034424	1243.456055	17984.082031	1687.266113	2.651096
583.376343	1244.050537	17902.052734	1684.962891	2.646850
583.718201	1237.660522	17858.212891	1677.161011	2.644319
584.059937	1241.524292	17791.564453	1670.102173	2.589588
584.401611	1243.530273	17717.111328	1675.600708	2.622808
584.743347	1247.914185	17643.998047	1671.959961	2.586262
585.085022	1254.304321	17558.326172	1680.950562	2.616816
585.426514	1253.635620	17496.654297	1671.588379	2.573123
585.768127	1243.753296	17433.869141	1679.092896	2.688922
586.109619	1240.929810	17399.466797	1676.195313	2.693718
586.451172	1247.691284	17350.353516	1674.114624	2.648154
586.792542	1250.217651	17313.203125	1670.399536	2.615839
587.133850	1244.198975	17274.935547	1676.046387	2.693871
587.475220	1243.530151	17224.857422	1682.287720	2.745439
587.816589	1253.486816	17202.640625	1687.489136	2.721162
588.157776	1259.133911	17218.244141	1684.591187	2.665921
588.498962	1255.938843	17278.429688	1680.281738	2.648420
588.840210	1249.697632	17313.947266	1670.919800	2.622109
589.181335	1254.229858	17339.060547	1674.486328	2.612750
589.522400	1257.944946	17363.728516	1676.269409	2.597356
589.863403	1256.236206	17402.216797	1674.263184	2.589047
590.204407	1254.229980	17370.119141	1667.501587	2.564374
590.545410	1250.812012	17412.101563	1666.535767	2.572343
590.886353	1246.873901	17415.443359	1673.594604	2.639199
591.227112	1236.768799	17439.294922	1668.913452	2.667144
591.567932	1239.146484	17353.919922	1677.829712	2.722243
591.908752	1247.022461	17288.609375	1667.576050	2.621646
592.249512	1256.979126	17287.419922	1679.761597	2.637373
592.590149	1258.539551	17259.853516	1671.885376	2.583199
592.930786	1258.687988	17212.892578	1683.625366	2.663482
593.271423	1258.390869	17140.521484	1685.037109	2.686329
593.612000	1251.034912	17051.136719	1681.842163	2.726611
593.952576	1243.976074	17035.087891	1681.767944	2.772394
594.292969	1237.511841	16995.630859	1677.532593	2.792343
594.633484	1241.449829	17059.085938	1686.300171	2.812369
594.973877	1247.542603	17109.537109	1681.024780	2.732835
595.314209	1250.440552	17224.187500	1688.380737	2.741625
595.654480	1252.372437	17356.744141	1698.634399	2.771061
595.994812	1255.567383	17517.685547	1709.185547	2.789416
596.335022	1260.397095	17687.095703	1702.869751	2.693619
596.675171	1261.808716	17830.275391	1703.984253	2.668778
597.015320	1259.431152	17930.509766	1711.563110	2.712074
597.355408	1256.087524	17987.423828	1712.306274	2.726732
597.695496	1252.669556	18054.074219	1710.151489	2.722879
598.035461	1250.886353	18076.216797	1697.296997	2.653206
598.375366	1253.189819	18092.564453	1692.913086	2.611280
598.715271	1256.607666	18106.904297	1684.962769	2.542122
599.055176	1258.019409	17998.943359	1678.424194	2.511240
599.395081	1253.412598	17894.845703	1679.464478	2.560187
599.734802	1255.047241	17651.353516	1666.015625	2.506469
600.074524	1253.338379	17419.455078	1664.678101	2.544456
600.414246	1254.452759	17069.044922	1652.641113	2.517854
600.753906	1249.326050	16732.304688	1651.675171	2.598655
601.093506	1249.474609	16408.419922	1645.879517	2.614990
601.433044	1250.440552	16114.625977	1644.913696	2.653850
601.772583	1247.839844	15919.062500	1640.009766	2.673055
602.112122	1251.332153	15816.375000	1644.319214	2.698153
602.451538	1251.777954	15806.417969	1655.538940	2.774105
602.790894	1256.681885	15866.676758	1663.117676	2.781902
603.130310	1255.418823	15994.476563	1664.678101	2.776699
603.469604	1256.384644	16177.039063	1667.873169	2.757845
603.808838	1247.914185	16380.182617	1676.194946	2.830248
604.148010	1244.124878	16591.869141	1688.009277	2.892180
604.487305	1243.530273	16835.064453	1693.284668	2.884606
604.826416	1245.685181	17013.541016	1697.965820	2.868371
605.165527	1246.576782	17193.947266	1702.943970	2.861708
605.504456	1246.130981	17353.623047	1692.615845	2.771908
605.843445	1249.697632	17438.998047	1683.402344	2.678959
606.182434	1246.502563	17485.734375	1670.919556	2.613529
606.521423	1249.994751	17449.771484	1672.331421	2.607053
606.860229	1248.582886	17424.285156	1670.027954	2.605421
607.199036	1256.384644	17283.705078	1668.170288	2.569273
607.537903	1246.130859	17099.955078	1663.563477	2.633009
607.876648	1252.297974	16838.185547	1672.628540	2.696866
608.215271	1248.434326	16589.791016	1672.182617	2.762130
608.553955	1252.000854	16349.124023	1677.458130	2.818135
608.892578	1248.583008	16094.786133	1671.439819	2.848249
609.231140	1248.211426	15898.702148	1683.476929	2.970996
609.569641	1251.629272	15731.668945	1693.284790	3.050099
609.908081	1252.446655	15675.497070	1712.306152	3.188365
610.246521	1252.966675	15643.843750	1730.881836	3.320959
610.584961	1244.942017	15620.586914	1745.370728	3.481087
610.923340	1242.267090	15610.706055	1758.522461	3.592982
611.261597	1235.654175	15577.937500	1753.767090	3.612486
611.599854	1242.341553	15530.012695	1748.788696	3.544645
611.938110	1248.137085	15474.582031	1735.562866	3.426195
612.276245	1255.121582	15357.183594	1723.674438	3.322584
612.614319	1254.229858	15157.308594	1712.380493	3.295318
612.952393	1247.765503	14886.995117	1698.040039	3.301319
613.290466	1246.279419	14622.700195	1681.619141	3.254531
613.628479	1246.428101	14380.698242	1670.993774	3.232503
613.966370	1247.542725	14128.811523	1653.904297	3.154670
614.304260	1243.753296	13898.769531	1642.758789	3.152943
614.642151	1245.016479	13689.606445	1627.675415	3.074902
614.979980	1243.084595	13524.877930	1610.734375	2.993454
615.317749	1240.855347	13373.226563	1594.610718	2.915797
615.655396	1237.511719	13248.027344	1580.195923	2.853201
615.993164	1244.421875	13170.752930	1574.028809	2.763691
616.330811	1248.211426	13104.846680	1572.394165	2.734189
616.668396	1248.434204	13054.839844	1568.976196	2.714984
617.005859	1243.976074	13009.440430	1569.422241	2.766114
617.343445	1244.867676	12989.082031	1562.660645	2.705953
617.680908	1241.524048	12968.276367	1563.477905	2.745465
618.018311	1242.861694	12975.707031	1561.768921	2.718072
618.355652	1247.617065	12986.778320	1563.031860	2.686860
618.692993	1258.985352	13008.102539	1557.236328	2.538497
619.030273	1257.722168	12996.661133	1559.391113	2.569814
619.367554	1258.019409	12979.050781	1559.836914	2.575008
619.704712	1259.654053	13008.176758	1561.322876	2.567717
620.041870	1260.248535	12985.515625	1556.641968	2.527818
620.379028	1256.979126	12949.180664	1549.434692	2.501287
620.716064	1250.068970	12858.457031	1542.672974	2.520626
621.053040	1244.644897	12827.250000	1537.397583	2.527520
621.389954	1243.901978	12780.364258	1538.140625	2.550510
621.726929	1240.781250	12737.789063	1538.660767	2.590931
622.063843	1248.359985	12687.487305	1535.688599	2.511806
622.400635	1243.530273	12640.081055	1539.478149	2.596820
622.737427	1245.239258	12601.815430	1544.084961	2.631477
623.074219	1244.496216	12544.231445	1553.744141	2.736771
623.410889	1253.858398	12499.351563	1552.109497	2.652183
623.747559	1252.818237	12459.823242	1541.410034	2.575102
624.084167	1250.217529	12447.042969	1547.948608	2.659067
624.420715	1250.663452	12447.265625	1545.793823	2.635892
624.757324	1256.756348	12460.492188	1557.013672	2.679975
625.093750	1260.694336	12471.414063	1549.583130	2.576898
625.430176	1255.567505	12504.182617	1550.995117	2.626347
625.766602	1248.062866	12538.881836	1556.493530	2.731694
626.102905	1245.685181	12616.379883	1556.270508	2.731454
626.439209	1245.685181	12672.328125	1569.199219	2.831226
626.775452	1250.440552	12753.690430	1563.923706	2.725170
627.111694	1249.623169	12791.510742	1562.660522	2.712185
627.447876	1255.493042	12829.628906	1555.081665	2.588432
627.783997	1247.691284	12867.151367	1556.344849	2.656350
628.120056	1249.623169	12915.374023	1557.162109	2.636255
628.456055	1240.706909	12953.862305	1554.264282	2.676968
628.792053	1251.406372	12974.666992	1557.310669	2.609379
629.128052	1250.737671	12939.893555	1556.939087	2.619534
629.463928	1261.214355	12881.342773	1558.648071	2.559642
629.799744	1252.520874	12799.906250	1548.914551	2.566760
630.135559	1254.898560	12701.010742	1538.883789	2.481063
630.471375	1246.056641	12589.629883	1528.035522	2.485803
630.807068	1258.093628	12414.945313	1529.447266	2.432170
631.142700	1247.393921	12281.942383	1530.264526	2.563499
631.478333	1249.325806	12125.906250	1537.471802	2.649233
631.813965	1241.301270	12022.922852	1529.521484	2.673255
632.149475	1247.468384	11892.893555	1517.261597	2.534358
632.484924	1247.022583	11825.426758	1507.676392	2.464018
632.820435	1251.183594	11726.901367	1503.218384	2.405895
633.155884	1253.858398	11642.270508	1510.425781	2.469746
633.491150	1255.493042	11554.890625	1512.580566	2.496141
633.826477	1249.697388	11503.621094	1508.493774	2.523877
634.161804	1248.062744	11473.083008	1501.435181	2.477965
634.497009	1240.038086	11438.085938	1499.726074	2.546448
634.832153	1242.415894	11379.089844	1511.540405	2.654959
635.167297	1246.799683	11311.473633	1511.688843	2.631870
635.502380	1260.397095	11239.104492	1510.797241	2.509345
635.837463	1264.483765	11141.768555	1500.617676	2.390676
636.172424	1261.734497	11082.399414	1503.218262	2.458935
636.507324	1259.505493	10998.882813	1493.633301	2.403930
636.842224	1266.341309	10970.202148	1485.757202	2.261119
637.177124	1267.233032	10884.085938	1490.661255	2.323299
637.511963	1262.551880	10785.336914	1480.407349	2.287729
637.846741	1247.245605	10673.139648	1487.689087	2.550882
638.181396	1247.988525	10544.893555	1478.178345	2.475983
638.516113	1247.171265	10464.348633	1494.302124	2.681199
638.850769	1249.623169	10379.124023	1478.401367	2.505922
639.185303	1242.192871	10310.691406	1468.370483	2.494102
639.519836	1242.044312	10218.778320	1455.070313	2.373090
639.854370	1243.233032	10134.890625	1464.283813	2.486047
640.188843	1249.697388	10037.777344	1467.107300	2.473918
640.523254	1250.812012	9964.812500	1467.181641	2.483011
640.857605	1251.926636	9863.166992	1464.283691	2.466045
641.191895	1252.000977	9792.356445	1465.769653	2.503042
641.526184	1248.880249	9723.180664	1463.020508	2.526937
641.860413	1248.359985	9665.446289	1460.271484	2.517635
642.194580	1246.799683	9607.713867	1448.902954	2.417239
642.528748	1243.753296	9537.868164	1445.187988	2.428646
642.862793	1245.610962	9454.278320	1444.296265	2.420433
643.196838	1240.706909	9392.309570	1452.023804	2.592336
643.530823	1243.381836	9333.833008	1458.636719	2.660604
643.864746	1239.072266	9319.641602	1454.252930	2.662939
644.198669	1240.929688	9282.861328	1452.023804	2.624918
644.532532	1245.610840	9260.570313	1450.611938	2.557731
644.866333	1246.651123	9192.805664	1456.036133	2.635048
645.200073	1245.462280	9140.572266	1451.726563	2.612557
645.533813	1244.570557	9088.114258	1446.748413	2.577634
645.867554	1245.536499	9081.948242	1440.878296	2.492745
646.201172	1248.211304	9074.516602	1438.723633	2.434256
646.534729	1252.075073	9089.081055	1442.958862	2.435673
646.868225	1256.607544	9099.780273	1443.999023	2.389230
647.201782	1256.384644	9086.851563	1453.584106	2.518362
647.535217	1253.932739	9045.911133	1455.813110	2.590874
647.868591	1246.056641	9045.835938	1459.454102	2.735942
648.201965	1246.428223	9069.092773	1463.020508	2.768779
648.535278	1249.994751	9103.643555	1456.184692	2.625403
648.868591	1255.121460	9107.433594	1455.887573	2.556777
649.201782	1252.149414	9077.563477	1450.091797	2.529481
649.534912	1251.480835	9035.656250	1451.875122	2.574380
649.868103	1255.418701	8984.016602	1447.119751	2.480412
650.201172	1256.458984	8973.019531	1443.330200	2.421690
650.534180	1250.068970	8960.684570	1447.119751	2.555578
650.867188	1246.056641	8948.351563	1456.481934	2.731982
651.200134	1248.880127	8924.871094	1459.974121	2.750055
651.533020	1252.372437	8878.729492	1456.407715	2.675396
651.865845	1252.223633	8820.772461	1450.760742	2.623186
652.198608	1248.211426	8789.342773	1450.909180	2.687896
652.531433	1248.805786	8790.829102	1453.435547	2.713194
652.864136	1245.908081	8770.247070	1446.005249	2.659332
653.196777	1458.488159	8958.975586	1664.009399	2.740105
653.529358	1463.317749	8901.762695	1668.764771	2.761962
653.861938	1463.763550	8857.850586	1673.371582	2.834806
654.194519	1261.362915	8554.249023	1450.166382	2.588872
654.526978	1258.836548	8490.942383	1440.432617	2.510971
654.859375	1255.344360	8434.622070	1439.763794	2.568774
655.191833	1252.372192	8414.708008	1439.317993	2.610123
655.524170	1249.400269	8378.002930	1439.243774	2.663124
655.856445	1249.994507	8347.019531	1437.163208	2.637284
656.188660	1255.195801	8313.805664	1443.850464	2.672689
656.520874	1252.595215	8279.180664	1435.751465	2.606618
656.853088	1258.911011	8270.487305	1436.271484	2.529538
657.185181	1244.347656	8239.428711	1429.658691	2.649162
657.517212	1245.016357	8229.249023	1439.392212	2.783067
657.849243	1241.821411	8231.923828	1444.147827	2.894470
658.181274	1245.833862	8279.775391	1447.640015	2.869034
658.513123	1248.880249	8345.978516	1443.256226	2.738809
658.844971	1248.508667	8402.820313	1444.296387	2.736639
659.176819	1247.022461	8482.696289	1449.646118	2.800343
659.508667	1247.542603	8561.829102	1459.454102	2.897227
659.840393	1246.279419	8652.849609	1459.454102	2.878183
660.172058	1250.514771	8682.570313	1454.475708	2.744341
660.503662	1249.920288	8709.765625	1455.070190	2.750056
660.835266	1249.177368	8714.817383	1455.515991	2.763844
661.166931	1251.703613	8682.867188	1450.612183	2.676681
661.498413	1250.737671	8664.886719	1439.169434	2.541516
661.829773	1254.824341	8600.985352	1433.448120	2.431525
662.161194	1253.561157	8547.859375	1436.345825	2.505857
662.492615	1256.310425	8449.037109	1436.420288	2.504056
662.823975	1257.127808	8322.871094	1433.819458	2.500680
663.155212	1253.635498	8183.775879	1426.686523	2.497078
663.486450	1249.697510	8025.882813	1421.411133	2.534075
663.817627	1249.177368	7884.039063	1418.067383	2.545494
664.148743	1250.737671	7781.501465	1419.553345	2.584930
664.479858	1252.818237	7686.617188	1418.290161	2.571916
664.810913	1254.378662	7616.623535	1417.250122	2.559968
665.141907	1252.966919	7544.326660	1419.627808	2.649044
665.472778	1247.542725	7471.138184	1423.491577	2.827125
665.803711	1246.502441	7408.873047	1436.717407	3.086717
666.134583	1245.610840	7356.861328	1428.024048	2.984875
666.465454	1256.533325	7313.171387	1426.017700	2.798324
666.796143	1252.818359	7280.998047	1413.237793	2.661159
667.126831	1256.013306	7262.273438	1415.764038	2.659737
667.457458	1244.570679	7254.621094	1415.615356	2.845978
667.788147	1247.022583	7238.050781	1416.432739	2.827731
668.118774	1248.359985	7197.333496	1418.958984	2.867705
668.449219	1249.697388	7180.243652	1420.742188	2.884132
668.779663	1260.768555	7149.036621	1425.646118	2.800103
669.110107	1259.728271	7140.640137	1423.714478	2.788449
669.440552	1260.322754	7125.928223	1425.646362	2.818526
669.770874	1245.685181	7118.349121	1419.256348	2.955578
670.101135	1241.524170	7086.993652	1414.798218	2.964245
670.431396	1242.118530	7055.191895	1405.881836	2.817155
670.761597	1244.867798	7011.799316	1396.742554	2.633545
671.091797	1247.022583	6994.783691	1400.234741	2.665597
671.421875	1246.873901	6950.201660	1401.497925	2.711119
671.751892	1252.892456	6940.320313	1406.624634	2.703018
672.081909	1252.966797	6893.509277	1404.395874	2.684654
672.411865	1247.097046	6868.469238	1399.714844	2.714956
672.741821	1237.586182	6818.017090	1397.262695	2.861365
673.071716	1246.651245	6789.856934	1396.371094	2.700962
673.401550	1256.459106	6763.999512	1397.559937	2.561957
673.731262	1263.294922	6737.101563	1396.445313	2.432501
674.060974	1253.932739	6698.018066	1395.999512	2.609562
674.390625	1247.542603	6644.445801	1401.126343	2.845775
674.720276	1239.072144	6602.687500	1398.154297	2.965950
675.049927	1240.186646	6572.967285	1397.782837	2.955235
675.379395	1241.598511	6553.425781	1391.615601	2.824209
675.708923	1243.827515	6530.168457	1399.566040	2.946055
676.038330	1243.456055	6491.457031	1391.912964	2.828828
676.367737	1247.245483	6462.701660	1388.569336	2.709712
676.697083	1249.251709	6426.145020	1384.259766	2.607897
677.026428	1250.217651	6398.132813	1388.494751	2.686080
677.355652	1243.158813	6368.486328	1391.466919	2.893632
677.684875	1239.666504	6371.161621	1385.374023	2.839475
678.013977	1238.254883	6349.539063	1391.986938	3.007699
678.343079	1245.462280	6362.393066	1395.627930	2.934682
678.672180	1247.839966	6347.532715	1398.748657	2.959172
679.001221	1245.239258	6382.975098	1392.210083	2.860615
679.330139	1242.638794	6395.903809	1396.965454	2.994735
679.659058	1245.685181	6430.751953	1403.801270	3.049451
679.987976	1252.595337	6471.618652	1406.550415	2.949883
680.316772	1252.520874	6501.785156	1400.680664	2.822487
680.645630	1251.926636	6517.314453	1401.572266	2.842063
680.974304	1244.793457	6544.360840	1404.321655	3.010212
681.302979	1251.555054	6579.580078	1400.086304	2.787736
681.631653	1251.406372	6608.781250	1398.228516	2.740561
681.960266	1249.920410	6611.679688	1395.330688	2.711988
682.288757	1245.090698	6624.087402	1403.058228	2.936747
682.617249	1242.861694	6618.960938	1403.058228	2.979791
682.945679	1240.706909	6603.654297	1402.018066	3.007883
683.274109	1244.793457	6558.775391	1397.931274	2.881790
683.602478	1249.474609	6510.924316	1392.581665	2.719917
683.930725	1253.635498	6467.754395	1389.089478	2.597831
684.259033	1252.595337	6404.894531	1384.482544	2.559774
684.587280	1245.685181	6348.943848	1384.036743	2.711043
684.915344	1253.264038	6287.867676	1377.126587	2.460224
685.243469	1251.555054	6231.174316	1374.080200	2.460532
685.571533	1259.876831	6182.878418	1372.668457	2.291115
685.899536	1249.548828	6133.095215	1378.686890	2.644350
686.227539	1252.223755	6094.085938	1380.618774	2.651769
686.555420	1242.713013	6070.755371	1378.241211	2.807105
686.883301	1249.326050	6042.892090	1374.303101	2.607183
687.211121	1242.490112	6033.232422	1370.662231	2.675413
687.538940	1245.536499	6004.699707	1371.776733	2.652572
687.866638	1245.016235	5994.148438	1381.584595	2.875649
688.194336	1245.759399	5986.941406	1382.030640	2.874204
688.521973	1245.462158	5990.953613	1381.287720	2.862202
688.849609	1244.867798	6003.957031	1366.352905	2.552696
689.177063	1245.536499	5997.344238	1364.049316	2.494058
689.504578	1258.688110	5969.109375	1360.036987	2.151588
689.832031	1261.140137	5925.790527	1373.634277	2.411631
690.159485	1264.558105	5871.104004	1375.046021	2.398498
690.486816	1254.453003	5815.376953	1372.371216	2.585402
690.814087	1253.115356	5751.104980	1358.625366	2.345715
691.141296	1250.812012	5672.121094	1356.544800	2.391436
691.468506	1248.582886	5587.044434	1361.448730	2.601518
691.795715	1251.629395	5504.717285	1364.643677	2.657229
692.122803	1251.183716	5432.569336	1360.334106	2.610388
692.449829	1253.635620	5387.690430	1353.201172	2.408424
692.776855	1245.759521	5324.161621	1340.198120	2.315578
693.103821	1247.394165	5275.121582	1339.157959	2.278302
693.430664	1247.171265	5210.775879	1344.210449	2.448256
693.757568	1255.121582	5180.236816	1352.086548	2.470372
694.084351	1252.000854	5140.633789	1352.012207	2.571890
694.411133	1254.378418	5124.361816	1347.182617	2.398052
694.737854	1251.629272	5071.012207	1340.495483	2.326716
695.064575	1254.750122	5048.424316	1340.866943	2.270011
695.391174	1244.719238	5013.650391	1340.123901	2.531345
695.717773	1247.319702	5008.895020	1344.879272	2.593583
696.044250	1246.502441	5003.916992	1347.479980	2.687421
696.370789	1253.932617	5004.733887	1345.770996	2.448500
696.697205	1254.304199	5005.031250	1350.303345	2.559481
697.023621	1252.595215	5041.216797	1348.445679	2.529956
697.349915	1250.886353	5094.194824	1354.835815	2.704687
697.676208	1243.381714	5171.915527	1353.201172	2.795431
698.002380	1247.765747	5228.607910	1356.024536	2.719495
698.328674	1246.799683	5302.316895	1353.349731	2.627286
698.654724	1245.016479	5375.281738	1360.334229	2.792018
698.980896	1245.536499	5455.231934	1368.061646	2.910547
699.306946	1249.400269	5521.286621	1377.721069	3.003844
699.632935	1254.527222	5565.868652	1372.519897	2.736797
699.958862	1250.514893	5600.270996	1363.380493	2.594757
700.284729	1249.400391	5614.536621	1355.727417	2.435824
700.610596	1255.418823	5602.127441	1355.058716	2.292307
700.936340	1253.561157	5558.066406	1358.328003	2.433888
701.262146	1253.338257	5480.123047	1354.761475	2.399536
701.587830	1242.564331	5397.498047	1345.027832	2.466068
701.913513	1248.211426	5278.019531	1339.232300	2.258690
702.239075	1250.589111	5157.500488	1337.151733	2.215628
702.564697	1255.047241	5042.257324	1346.142334	2.405335
702.890137	1251.183472	4926.492676	1348.817261	2.656478
703.215698	1249.771851	4824.475586	1349.411743	2.787361
703.541016	1250.291748	4727.584961	1343.318848	2.675273
703.866455	1249.845947	4661.381348	1336.631714	2.543892
704.191711	1247.171143	4599.041504	1331.430542	2.513803
704.517029	1241.226929	4539.970703	1331.207520	2.727723
704.842163	1237.437500	4479.265625	1333.733765	2.970431
705.167419	1244.347656	4438.844727	1337.671875	2.921406
705.492493	1247.542603	4413.358887	1337.746216	2.849300
705.817566	1254.378540	4396.937988	1336.928833	2.626849
706.142578	1250.588989	4377.990723	1337.448975	2.777385
706.467590	1249.474609	4350.424316	1339.232178	2.894519
706.792480	1243.604614	4330.214355	1342.873047	3.216099
707.117371	1245.610840	4318.623047	1334.625488	2.896658
707.442200	1254.155640	4311.267090	1334.476807	2.627355
707.766907	1258.911133	4303.762207	1336.483032	2.547642
708.091675	1252.892578	4294.474609	1340.941284	2.894833
708.416321	1240.558228	4288.381348	1340.272461	3.271654
708.741028	1243.158813	4301.979004	1342.204346	3.238030
709.065552	1245.907959	4314.610840	1344.953491	3.227602
709.390137	1253.709839	4340.839355	1351.343628	3.162608
709.714600	1257.870728	4362.907227	1342.724487	2.732778
710.039063	1252.743774	4372.269531	1337.300415	2.710561
710.363403	1250.068848	4387.426758	1330.093018	2.550687
710.687744	1233.722412	4412.838379	1327.715332	2.956574
711.012085	1237.363281	4458.980469	1329.052734	2.846069
711.336304	1243.901855	4506.162598	1337.671875	2.874388
711.660461	1254.750000	4517.011230	1340.421021	2.626124
711.984619	1259.505371	4529.419922	1341.684204	2.513180
712.308716	1254.081421	4519.165527	1337.820435	2.564682
712.632751	1255.641724	4551.487305	1337.820557	2.493407
712.956726	1253.338257	4535.437988	1337.746216	2.571767
713.280701	1253.486816	4538.707520	1332.322144	2.399697
713.604553	1252.892456	4506.312012	1334.699829	2.514504
713.928467	1253.189819	4490.262207	1333.659424	2.485876
714.252258	1250.663452	4431.265625	1340.569580	2.826702
714.575989	1247.097046	4352.727051	1331.281860	2.710716
714.899719	1253.115356	4310.375000	1335.740112	2.702576
715.223267	1262.403198	4280.431152	1331.281860	2.282241
715.546936	1263.666382	4279.687988	1339.306519	2.507944
715.870422	1252.892456	4241.050293	1332.099243	2.650690
716.193970	1243.455933	4210.512207	1324.891724	2.744666
716.517395	1244.273315	4176.555664	1323.405640	2.698660
716.840820	1244.719238	4148.320313	1321.102417	2.630636
717.164124	1249.771729	4116.667969	1327.343750	2.705784
717.487488	1247.171265	4082.860107	1327.938354	2.848235
717.810730	1251.035034	4047.640625	1328.161255	2.757851
718.133972	1246.279541	4015.616455	1324.074585	2.809158
718.457092	1245.982300	3979.505127	1321.250977	2.753541
718.780212	1243.901855	3950.526611	1321.399658	2.863264
719.103210	1244.496216	3899.109375	1321.622559	2.905370
719.426208	1247.022583	3849.326904	1319.987915	2.803874
719.749207	1251.926514	3800.955811	1321.994019	2.748792
720.072083	1254.155640	3772.720703	1322.439819	2.711234
720.394958	1253.189697	3741.290283	1314.415161	2.460731
720.717773	1248.359985	3702.653076	1310.625854	2.537019
721.040527	1249.251709	3657.253906	1303.418335	2.249443
721.363281	1249.028809	3615.273193	1304.458618	2.342523
721.685913	1255.418823	3583.100342	1308.396606	2.275989
722.008545	1262.403198	3568.462891	1313.003418	2.194229
722.331055	1262.626099	3558.283203	1317.164185	2.375707
722.653503	1257.722168	3544.537109	1312.186035	2.381647
722.976013	1254.452759	3540.896240	1310.997192	2.473030
723.298401	1248.434448	3519.125244	1301.263428	2.326560
723.620789	1249.697632	3501.292969	1298.960083	2.187891
723.943115	1247.914185	3476.550049	1297.399780	2.220443
724.265381	1255.270142	3466.742188	1308.025024	2.385510
724.587585	1251.406372	3463.250000	1313.746460	2.818467
724.909790	1253.709839	3457.231445	1308.025024	2.464926
725.231873	1255.121582	3451.361328	1308.396484	2.425733
725.553894	1265.152344	3452.624268	1306.836182	1.905571
725.875916	1311.442993	3494.159424	1349.560303	1.746325
726.197937	1310.997192	3493.490967	1349.263062	1.753309
726.519775	1303.046753	3492.302002	1344.582031	1.897233
726.841675	1248.805786	3451.361328	1308.470825	2.708900
727.163513	1242.118652	3461.243408	1309.362427	3.030194
727.485291	1246.874023	3475.955811	1315.678345	3.086667
727.806946	1248.805786	3496.983398	1319.764893	3.156294
728.128662	1252.223755	3522.320313	1317.312988	2.867245
728.450256	1248.954468	3535.769531	1313.226318	2.810540
728.771790	1253.264038	3546.543213	1303.418335	2.187012
729.093323	1256.533325	3549.292236	1299.926147	1.892603
729.414795	1248.583008	3565.341797	1308.842407	2.601022
729.736145	1247.691284	3574.035156	1313.597778	2.833050
730.057495	1246.948242	3568.165283	1312.409058	2.820107
730.378845	1257.796387	3561.106445	1302.898193	1.958130
730.700134	1260.917236	3554.270508	1301.486450	1.768991
731.021301	1259.877075	3561.255127	1299.851685	1.736986
731.342468	1258.539551	3555.459717	1303.641235	1.963572
731.663574	1250.068970	3555.979736	1304.607178	2.365148
731.984680	1249.028687	3574.258057	1311.294434	2.677832
732.305664	1243.456055	3581.391357	1309.659790	2.831718
732.626648	1247.914185	3606.282471	1311.220093	2.684310
732.947571	1248.434204	3593.428467	1312.260376	2.721805
733.268433	1249.103027	3598.480469	1318.650391	2.960247
733.589233	1246.576782	3587.186523	1323.851563	3.301481
733.909973	1246.428223	3599.000732	1326.377808	3.398390
734.230713	1252.372437	3577.007080	1320.879517	2.947004
734.551331	1252.075195	3540.301758	1306.390381	2.373680
734.871948	1250.291870	3482.271484	1295.170654	2.010717
735.192505	1242.267212	3444.971436	1287.071655	2.034065
735.513062	1232.161987	3411.609375	1292.124390	2.751266
735.833435	1228.075317	3372.823486	1302.749634	3.481729
736.153931	1226.292114	3337.826904	1310.848511	4.004499
736.474304	1243.381714	3291.164795	1310.477173	3.276493
736.794617	1255.418823	3271.177002	1299.108765	2.167420
737.114807	1262.328979	3256.688232	1301.412231	1.959690
737.434998	1263.369141	3250.818359	1309.213867	2.306712
737.755188	1249.177246	3238.781250	1312.260376	3.170637
738.075256	1249.326050	3240.193115	1310.774292	3.086507
738.395325	1239.295044	3240.044678	1299.777466	3.022988
738.715271	1246.279541	3252.750244	1307.802124	3.066209
739.035278	1238.626343	3260.403564	1306.390259	3.351701
739.355164	1242.935913	3266.198975	1312.409058	3.433718
739.675049	1239.740967	3271.400146	1306.687622	3.295171
739.994873	1241.449829	3270.062744	1312.185913	3.486919
740.314636	1239.369385	3274.000977	1315.380981	3.735890
740.634277	1244.793457	3253.716064	1312.706055	3.380548
740.953979	1246.130859	3225.258545	1304.755737	2.962157
741.273499	1247.616821	3200.218018	1305.573120	2.968158
741.593140	1254.601440	3191.153076	1314.266479	3.080994
741.912598	1261.214355	3167.079102	1315.975464	2.873295
742.232117	1253.784058	3124.578125	1313.895020	3.213125
742.551453	1249.548828	3077.916016	1304.830078	3.023531
742.870850	1246.056519	3047.897461	1299.406128	2.960839
743.190063	1251.406372	3027.538330	1293.238770	2.355253
743.509338	1246.353882	2996.554688	1290.489624	2.521753
743.828552	1247.468384	2980.950928	1295.096558	2.747543
744.147705	1246.502563	2970.771484	1298.662964	3.025073
744.466797	1245.313599	2957.397217	1305.647461	3.524002
744.785828	1246.428101	2930.647705	1302.378174	3.322018
745.104858	1246.948242	2903.675781	1297.622681	3.058707
745.423706	1243.455933	2890.301514	1286.700073	2.625877
745.742615	1245.387817	2878.115967	1287.145996	2.557571
746.061401	1250.663452	2873.137451	1288.334839	2.321848
746.380249	1259.431030	2863.180908	1291.232788	1.982962
746.698975	1257.276245	2848.023438	1290.341187	2.078579
747.017639	1262.774780	2837.620850	1287.740479	1.585279
747.336304	1260.099731	2833.534180	1288.334839	1.794489
747.654907	1262.403198	2838.958252	1289.672363	1.729668
747.973389	1254.526978	2846.908936	1293.684692	2.459065
748.291931	1257.573608	2837.992432	1293.758911	2.289602
748.610352	1249.177368	2840.518799	1283.951050	2.185180
748.928711	1256.458984	2831.676758	1287.591919	1.976421
749.247070	1254.378540	2836.580811	1294.353516	2.526540
749.565308	1259.653931	2826.326904	1300.371948	2.599012
749.883545	1256.681885	2808.197266	1301.709351	2.902160
750.201782	1253.709839	2804.704834	1298.365845	2.879184
750.519836	1252.297974	2799.875244	1302.155273	3.221636
750.837952	1245.313599	2797.646240	1287.740479	2.733105
751.155884	1257.499146	2767.405029	1283.356567	1.712519
751.473877	1259.802612	2748.977783	1280.384399	1.382093
751.791809	1256.682007	2744.222412	1290.638306	2.282714
752.109619	1251.109253	2748.680420	1295.988159	2.996779
752.427490	1251.777954	2744.222412	1289.969604	2.559000
752.745300	1256.607666	2737.683594	1285.362793	1.941503
753.062988	1247.171143	2726.166748	1284.471191	2.521985
753.380615	1240.038086	2722.377197	1290.266724	3.388471
753.698303	1239.072266	2707.591064	1291.975708	3.602504
754.015808	1240.632446	2713.535400	1290.118164	3.359740
754.333374	1245.090698	2703.727539	1288.780640	2.995258
754.650757	1241.598511	2705.362061	1293.536133	3.548225
754.968262	1247.171265	2707.071045	1285.585571	2.631298
755.285583	1248.880127	2706.030762	1291.232666	2.906531
755.602905	1246.130981	2702.909912	1289.598022	2.983778
755.920105	1237.511719	2677.944336	1294.130493	3.930678
756.237305	1238.180420	2677.498291	1292.124390	3.747884
756.554443	1242.861450	2664.421387	1293.090210	3.533355
756.871582	1251.703735	2671.034180	1297.548462	3.230025
757.188599	1248.211548	2661.077881	1294.947876	3.307909
757.505615	1247.988525	2667.022217	1288.260620	2.837994
757.822510	1247.691284	2677.424316	1288.334839	2.842737
758.139465	1250.366211	2689.015381	1281.573364	2.169198
758.456238	1252.743774	2697.634521	1282.464966	2.056985
758.773010	1248.434326	2704.098877	1279.418579	2.128530
759.089783	1245.462280	2720.593994	1289.226563	2.966805
759.406433	1247.245483	2732.111084	1290.266724	2.897316
759.723145	1250.440552	2739.392578	1289.003662	2.589950
760.039673	1256.384644	2730.996826	1288.409180	2.171726
760.356201	1255.418823	2733.374268	1286.700195	2.116530
760.672668	1253.115356	2735.305908	1286.848755	2.275915
760.989136	1255.047241	2743.850830	1284.619751	1.986327
761.305481	1251.703735	2741.399170	1287.963257	2.434022
761.621826	1254.527222	2743.999268	1291.381226	2.474300
761.938049	1252.298096	2747.714600	1288.631958	2.429682
762.254333	1257.722168	2760.494873	1285.585571	1.854133
762.570496	1255.641724	2789.027100	1287.591797	2.083630
762.886597	1253.041138	2840.072998	1291.604126	2.429881
763.202637	1255.344360	2914.969971	1298.217163	2.583282
763.518677	1260.545532	3008.888672	1302.452271	2.396940
763.834656	1260.694214	3112.541016	1304.235596	2.351241
764.150574	1259.876831	3223.623779	1307.282104	2.414021
764.466370	1263.740723	3296.663330	1308.396606	2.196635
764.782288	1258.613770	3342.285156	1311.814453	2.553219
765.097961	1254.601440	3348.823486	1310.477051	2.668084
765.413696	1244.198975	3317.022217	1301.857910	2.781662
765.729309	1249.846069	3264.861572	1296.953979	2.337844
766.044861	1252.966797	3178.521729	1286.180054	1.724867
766.360474	1249.177368	3089.804443	1292.272949	2.341353
766.675903	1243.084473	2985.334717	1291.975708	2.806212
766.991394	1243.455933	2884.282959	1294.056152	3.083824
767.306763	1245.982422	2797.645752	1285.214233	2.528371
767.622131	1248.137085	2723.194824	1286.700195	2.614346
767.937378	1247.617065	2653.796143	1285.585571	2.700119
768.252625	1250.217529	2600.000977	1289.449341	2.906526
768.567810	1247.839966	2556.831055	1284.099609	2.770045
768.882996	1244.496216	2528.075928	1284.693970	3.131691
769.197998	1246.874023	2503.481689	1283.950928	2.950555
769.513062	1250.737671	2474.726318	1284.545410	2.762096
769.828064	1253.041016	2457.562256	1283.951050	2.566168
770.142944	1249.251587	2421.599854	1280.384521	2.655605
770.457825	1247.542603	2404.584717	1276.149292	2.472398
770.772705	1242.267212	2381.253662	1273.400024	2.733379
771.087402	1244.942139	2356.585205	1277.412354	2.920921
771.402100	1242.490112	2336.003174	1279.195679	3.356665
771.716736	1246.651001	2316.833252	1276.000610	2.742487
772.031372	1251.778076	2311.037598	1272.211182	1.928999
772.345947	1257.647949	2287.186279	1271.245239	1.320717
772.660461	1255.790405	2265.787354	1274.588989	1.861252
772.974854	1251.777954	2255.087646	1273.400024	2.155074
773.289246	1251.406372	2255.979248	1274.811768	2.329885
773.603638	1252.372192	2261.254639	1273.845947	2.128469
773.917908	1251.703613	2251.000732	1269.164795	1.747346
774.232178	1256.607666	2226.481201	1266.489868	1.018917
774.546265	1255.493042	2214.741211	1266.044067	1.099927
774.860474	1254.378540	2200.995117	1275.034668	2.182101
775.174561	1248.137085	2198.914795	1275.480469	2.875897
775.488586	1255.047241	2184.277100	1274.663208	2.110992
775.802551	1251.257690	2181.304932	1271.319702	2.157096
776.116516	1254.006958	2168.004883	1273.102905	2.089277
776.430359	1242.267212	2153.664307	1267.827271	2.804492
776.744202	1243.827515	2143.410400	1263.517700	2.188813
777.057922	1241.004028	2133.453857	1263.294800	2.497706
777.371704	1247.394165	2133.156738	1268.793335	2.415904
777.685303	1249.028687	2127.064209	1273.548706	2.792600
777.998962	1255.567383	2129.961670	1273.028442	1.996932
778.312500	1253.709839	2122.085693	1275.034668	2.455714
778.626038	1256.013184	2122.457275	1270.650757	1.689385
778.939453	1247.171143	2122.903076	1271.170898	2.740537
779.252869	1250.143188	2119.856689	1273.251343	2.656985
779.566223	1247.691284	2113.169189	1276.223511	3.296702
779.879578	1253.412598	2106.259277	1271.319458	2.099658
780.192749	1253.709839	2103.658691	1262.180298	0.996585
780.505920	1248.954468	2100.315186	1263.815063	1.745511
780.819031	1244.942017	2096.525635	1270.353638	2.984043
781.132141	1255.938843	2093.033447	1283.059448	3.239850
781.445190	1259.133911	2088.500732	1283.431030	2.929599
781.758118	1262.254517	2081.962158	1280.235962	2.193641
782.071045	1251.257813	2066.209961	1272.359863	2.589361
782.383911	1254.601563	2059.299805	1272.582764	2.234527
782.696838	1249.771851	2051.052246	1269.239136	2.429522
783.009583	1257.350708	2050.978027	1272.731201	1.937999
783.322266	1258.390869	2038.718140	1270.279175	1.523502
783.634888	1261.808716	2024.674805	1267.307251	0.720773
783.947510	1250.366089	2007.510864	1265.969849	2.060869
784.260132	1243.158691	2000.823730	1273.622925	4.020805
784.572571	1241.375488	1997.108765	1281.721924	5.338714
784.885010	1243.901733	1995.845337	1283.876587	5.316204
785.197449	1248.954468	1975.709351	1279.269897	4.171342
785.509766	1247.319824	1967.833374	1277.709595	4.217793
785.822083	1245.685181	1970.656860	1276.372070	4.232840
786.134277	1244.942139	1983.957031	1272.656860	3.750225
786.446533	1247.171265	1982.916626	1270.650757	3.191252
786.758606	1247.245605	1968.130493	1270.576416	3.236413
787.070740	1248.434448	1968.278931	1271.913940	3.261745
787.382690	1245.759399	1971.845703	1272.657104	3.704478
787.694641	1247.319702	1993.764771	1264.632324	2.319343
788.006653	1246.799683	2007.956665	1260.619995	1.815698
788.318481	1252.520874	2029.801758	1259.356812	0.879468
788.630310	1256.533325	2035.151733	1265.523926	1.154686
788.942017	1254.601440	2046.222656	1262.031738	0.938618
789.253784	1250.291870	2047.931641	1266.415649	2.021436
789.565430	1254.155640	2061.083008	1262.254761	1.003699
789.877014	1258.167969	2068.290283	1260.694214	0.311835
790.188538	1261.288696	2059.522705	1257.573608	-0.465413
790.500061	1256.161743	2036.563110	1262.551758	0.818811
790.811462	1254.750122	2019.919434	1263.220581	1.107005
791.122925	1255.270142	1999.783569	1264.632324	1.257490
791.434204	1249.474487	1987.820679	1270.056396	2.787569
791.745483	1252.818237	1958.842407	1272.731323	2.820454
792.056702	1248.211304	1950.817871	1272.359863	3.436996
792.367920	1255.121460	1935.288696	1262.774780	1.125212
792.678955	1251.034912	1928.304199	1258.539551	1.108073
792.990112	1249.251587	1915.152710	1262.328979	1.963864
793.301086	1242.415894	1906.087524	1262.031860	2.955673
793.612122	1245.685059	1894.347656	1269.387695	3.654078
793.922974	1243.604614	1892.787476	1264.335083	3.193317
794.233826	1245.090698	1897.617188	1264.780884	3.017530
794.544556	1231.196045	1898.137329	1260.619995	4.411775
794.855286	1236.694458	1901.035156	1256.013306	2.907973
795.166016	1240.038086	1888.849487	1259.208374	2.954678
795.476624	1256.161743	1891.152954	1260.099731	0.620164
795.787292	1260.619995	1897.097168	1262.180298	0.245147
796.097778	1260.991577	1921.394043	1265.375244	0.663787
796.408264	1255.715942	1933.951172	1262.403076	0.985961
796.718689	1247.988647	1939.969727	1266.712769	2.705872
797.029053	1248.508667	1938.557983	1263.146240	2.121236
797.339355	1246.576782	1939.895508	1266.341309	2.850713
797.649658	1255.418823	1936.626099	1265.969849	1.548872
797.959839	1255.418823	1936.106079	1259.802612	0.644024
798.270020	1256.830566	1930.533325	1263.071899	0.926422
798.580078	1253.189575	1930.013306	1263.889160	1.580853
798.890137	1251.332153	1914.855469	1265.003784	2.060460
799.200195	1251.109131	1898.880371	1259.579712	1.307650
799.510071	1250.143188	1884.614136	1258.316528	1.288213
799.820007	1249.325806	1877.778320	1252.446655	0.496593
800.129883	1249.177368	1873.171509	1259.579712	1.667058
800.439575	1256.756226	1867.152954	1252.521118	-0.693829
800.749329	1260.619995	1864.775391	1255.270264	-0.885489
801.058960	1261.065796	1866.187134	1248.285767	-2.111978
801.368591	1250.663452	1857.493652	1263.666382	2.142762
801.678162	1246.428101	1843.896362	1268.347534	3.668719
801.987671	1249.103027	1829.333008	1273.474243	4.200268
802.297119	1256.236206	1825.543579	1265.821167	1.683618
802.606506	1248.508667	1825.543579	1258.836670	1.789840
802.915894	1248.137207	1828.144165	1258.242310	1.742238
803.225159	1242.341553	1823.834839	1252.966797	1.827234
803.534424	1251.257813	1819.525024	1258.539551	1.281393
803.843628	1246.279541	1818.336304	1256.161743	1.727486
804.152771	1250.737671	1809.271118	1258.019409	1.303725
804.461792	1249.177368	1800.057617	1267.232910	3.277580
804.770874	1252.000732	1801.395142	1273.325684	3.881538
805.079773	1251.109253	1815.884277	1275.926270	4.394142
805.388733	1253.189697	1834.757202	1264.483765	1.942005
805.697571	1257.276489	1840.255493	1261.140137	0.662742
806.006470	1250.068970	1843.747681	1262.105957	2.027525
806.315125	1250.886353	1840.255493	1268.050293	2.912256
806.623901	1242.861572	1834.905762	1261.288696	3.112458
806.932495	1243.901978	1830.076050	1259.282593	2.623899
807.241150	1242.564453	1823.091675	1262.551880	3.442978
807.549622	1240.112427	1815.884277	1258.539429	3.200400
807.858154	1247.468384	1809.345337	1261.140015	2.433207
808.166565	1245.982300	1812.689087	1257.053345	1.953575
808.474915	1260.545654	1814.695313	1272.434082	2.145346
808.783264	1251.926514	1810.980103	1271.468262	3.495505
809.091492	1256.384644	1796.268188	1267.158691	1.995624
809.399719	1242.787231	1783.562622	1261.362915	3.435009
809.707825	1252.966797	1775.909302	1258.316528	1.023006
810.015930	1254.081421	1776.132324	1260.619995	1.252478
810.323975	1256.756226	1770.559570	1260.545654	0.737525
810.632080	1250.366211	1765.581421	1259.951294	1.860404
810.939880	1242.861572	1756.962280	1265.301147	4.364821
811.247864	1243.084473	1761.420410	1270.353638	5.260906
811.555664	1247.096802	1754.881714	1267.455811	4.009377
811.863464	1250.440430	1745.742310	1261.363037	2.205242
812.171143	1253.115356	1744.627808	1253.486938	0.075600
812.478882	1255.641602	1736.083008	1254.824341	-0.170106
812.786438	1259.208130	1734.671387	1255.493164	-0.781336
813.094055	1258.613770	1722.114258	1257.870728	-0.160311
813.401489	1250.737671	1722.337036	1260.471313	2.063964
813.708984	1246.502441	1724.194702	1258.985229	2.613144
814.016357	1252.297974	1714.238159	1259.876953	1.640684
814.323730	1250.663452	1721.594116	1256.533325	1.246441
814.630981	1253.635376	1724.789063	1260.917114	1.545512
814.938232	1249.697510	1728.578491	1258.465210	1.830873
815.245361	1253.264038	1727.686890	1266.266968	2.740789
815.552490	1253.932617	1724.640259	1265.821045	2.525650
815.859619	1253.189697	1728.132690	1272.731323	4.114521
816.166565	1260.545776	1721.073853	1271.988281	2.484649
816.473572	1260.471436	1715.872925	1274.217407	3.018429
816.780457	1256.384766	1716.838867	1267.307251	2.372112
817.087341	1249.623169	1714.238159	1262.774780	2.830647
817.394043	1249.177368	1722.857056	1256.458984	1.537245
817.700806	1251.035034	1730.213013	1260.471313	1.969264
818.007507	1249.846191	1747.302734	1258.687988	1.777401
818.314209	1245.759399	1753.841431	1258.688110	2.544611
818.620667	1246.056641	1756.813599	1256.310303	2.007542
818.927246	1245.016479	1757.185059	1259.579712	2.843445
819.233704	1243.307495	1775.463501	1268.421753	4.719341
819.540161	1244.199097	1806.224976	1272.805542	5.089880
819.846497	1245.759399	1844.565063	1277.263794	5.261205
820.152832	1253.784180	1871.239746	1273.028564	3.116724
820.458984	1254.601440	1910.694336	1271.468140	2.570779
820.765259	1255.715942	1963.300781	1266.564209	1.533140
821.071350	1246.502441	2046.073853	1269.684937	2.899365
821.377502	1240.632568	2175.955078	1278.229614	4.019688
821.683472	1238.775024	2388.014893	1294.947754	4.887816
821.989441	1239.666626	2734.117188	1310.774292	4.758114
822.295349	1244.124634	3183.351563	1330.092896	4.433120
822.601196	1243.530273	3715.061768	1339.083618	3.866159
822.907043	1244.421997	4212.519043	1357.882202	3.822658
823.212769	1248.582886	4589.679199	1363.603516	3.442602
823.518494	1249.177246	4752.030273	1371.331055	3.487266
823.824097	1253.041016	4707.745605	1357.584961	3.026133
824.129700	1244.347656	4516.193359	1347.108276	3.140754
824.435242	1247.839966	4263.192871	1332.322021	2.801730
824.740723	1244.719116	3975.046875	1326.154907	2.982638
825.046082	1251.257813	3684.746338	1313.374878	2.552593
825.351501	1249.251587	3358.631592	1298.588623	2.338936
825.656799	1251.555054	3056.516846	1288.260498	2.033586
825.962036	1255.195801	2796.085693	1277.040894	1.417693
826.267212	1258.613892	2628.458740	1284.322510	1.876754
826.572449	1262.551880	2552.298584	1284.099609	1.670695
826.877502	1257.127686	2555.344971	1289.672363	2.506875
827.182495	1260.694214	2630.464844	1290.266724	2.158939
827.487488	1252.075195	2733.299805	1290.935425	2.623520
827.792419	1253.412598	2821.274170	1300.892090	3.028296
828.097290	1250.886353	2862.809570	1300.074585	3.051525
828.402100	1254.081299	2853.521729	1299.182983	2.819841
828.706848	1254.006958	2794.896729	1298.662964	2.898066
829.011597	1246.502441	2682.031006	1303.492676	3.969983
829.316223	1244.942139	2548.508789	1304.310059	4.554268
829.620789	1252.372437	2417.438965	1289.672363	3.201528
829.925354	1256.458984	2306.727783	1273.548706	1.627176
830.229797	1253.115356	2193.044678	1265.152466	1.280640
830.534302	1243.530396	2086.048584	1272.954224	3.492367
830.838562	1244.496338	1987.374878	1276.520874	4.310871
831.142944	1248.880127	1916.787476	1275.183228	3.938136
831.447144	1252.818237	1853.630005	1268.421753	2.597072
831.751404	1251.257813	1823.166016	1267.901733	2.910244
832.055542	1252.075195	1796.491211	1264.706665	2.320187
832.359619	1248.731567	1792.033081	1257.796509	1.668492
832.663635	1248.954468	1794.930786	1251.852173	0.530738
832.967651	1243.901855	1817.890259	1254.081299	1.773458
833.271545	1245.982422	1860.094238	1256.087402	1.645463
833.575439	1246.130981	1928.527222	1252.595093	0.947267
833.879211	1248.583008	2017.393188	1261.140015	1.633304
834.183044	1246.353882	2106.407959	1271.542480	2.928723
834.486694	1244.570557	2175.137939	1290.266724	4.910571
834.790344	1252.892456	2224.994873	1288.260620	3.638317
835.093933	1260.025513	2238.443604	1283.505249	2.399765
835.397522	1262.105957	2214.889648	1276.149170	1.473914
835.700928	1255.270142	2152.401123	1275.034668	2.203081
836.004395	1253.858521	2099.423584	1272.954224	2.258336
836.307739	1246.948242	2043.250610	1268.495972	2.705973
836.611023	1244.273315	1986.631836	1267.975952	3.192883
836.914307	1238.329102	1922.211426	1270.279297	4.671885
837.217529	1245.536499	1853.778687	1271.616699	4.287798
837.520691	1254.081299	1792.404663	1275.034668	3.892339
837.823730	1255.121582	1734.374023	1266.861328	2.449595
838.126831	1250.663452	1701.681030	1263.814941	2.915959
838.429749	1246.205200	1680.876099	1256.384766	2.341902
838.732727	1245.313599	1660.368652	1263.889282	4.475475
839.035522	1247.691284	1629.310059	1267.307251	5.140200
839.338379	1254.006958	1612.294800	1266.861328	3.587722
839.641113	1251.332153	1618.090332	1263.963501	3.444053
839.943848	1255.270264	1641.718628	1261.288696	1.557370
840.246460	1246.948242	1659.105469	1261.808716	3.605535
840.549072	1253.338379	1675.377808	1253.189575	-0.035258
840.851563	1251.480713	1686.523071	1251.332153	-0.034148
841.154053	1254.229980	1690.163940	1253.338257	-0.204555
841.456482	1247.022583	1677.903931	1262.477539	3.586824
841.758850	1247.616943	1670.771118	1262.700439	3.564539
842.061157	1241.524048	1656.653442	1259.802612	4.403100
842.363403	1241.152710	1649.446167	1258.836792	4.331219
842.665588	1231.196045	1625.892212	1257.647827	6.701809
842.967712	1240.409546	1608.208130	1261.214355	5.656577
843.269775	1248.359985	1583.242310	1260.917114	3.749714
843.571777	1255.715942	1570.165039	1259.951050	1.346834
843.873840	1250.886353	1555.081665	1256.310425	1.783089
844.175659	1252.446655	1537.249023	1257.796387	1.878401
844.477600	1254.452881	1526.252319	1264.037842	3.526483
844.779297	1259.579712	1515.998413	1252.297974	-2.839784
845.081116	1252.297974	1515.032593	1244.421997	-2.997693
845.382751	1254.452759	1505.224609	1245.536499	-3.555526
845.684387	1250.217651	1501.435059	1249.623169	-0.236641
845.985962	1252.595215	1491.775757	1247.022461	-2.329936
846.287537	1253.115356	1493.336304	1238.775024	-5.969643
846.588989	1254.155640	1486.203125	1246.353882	-3.362139
846.890381	1251.257935	1481.521973	1255.567505	1.871578
847.191711	1249.623169	1471.045288	1257.425049	3.523532
847.493042	1249.177368	1474.091675	1259.579712	4.625025
847.794250	1249.920288	1478.549805	1249.177246	-0.324998
848.095459	1254.229980	1478.252563	1244.570435	-4.311862
848.396606	1254.378540	1469.484985	1245.239258	-4.248725
848.697693	1263.443481	1468.518921	1253.041016	-5.072507
848.998657	1259.876953	1469.262085	1255.938843	-1.880798
849.299622	1266.712769	1465.695435	1249.623169	-8.588487
849.600464	1256.756226	1455.590210	1247.245483	-4.783258
849.901367	1256.979248	1449.571777	1256.904907	-0.038600
850.202087	1248.360107	1449.869019	1257.202026	4.387855
850.502808	1250.143188	1450.017578	1254.898560	2.379180
850.803467	1246.651001	1453.138306	1250.143188	1.691236
851.104065	1249.028687	1459.602661	1257.127686	3.846154
851.404663	1251.703613	1464.878052	1266.489868	6.936223
851.705139	1250.217651	1456.036133	1264.929565	7.148005
852.005615	1244.124878	1449.943237	1260.025513	7.725567
852.306030	1241.449829	1441.175659	1257.424927	7.998514
852.606384	1239.666626	1443.627563	1262.997681	11.438982
852.906616	1240.261108	1442.067383	1263.443481	11.487439
853.206909	1244.496216	1446.451172	1258.167969	6.769704
853.506958	1248.359985	1445.336548	1249.920410	0.792188
853.807129	1253.561157	1450.166138	1249.771851	-1.927371
854.107178	1254.304199	1444.147827	1243.901855	-5.479427
854.407166	1252.892456	1444.816406	1234.836914	-9.407655
854.707092	1258.167969	1446.822632	1229.784302	-15.045303
855.007019	1257.945068	1453.063965	1234.614136	-11.957290
855.306763	1264.037964	1443.776001	1244.719238	-10.748268
855.606567	1251.629272	1432.407837	1245.165039	-3.575774
855.906250	1250.291870	1427.801147	1247.096802	-1.799944
856.205933	1245.759399	1438.649292	1248.211426	1.271205
856.505493	1248.657349	1448.605835	1249.771851	0.557395
856.805054	1240.409668	1442.290039	1250.366211	4.931902
857.104492	1239.518066	1436.494507	1249.994751	5.318750
857.403931	1238.254883	1426.760742	1255.195923	8.987010
857.703308	1238.254883	1439.243652	1255.493042	8.576678
858.002563	1240.484009	1444.667603	1258.242310	8.697222
858.301819	1248.137085	1446.525391	1263.071899	7.528072
858.601013	1258.539429	1443.776001	1265.449707	3.730515
858.900208	1256.607544	1437.980469	1254.750122	-1.024090
859.199219	1257.647827	1439.169312	1255.195923	-1.350752
859.498291	1244.570679	1439.317871	1256.013184	5.875568
859.797302	1247.765747	1445.187866	1256.681763	4.516219
860.096191	1242.118652	1438.352173	1254.155518	6.133950
860.395020	1249.251587	1430.030151	1248.731445	-0.287723
860.693787	1247.319824	1424.160278	1255.195801	4.453719
860.992554	1247.765625	1427.875366	1245.982300	-0.990133
861.291260	1246.948242	1433.819702	1251.554932	2.465165
861.589844	1248.062866	1435.900024	1259.579712	6.131292
861.888428	1246.874023	1436.643188	1265.598267	9.866852
862.186890	1252.075195	1429.658691	1266.564209	8.158987
862.485413	1247.914185	1427.206665	1262.254639	7.998358
862.783813	1249.474487	1420.667969	1261.511597	7.031290
863.082153	1244.273315	1428.841309	1258.465210	7.689250
863.380371	1245.759399	1432.705078	1250.812012	2.702717
863.678589	1247.839844	1439.986694	1243.158813	-2.436173
863.976746	1254.378540	1432.259277	1237.734619	-9.356787
864.274902	1252.446655	1428.618530	1243.604614	-5.018986
864.572937	1252.149414	1419.702148	1251.332153	-0.487763
864.870911	1244.867798	1425.720703	1259.133911	7.888241
865.168884	1242.267212	1416.804199	1254.006958	6.726223
865.466736	1240.038208	1431.070435	1253.858398	7.234481
865.764587	1241.226929	1427.503906	1247.839844	3.550044
866.062317	1244.570679	1441.398438	1252.818237	4.190242
866.360107	1242.192871	1433.150879	1250.069214	4.124647
866.657715	1241.895630	1424.977539	1257.796509	8.685118
866.955322	1241.895630	1413.832153	1250.440430	4.969741
867.252808	1247.394165	1412.048950	1241.969849	-3.294357
867.550293	1249.920410	1420.222290	1234.539673	-9.031455
867.847717	1254.081299	1424.457520	1239.666626	-8.460496
868.145081	1248.954468	1434.414063	1248.434326	-0.280461
868.442383	1245.462158	1432.407837	1251.703491	3.338581
868.739624	1247.096802	1434.711304	1253.338257	3.326745
869.036804	1247.245605	1421.113892	1248.657227	0.811891
869.333984	1254.229980	1423.194336	1249.325928	-2.902419
869.631042	1246.279541	1416.581421	1249.251709	1.745235
869.928101	1248.954346	1421.188110	1256.013184	4.098405
870.224976	1247.022461	1418.215942	1256.979126	5.816031
870.521851	1248.954468	1432.705078	1260.842773	6.469805
870.818726	1239.517944	1433.671021	1256.830444	8.916933
871.115479	1238.700684	1439.169556	1253.264038	7.264647
871.412231	1246.725342	1431.293335	1249.177246	1.328456
871.708862	1257.647827	1433.002319	1247.765503	-5.635626
872.005493	1250.960571	1427.652466	1243.530273	-4.205228
872.302063	1239.443726	1430.550171	1238.774902	-0.349974
872.598572	1239.517944	1431.590454	1242.341553	1.470074
872.895020	1239.963745	1440.432617	1251.555054	5.782099
873.191406	1245.239258	1437.980469	1257.796509	6.515084
873.487671	1241.152588	1442.884644	1253.263916	6.003671
873.783997	1243.381714	1446.525391	1253.561157	5.010958
874.080200	1243.233032	1454.327148	1246.725220	1.654327
874.376343	1247.839966	1453.732788	1245.908081	-0.938296
874.672424	1246.874023	1453.286987	1246.130981	-0.359978
874.968445	1255.418823	1453.212524	1258.985352	1.803156
875.264465	1258.316528	1452.320923	1270.873779	6.472663
875.560364	1261.883179	1448.382935	1270.353638	4.541807
875.856201	1255.344360	1447.714355	1262.254517	3.592118
876.152039	1249.994507	1448.160156	1255.121582	2.587267
876.447754	1249.623169	1445.782349	1244.570679	-2.575709
876.743469	1252.372314	1445.113647	1240.335327	-6.245151
877.039063	1248.731445	1446.302612	1243.381714	-2.707749
877.334595	1248.062866	1445.262329	1253.041138	2.524485
877.630127	1245.164917	1446.302368	1247.468384	1.145220
877.925537	1249.920288	1445.113647	1239.295166	-5.443383
878.221008	1247.022583	1453.212524	1228.967041	-8.756752
878.516296	1247.542603	1452.246704	1231.790527	-7.695046
878.811646	1244.719116	1463.391968	1236.025757	-3.975509
879.106812	1253.189819	1472.754272	1245.239380	-3.621005
879.401978	1245.833618	1486.425781	1249.400269	1.482447
879.697083	1249.400269	1500.171875	1250.812134	0.563008
879.992126	1249.920288	1517.410156	1249.697632	-0.083239
880.287109	1252.892578	1547.279785	1256.533325	1.236721
880.582031	1251.555176	1596.319702	1262.551880	3.189627
880.876892	1249.548950	1696.851196	1259.208130	2.159430
881.171753	1246.502563	1865.443970	1259.728394	2.136847
881.466492	1246.279541	2104.475830	1271.914063	2.987023
881.761230	1237.511841	2368.324951	1291.084106	4.737500
882.055786	1241.895630	2630.241943	1299.851685	4.174467
882.350403	1236.545898	2832.494141	1299.331665	3.934073
882.644958	1234.093872	2941.570313	1292.867310	3.442123
882.939453	1238.923584	2960.443359	1294.204834	3.211189
883.233826	1243.010254	2910.957764	1291.158447	2.886673
883.528137	1249.623047	2845.199463	1292.941650	2.714919
883.822449	1248.805786	2756.333740	1289.078003	2.671408
884.116577	1253.263916	2648.520508	1281.499023	2.023650
884.410828	1256.904785	2509.722900	1271.616699	1.174306
884.704956	1248.657104	2343.804932	1266.341187	1.614767
884.999023	1246.651001	2170.382324	1262.254639	1.689197
885.292969	1248.359985	2013.603882	1262.403198	1.835129
885.586914	1256.310303	1884.762817	1259.876831	0.567510
885.880798	1256.235962	1794.187866	1259.133789	0.538678
886.174622	1251.480713	1726.052246	1257.573608	1.283873
886.468384	1249.846069	1678.498413	1252.818237	0.693375
886.762085	1245.387939	1639.638062	1248.657349	0.829273
887.055664	1241.375610	1606.424805	1249.028687	2.096451
887.349304	1236.025757	1582.425171	1247.468384	3.303304
887.642822	1238.477783	1552.555298	1247.468262	2.862503
887.936340	1240.558228	1536.877563	1245.833740	1.780347
888.229736	1253.412598	1520.679565	1241.747070	-4.364747
888.523071	1255.047241	1512.952026	1244.347778	-4.148610
888.816284	1263.963745	1508.419556	1245.165039	-7.690022
889.109619	1254.081421	1496.531128	1252.669556	-0.582333
889.402710	1255.715942	1490.438354	1250.514771	-2.215882
889.695862	1248.731567	1474.166016	1245.759399	-1.318418
889.988892	1245.090698	1469.856445	1245.685059	0.264435
890.281921	1234.242554	1466.289917	1252.075195	7.684915
>>>>>End Processed Spectral Data<<<<<
