Jaz Data File
++++++++++++++++++++++++++++++++++++
Date: Fri Jun 04 14:19:14 2021
User: jaz
Dark Spectrum Present: Yes
Reference Spectrum Present: Yes
Processed Spectrum Present: Yes
Spectrometers: JAZA3586
Integration Time (usec): 40000 (JAZA3586)
Spectra Averaged: 10 (JAZA3586)
Boxcar Smoothing: 1 (JAZA3586)
Correct for Electrical Dark: No (JAZA3586)
Strobe/Lamp Enabled: Yes (JAZA3586)
Correct for Detector Non-linearity: No (JAZA3586)
Correct for Stray Light: No (JAZA3586)
Number of Pixels in Processed Spectrum: 2048
>>>>>Begin Processed Spectral Data<<<<<
W	D	R	S	P
191.335022	0.000000	0.000000	0.000000	0.000000
191.713211	261.099762	262.437225	249.137039	-894.433655
192.091385	524.205688	523.016846	511.054108	1106.250610
192.469528	787.088684	785.602722	774.457275	850.049316
192.847641	786.345642	791.323914	792.066956	114.925705
193.225739	792.735657	807.744873	796.153625	22.772467
193.603790	797.639709	821.416504	807.670593	42.187706
193.981842	811.608582	823.125488	810.568359	-9.032131
194.359863	812.054382	819.187500	819.261780	101.041336
194.737854	821.045105	821.936707	824.091492	341.675781
195.115829	820.302002	830.481445	828.326721	78.832596
195.493774	825.280273	828.103821	831.224548	210.525070
195.871704	826.840637	830.927246	827.955139	27.272049
196.249603	830.110046	827.806580	827.732239	103.227348
196.627457	822.010986	838.506165	816.289612	-34.685135
197.005310	818.072998	836.648621	810.865540	-38.800629
197.383133	815.323730	842.147034	811.162903	-15.511989
197.760910	821.788086	837.763184	827.435120	35.348976
198.138687	823.497070	825.874756	829.812805	265.625336
198.516449	822.754089	825.206055	824.537292	72.725464
198.894180	827.137939	823.571350	813.837708	372.911774
199.271866	824.017273	827.509460	810.494080	-387.241333
199.649536	825.726074	819.261780	818.444519	112.642693
200.027191	821.936707	819.261780	822.605469	-25.001141
200.404816	823.868591	827.732361	823.794250	-1.924049
200.782410	816.735535	842.146973	828.921204	47.953480
201.159988	812.425964	855.075684	824.760254	28.919979
201.537537	807.150391	855.521484	822.828308	32.411751
201.915070	804.252625	856.487488	814.877930	20.341406
202.292557	801.875000	852.846680	815.323730	26.384710
202.670029	804.995667	861.688660	813.540527	15.072164
203.047485	806.035889	857.824890	811.088440	9.756031
203.424911	806.556091	863.992004	805.590088	-1.681880
203.802292	804.624207	857.676270	812.203064	14.285698
204.179688	809.899658	859.905457	816.141052	12.481340
204.557037	818.370178	852.698059	818.667297	0.865533
204.934357	815.398010	851.063293	815.918152	1.458398
205.311661	814.729309	848.388489	804.549866	-30.242697
205.688934	809.379578	851.880676	803.881165	-12.937108
206.066177	810.791321	856.784729	799.645813	-24.232838
206.443390	807.521973	856.338867	801.206299	-12.937475
206.820587	814.060608	850.023132	798.531311	-43.181889
207.197769	811.905823	848.239807	802.692322	-25.357805
207.574921	816.438293	845.119141	803.361023	-45.595829
207.952042	803.732605	851.806458	804.326965	1.236349
208.329147	810.122559	851.657776	801.503479	-20.751257
208.706223	829.069763	871.199463	816.809814	-29.100489
209.083267	831.670349	880.338623	824.240051	-15.267231
209.460297	826.766357	881.676086	820.673523	-11.096093
209.837280	803.658203	872.834167	805.218567	2.255644
210.214264	807.076172	866.666992	794.073181	-21.820459
210.591217	807.744873	870.679260	802.172119	-8.854863
210.968124	805.441467	863.917786	802.543640	-4.955557
211.345016	796.970947	856.710449	810.568359	22.761175
211.721893	796.822327	847.868408	805.887268	17.758348
212.098724	806.927551	845.119141	810.122559	8.365735
212.475555	811.385742	844.970520	808.264954	-9.292271
212.852356	809.008057	847.571106	810.494080	3.853489
213.229126	799.571594	862.431702	807.893494	13.238761
213.605865	795.856445	865.775208	802.097900	8.926724
213.982590	791.695557	870.976379	796.822449	6.466749
214.359283	795.559265	860.351135	797.193909	2.522915
214.735931	800.463196	856.784668	809.082336	15.303472
215.112579	809.602478	854.481262	817.181335	16.887394
215.489197	807.967773	854.852783	814.060547	12.995142
215.865799	806.184570	854.629883	806.704651	1.073542
216.242355	800.983337	858.939453	794.816162	-10.641112
216.618896	798.382751	857.899231	794.221863	-6.991154
216.995407	800.983398	863.248962	798.902832	-3.341440
217.371902	801.726379	860.054016	800.760437	-1.656063
217.748367	805.292908	864.140686	802.395081	-4.924276
218.124802	793.032898	866.964172	795.039063	2.713553
218.501236	790.580872	867.112793	792.735779	2.815697
218.877609	793.924561	864.809387	787.831726	-8.595400
219.253983	811.385742	858.047852	790.432373	-44.904461
219.630295	817.404236	854.258301	800.908997	-44.758263
220.006592	809.528137	855.298584	803.732483	-12.662437
220.382889	800.240417	858.790833	804.921387	7.994767
220.759140	796.153625	871.199402	806.407410	13.663373
221.135391	801.206238	880.487305	812.351624	14.058067
221.511581	801.800720	882.121887	804.624207	3.515246
221.887772	804.475586	876.549255	796.525208	-11.030906
222.263931	797.342468	874.468750	794.964844	-3.082768
222.640060	796.302246	878.778320	803.286682	8.468439
223.016159	796.376526	881.898987	811.831543	18.071297
223.392212	798.605652	880.412903	813.763367	18.528572
223.768265	797.714050	880.933044	810.642639	15.535623
224.144302	789.094910	884.053711	800.834717	12.363053
224.520294	793.255859	880.487244	798.011230	5.451445
224.896286	795.113464	891.409729	804.104065	9.336396
225.272217	800.388916	893.936096	808.339294	8.498790
225.648148	797.045227	910.579895	805.664368	7.591638
226.024048	804.995667	918.084473	793.775879	-9.921219
226.399902	812.946106	928.041016	790.729492	-19.302864
226.775772	817.107117	924.845886	800.091614	-15.793296
227.151581	813.912048	928.932617	810.048279	-3.359199
227.527374	811.905823	932.499207	815.398010	2.895837
227.903137	805.887268	958.430847	804.178406	-1.120245
228.278870	798.679993	980.350098	798.085632	-0.327165
228.654572	786.940125	1017.873047	788.723450	0.772227
229.030273	791.398254	1043.358887	791.695496	0.117971
229.405930	791.918396	1060.374146	796.450867	1.688349
229.781555	797.416809	1063.346313	808.264954	4.079331
230.157181	800.611816	1063.123413	812.574524	4.557021
230.532761	800.463196	1059.631104	807.744812	2.809613
230.908325	798.382751	1051.309204	796.822449	-0.616900
231.283859	790.803772	1039.049194	804.326965	5.447510
231.659332	797.862610	1020.473633	810.568420	5.707629
232.034821	810.791321	1009.996887	820.747864	4.998125
232.410263	812.871765	1004.201172	813.540527	0.349534
232.785690	805.664368	1004.944336	819.187500	6.785997
233.161087	795.782166	1008.956726	819.038879	10.909704
233.536469	794.741882	1009.699707	818.964600	11.268591
233.911804	794.890442	1014.603699	808.562195	6.222543
234.287140	792.661438	1026.789429	806.704651	5.998092
234.662430	797.491150	1034.070923	802.469421	2.104268
235.037704	804.921387	1043.433105	803.361023	-0.654208
235.412933	805.812988	1040.089478	798.531433	-3.108103
235.788162	810.642761	1040.386719	806.258789	-1.908199
236.163345	807.744934	1044.101929	806.407410	-0.565892
236.538513	804.104004	1052.126587	808.116394	1.617752
236.913635	791.546875	1057.847900	800.166016	3.236616
237.288742	801.354919	1058.962280	804.475586	1.211404
237.663834	809.973938	1060.225464	808.785156	-0.475035
238.038879	814.357849	1071.668091	820.153503	2.252399
238.413910	806.927551	1068.918823	821.342285	5.501990
238.788910	803.212402	1073.154175	819.484680	6.028069
239.163879	809.453796	1079.841431	807.299072	-0.796902
239.538834	809.453796	1099.160156	805.218567	-1.461904
239.913757	811.831482	1122.268311	807.893494	-1.268531
240.288651	812.500244	1149.537476	804.698425	-2.314824
240.663528	812.054443	1190.923950	801.949280	-2.667188
241.038361	810.271179	1238.923706	797.936951	-2.877442
241.413177	804.847107	1294.353394	805.515808	0.136607
241.787979	807.521912	1357.807861	807.819153	0.054016
242.162735	805.887268	1422.822754	815.546692	1.565711
242.537476	805.070007	1469.262085	819.261902	2.136715
242.912170	803.658203	1503.292603	827.955261	3.472822
243.286865	809.156555	1501.880859	828.846924	2.842454
243.661514	805.441467	1494.153320	827.360840	3.182662
244.036148	800.760437	1453.881470	819.707581	2.901016
244.410751	796.822327	1434.488281	812.054443	2.388730
244.785339	800.463196	1421.931152	811.534363	1.781454
245.159882	793.627380	1441.026855	815.323730	3.351308
245.534378	793.924622	1474.314453	825.651855	4.663096
245.908890	798.457031	1549.657349	827.880859	3.916908
246.283356	805.070007	1655.984741	835.459778	3.571424
246.657791	804.549866	1783.636719	835.979919	3.210140
247.032196	795.187744	1894.793579	842.518555	4.304343
247.406586	792.884338	1982.916626	836.128479	3.633863
247.780960	799.274414	2019.399414	839.620789	3.306741
248.155289	809.082336	2003.350098	843.855957	2.911711
248.529602	811.088562	1925.257813	854.332703	3.881290
248.903870	806.778992	1815.438477	857.156250	4.994476
249.278122	806.630371	1712.974976	857.156250	5.574687
249.652344	813.986328	1636.517578	852.252258	4.652216
250.026550	810.271179	1586.585938	837.688965	3.531787
250.400711	810.642761	1546.610962	829.961426	2.624932
250.774857	804.178406	1536.134399	825.503235	2.913403
251.148987	806.035950	1543.267578	828.029541	2.983268
251.523071	802.097839	1572.245605	826.097656	3.116261
251.897125	810.271179	1597.508423	822.902588	1.604524
252.271164	808.413574	1626.263672	820.896484	1.526308
252.645187	809.453796	1645.433716	826.617859	2.053167
253.019165	804.698425	1640.083984	832.636292	3.344308
253.393112	809.751038	1616.530151	840.438171	3.803660
253.767044	804.624207	1569.422241	837.391663	4.284459
254.140930	801.577820	1532.196411	835.757019	4.678118
254.514801	796.228027	1493.856079	828.326721	4.601119
254.888657	794.741882	1488.432129	828.029480	4.798625
255.262466	793.107239	1490.141113	828.921143	5.138043
255.636276	796.005066	1514.363770	835.533997	5.502673
256.010010	800.240295	1533.533813	836.202820	4.904247
256.383759	801.726379	1572.319824	831.819031	3.905127
256.757446	798.902832	1619.279297	831.596008	3.985143
257.131134	800.834717	1675.674927	828.772644	3.193489
257.504791	797.788330	1744.330688	832.413391	3.658057
257.878418	796.153625	1838.397827	825.057434	2.773228
258.252014	796.153625	1960.031250	834.568176	3.300566
258.625580	802.023621	2111.608887	838.506165	2.785809
258.999115	807.150452	2300.709229	853.886902	3.129200
259.372650	803.361023	2517.301758	856.710388	3.112673
259.746124	799.051453	2704.470459	870.233459	3.735767
260.119598	799.868835	2833.459961	881.453186	4.011837
260.493042	800.537537	2868.382080	881.601807	3.920230
260.866425	807.299072	2815.181641	877.812317	3.511821
261.239838	800.314636	2666.130127	879.001221	4.217276
261.613159	798.679932	2483.345459	875.731934	4.573727
261.986511	791.621277	2318.839355	863.100403	4.680348
262.359802	798.382751	2195.719727	847.645508	3.525475
262.733063	796.971008	2129.664307	839.843567	3.216986
263.106293	800.611816	2098.828857	838.877747	2.947576
263.479523	805.738586	2078.469727	841.255371	2.790596
263.852692	812.574524	2065.318359	841.552551	2.313164
264.225861	817.478516	2044.587891	848.239929	2.506819
264.598969	816.066833	2055.584717	844.376160	2.283898
264.972076	812.648865	2071.857178	852.400879	3.156905
265.345154	814.209229	2123.125977	853.663879	3.014298
265.718201	810.791321	2181.453613	856.933289	3.366399
266.091217	811.608582	2253.304443	860.797058	3.411849
266.464203	810.048279	2326.641357	865.329529	3.645095
266.837158	809.751160	2392.473389	867.261414	3.633629
267.210114	807.521973	2448.274658	861.019958	3.260576
267.583038	796.673828	2468.336426	859.979675	3.786999
267.955902	784.785339	2488.175293	862.208801	4.545258
268.328766	792.810059	2484.906006	875.211853	4.869806
268.701569	798.754211	2503.333008	870.159180	4.189009
269.074371	808.859375	2524.880859	866.592590	3.364364
269.447144	800.091736	2575.629639	856.338867	3.167892
269.819885	804.549866	2652.087158	861.688660	3.092700
270.192596	804.326904	2782.859619	865.106628	3.071959
270.565277	808.636475	2949.595459	876.177673	3.154717
270.937927	803.212402	3119.971436	877.812317	3.220012
271.310577	804.549866	3240.267334	887.323059	3.398309
271.683136	807.521973	3332.625732	893.118713	3.389831
272.055725	806.630371	3366.284424	900.623291	3.672095
272.428284	806.481750	3355.956787	900.994812	3.707158
272.800812	804.104065	3286.929688	898.765808	3.812662
273.173279	803.806824	3195.462891	894.233215	3.780911
273.545776	800.983215	3134.014404	890.741028	3.847261
273.918152	795.930664	3073.309326	886.728699	3.986954
274.290558	795.039063	3045.817139	886.134277	4.047276
274.662964	797.936951	3029.321533	888.289063	4.049150
275.035278	802.543640	3055.550781	887.323059	3.762945
275.407593	807.893494	3088.243896	888.214661	3.522317
275.779907	807.967773	3128.367432	885.985657	3.362261
276.152161	810.196838	3194.199951	885.093994	3.141655
276.524384	801.206238	3265.975830	888.809082	3.554200
276.896606	799.868835	3310.706299	896.685242	3.855941
277.268799	798.531433	3315.981689	900.697571	4.058318
277.640930	801.875000	3310.631836	899.360107	3.885793
278.013031	801.577820	3320.811279	892.821472	3.621882
278.385162	790.506653	3317.467773	893.936035	4.093034
278.757233	788.797668	3326.681641	900.251770	4.391615
279.129272	789.466492	3355.510986	900.103210	4.311567
279.501282	795.039063	3407.968750	899.880188	4.012397
279.873230	804.624207	3495.423096	893.713074	3.310871
280.245178	805.664368	3602.196045	906.047363	3.589553
280.617126	807.224792	3755.408203	915.483826	3.672059
280.988983	802.320801	3901.413086	925.217468	3.965570
281.360870	803.806824	4038.204346	930.121399	3.905351
281.732697	806.184509	4147.206543	930.641602	3.725121
282.104492	802.320740	4213.409668	932.127625	3.805438
282.476288	802.989502	4238.747559	927.595215	3.626731
282.848053	803.435303	4226.710449	929.527039	3.683366
283.219757	807.076172	4231.242676	928.189514	3.537017
283.591461	800.760437	4209.323730	932.053284	3.851853
283.963135	798.679932	4220.988770	936.288574	4.020930
284.334747	802.320801	4270.325684	941.564148	4.015085
284.706360	801.206238	4375.761719	947.656921	4.097032
285.077942	808.933777	4499.698242	951.372070	3.859317
285.449524	803.955383	4591.908203	958.876648	4.089841
285.821014	806.110168	4637.381348	952.337952	3.816691
286.192535	803.361023	4682.037598	950.406189	3.791117
286.563995	804.921387	4691.102539	947.508301	3.669075
286.935425	806.853271	4681.220215	953.824036	3.793414
287.306824	810.568359	4599.858398	951.594910	3.721714
287.678223	802.469299	4479.785156	948.548523	3.972441
288.049561	801.800598	4392.999512	942.827148	3.927005
288.420898	796.599426	4354.511230	939.483582	4.015955
288.792145	802.766602	4404.591309	936.660156	3.717381
289.163452	801.949280	4508.020996	942.975891	3.805285
289.534668	802.469421	4657.666504	953.824036	3.925989
289.905914	805.144287	4808.055176	956.870422	3.790395
290.277039	805.441467	4938.679199	956.424622	3.652903
290.648193	805.070007	5017.216797	954.641357	3.550953
291.019318	804.846985	5036.981445	959.248108	3.648304
291.390381	806.110168	4973.378418	954.715637	3.566016
291.761475	793.255859	4872.995605	951.817871	3.886572
292.132507	790.878174	4795.126465	944.833435	3.844798
292.503510	791.472595	4761.764160	949.960266	3.991840
292.874481	802.915222	4791.336426	951.520691	3.725922
293.245422	799.868835	4897.292480	960.585632	3.922386
293.616364	802.617981	5066.702637	966.083923	3.833553
293.987213	796.525146	5232.843262	976.337708	4.053194
294.358093	797.565369	5379.442871	982.653381	4.039567
294.728943	789.986511	5541.423340	982.356262	4.048665
295.099731	797.788330	5704.220215	989.638000	3.910167
295.470490	797.639709	5827.116699	994.616272	3.916442
295.841248	802.172180	5935.598145	998.257080	3.819767
296.211975	799.645935	6079.002441	997.216858	3.742330
296.582642	801.503418	6236.673340	1008.436584	3.807299
296.953308	795.856445	6317.663574	1009.848328	3.875396
297.323883	791.101074	6300.871094	1008.956726	3.953988
297.694519	791.918457	6175.596191	999.966003	3.864413
298.065063	798.828552	6022.458496	999.743164	3.846264
298.435608	801.726379	5817.308594	987.854675	3.711001
298.806122	802.320801	5597.892578	977.006531	3.642647
299.176575	798.234131	5356.334473	970.244934	3.773739
299.547028	799.571594	5201.858887	965.861084	3.777343
299.917450	798.234131	5132.163574	965.861084	3.867782
300.287872	800.983215	5120.052246	962.740295	3.745184
300.658234	803.212341	5094.046387	962.963196	3.723072
301.028564	808.636536	5051.842285	957.985046	3.519710
301.398865	806.481750	5010.306641	959.025208	3.628683
301.769135	804.326965	4951.533203	959.173828	3.733763
302.139374	801.057617	4912.821289	963.706299	3.955691
302.509583	803.435303	4860.735352	956.127441	3.763393
302.879791	800.388916	4784.946289	950.554688	3.768694
303.249939	800.834717	4697.714844	945.873535	3.721921
303.620087	800.908997	4638.421387	943.050049	3.703989
303.990173	805.441467	4634.409668	942.678650	3.584182
304.360260	803.138123	4640.799316	940.449524	3.577997
304.730286	807.447693	4632.700684	947.954102	3.673127
305.100281	809.973938	4628.242188	946.765198	3.582547
305.470276	812.351624	4623.115234	948.028381	3.560356
305.840179	809.082336	4638.570313	940.003662	3.418768
306.210144	798.382751	4655.437012	940.300964	3.679446
306.579987	793.775940	4690.136719	939.780762	3.747210
306.949890	791.026794	4751.287598	952.189270	4.069491
307.319702	799.125732	4840.970703	956.127441	3.884407
307.689484	805.292908	4969.663086	967.495789	3.895016
308.059265	804.772766	5090.553711	966.009766	3.762138
308.429016	801.057617	5189.450684	965.712585	3.752056
308.798737	798.977234	5279.728516	960.288391	3.600092
309.168396	799.794495	5345.263672	961.625793	3.560277
309.538055	798.011230	5387.615723	976.263428	3.883825
309.907684	792.438477	5396.086426	978.938416	4.051134
310.277313	791.249695	5442.896973	981.018799	4.079611
310.646851	794.296082	5457.980469	988.300537	4.159896
311.016388	798.085449	5440.445313	989.489319	4.122986
311.385895	795.633484	5339.318848	990.083801	4.279572
311.755371	800.240234	5252.979492	974.034363	3.903083
312.124817	802.915100	5184.769043	968.535950	3.779698
312.494232	806.778992	5127.110352	964.449402	3.649498
312.863617	807.967773	5095.234375	968.758972	3.750436
313.232971	811.831543	5117.822754	971.656738	3.711694
313.602295	812.797424	5201.041992	972.102539	3.630270
313.971619	807.744934	5316.210938	978.418213	3.785618
314.340820	800.091614	5343.034180	967.421387	3.683291
314.710083	797.936951	5349.795898	966.901367	3.711987
315.079285	798.308411	5250.750488	964.820801	3.739799
315.448486	799.051453	5186.626953	969.204651	3.878069
315.817596	794.296082	5024.201172	962.888977	3.985737
316.186707	791.249573	4892.759766	945.204895	3.753625
316.555786	788.277527	4741.999512	943.124329	3.916482
316.924866	792.735657	4670.965820	943.124451	3.877769
317.293884	790.803894	4649.270020	947.656921	4.065166
317.662872	792.958679	4669.183105	943.718811	3.889355
318.031830	799.200012	4706.928223	944.313293	3.713495
318.400757	812.797424	4756.785645	944.833435	3.347779
318.769684	822.902649	4791.931152	950.034485	3.203097
319.138550	822.308289	4808.277832	948.176941	3.157793
319.507416	813.763428	4794.977051	943.570251	3.260484
319.876190	808.933655	4740.438965	945.130554	3.464243
320.244995	804.326904	4671.634766	947.433899	3.700429
320.613770	807.596252	4594.137207	943.867493	3.598832
320.982483	803.063782	4590.347656	941.192566	3.647173
321.351166	803.881165	4603.945313	937.403137	3.513677
321.719818	801.800720	4684.935547	941.861267	3.606894
322.088440	804.252625	4790.519531	942.901550	3.478165
322.457062	803.583984	4975.979004	956.053162	3.654236
322.825623	802.617981	5160.621582	964.449280	3.713428
323.194183	802.617981	5331.294434	968.164551	3.655518
323.562653	806.333191	5439.851074	973.439941	3.606477
323.931183	810.196960	5474.699219	977.006531	3.576149
324.299591	807.596252	5455.231934	976.857910	3.641887
324.668060	807.373352	5376.768066	967.124268	3.496107
325.036407	805.515808	5297.486816	958.430847	3.404186
325.404755	808.116394	5198.515625	961.477295	3.493097
325.773102	803.509583	5123.915527	958.876648	3.596122
326.141388	802.246399	5031.854980	960.288513	3.736566
326.509674	798.828552	4925.973145	949.737488	3.656497
326.877899	801.577820	4826.927246	949.217285	3.667743
327.246124	797.193909	4764.661621	943.496033	3.687544
327.614288	798.382751	4734.346680	945.502136	3.737823
327.982422	793.553040	4713.913574	947.954102	3.938440
328.350525	798.531311	4710.792969	958.802246	4.096631
328.718628	801.875000	4735.832520	966.901367	4.194920
329.086700	810.494080	4782.271973	964.003479	3.865005
329.454712	808.413574	4838.072754	963.632019	3.851900
329.822693	808.116394	4884.586426	967.272766	3.904269
330.190674	804.698486	4948.635254	969.873352	3.985941
330.558563	804.178406	4997.897949	976.114807	4.099854
330.926483	805.664490	5079.259766	974.182922	3.943247
331.294312	800.909119	5177.710449	980.350098	4.099820
331.662231	796.525146	5302.539063	982.430603	4.125719
332.029999	789.392090	5413.770996	987.780457	4.290054
332.397766	791.175354	5502.859375	992.015625	4.262600
332.765503	795.707825	5568.691406	996.845276	4.214082
333.133240	798.902832	5606.140625	995.953674	4.099045
333.500916	802.915222	5609.409668	994.913391	3.994557
333.868561	800.983337	5586.152832	986.963074	3.886586
334.236176	800.091736	5548.481934	983.099304	3.854097
334.603790	792.661377	5507.392090	981.761902	4.010845
334.971344	792.438477	5473.881348	983.619446	4.083805
335.338867	791.695496	5440.073730	986.071472	4.181587
335.706360	799.200012	5429.151855	988.746338	4.093916
336.073853	809.156677	5441.188477	994.170410	3.994224
336.441284	811.608582	5485.472656	1002.492249	4.084065
336.808655	808.636475	5526.859375	1002.715149	4.113385
337.176086	806.481689	5570.177734	1000.709045	4.077240
337.543396	807.967773	5599.378906	996.845398	3.942004
337.910706	805.590088	5625.830566	999.594482	4.024787
338.277954	798.977234	5613.867676	999.891663	4.172772
338.645264	796.153625	5560.666504	1001.080566	4.301110
339.012421	795.484863	5496.691895	1004.349915	4.442796
339.379669	797.714050	5379.070801	1007.470520	4.578479
339.746796	799.794434	5300.681641	1004.052734	4.538178
340.113953	801.206299	5233.957520	996.176575	4.398404
340.481018	797.268250	5249.709961	991.569824	4.363933
340.848114	794.370422	5269.103027	1000.486145	4.606214
341.215118	792.067078	5333.746582	1005.390137	4.697008
341.582153	791.992676	5458.797852	1011.705872	4.708000
341.949066	790.432373	5644.925781	1021.142334	4.752503
342.316010	799.868835	5856.020020	1041.501343	4.778981
342.682922	803.732605	6092.005859	1053.686890	4.726576
343.049835	812.425964	6371.607422	1074.863159	4.720788
343.416656	808.710754	6674.167969	1085.414185	4.717508
343.783478	802.766602	6965.138184	1103.246826	4.876049
344.150269	797.193848	7183.364746	1101.092041	4.758692
344.516998	796.525208	7289.841309	1104.584351	4.744250
344.883728	797.862610	7243.624512	1108.002197	4.811527
345.250427	795.113342	7142.201172	1108.002197	4.929644
345.617065	793.181580	6982.598145	1101.983643	4.989195
345.983704	792.809998	6841.720215	1084.894043	4.828705
346.350281	790.135071	6673.870605	1074.343018	4.830400
346.716827	789.020569	6498.888184	1064.980835	4.833041
347.083405	791.324036	6341.291504	1062.454590	4.885264
347.449860	801.503418	6221.886719	1060.299805	4.774503
347.816376	805.961609	6166.234375	1064.683716	4.826659
348.182770	810.939941	6162.519043	1067.953003	4.802565
348.549194	808.042175	6219.806152	1075.531860	4.942745
348.915558	812.723145	6327.322754	1081.773315	4.878870
349.281921	810.865662	6415.742188	1088.832031	4.959367
349.648193	810.865540	6468.349121	1090.986816	4.951341
350.014526	807.967773	6481.054688	1090.615356	4.982254
350.380737	803.138184	6525.265137	1092.621460	5.059015
350.746948	795.559265	6575.270996	1100.794800	5.281155
351.113159	789.912292	6652.545410	1098.565796	5.264759
351.479309	791.546875	6716.966309	1103.989868	5.272926
351.845428	795.113464	6853.906250	1106.144653	5.133550
352.211517	804.698486	6989.657715	1122.713989	5.141756
352.577576	811.608582	7135.142090	1131.704712	5.061982
352.943604	810.196838	7264.949219	1137.946167	5.077644
353.309601	804.252686	7421.355957	1154.367065	5.291052
353.675537	797.193909	7628.066406	1163.654907	5.364776
354.041473	804.401306	7807.135254	1173.611450	5.272371
354.407379	804.921387	7934.639160	1173.388550	5.168047
354.773254	811.385681	8063.257324	1194.119019	5.277718
355.139038	803.435303	8217.063477	1209.648315	5.479274
355.504913	795.856445	8512.044922	1222.205444	5.525383
355.870636	791.769775	8830.209961	1229.041382	5.439757
356.236389	795.336365	9178.465820	1245.610840	5.371198
356.602081	800.908997	9479.913086	1271.839722	5.426092
356.967804	802.915222	9704.305664	1291.752808	5.491699
357.333405	807.224792	9851.425781	1299.480347	5.442775
357.699036	807.521973	9870.224609	1300.520630	5.439863
358.064606	807.744934	9846.745117	1297.622803	5.419602
358.430176	801.800720	9767.092773	1298.885864	5.544550
358.795654	799.051514	9785.593750	1291.827148	5.483484
359.161163	803.732483	9933.530273	1301.189331	5.448717
359.526581	809.156677	10303.707031	1324.148804	5.424081
359.892029	809.305176	10862.240234	1367.690308	5.554449
360.257416	802.840820	11492.327148	1391.392700	5.505895
360.622772	796.450867	12085.411133	1420.222290	5.525499
360.988098	798.308411	12502.398438	1438.500610	5.469816
361.353394	798.308411	12711.784180	1461.460327	5.566402
361.718658	806.630371	12620.762695	1448.011353	5.428930
362.083893	807.670593	12221.088867	1416.804321	5.336997
362.449097	808.264954	11590.407227	1373.485840	5.242195
362.814209	801.800598	10842.475586	1333.436646	5.294824
363.179382	801.280579	10105.690430	1296.731079	5.324900
363.544434	801.057617	9537.200195	1273.920044	5.412714
363.909546	801.429138	9155.284180	1256.087524	5.442498
364.274536	798.308411	8955.558594	1252.298096	5.565475
364.639587	795.484924	8770.990234	1235.357056	5.515288
365.004517	796.153625	8669.493164	1228.298340	5.488709
365.369507	801.429199	8575.425781	1217.672974	5.354309
365.734344	802.023621	8562.496094	1215.889771	5.333002
366.099274	807.447571	8532.625977	1222.279785	5.369873
366.464081	804.475586	8513.976563	1217.524414	5.357660
366.828918	805.812988	8445.915039	1220.942383	5.433558
367.193665	796.450867	8344.714844	1215.741089	5.554790
367.558411	801.726379	8262.239258	1214.775269	5.536468
367.923126	804.029724	8169.658691	1207.270630	5.474630
368.287781	809.007996	8111.107910	1208.236572	5.467312
368.652435	802.989502	8038.142578	1208.087891	5.599030
369.017059	802.915222	8035.839355	1212.248901	5.659311
369.381653	807.076172	8070.835449	1214.700806	5.611759
369.746185	810.271179	8163.491699	1220.942261	5.584914
370.110687	815.249512	8271.527344	1229.635742	5.557548
370.475220	807.150452	8372.430664	1229.189819	5.578635
370.839661	811.385742	8445.543945	1237.957642	5.587674
371.204041	805.887268	8496.367188	1237.140381	5.607623
371.568451	813.614807	8504.020508	1235.282837	5.483040
371.932770	811.014221	8493.989258	1226.515015	5.408072
372.297150	807.819153	8448.739258	1222.428345	5.426168
372.661377	796.822449	8450.225586	1223.765747	5.578476
373.025696	792.215637	8457.284180	1227.480835	5.678556
373.389862	793.330261	8501.940430	1229.635620	5.659974
373.754059	801.875000	8576.614258	1233.350830	5.549715
374.118225	799.571594	8710.657227	1239.220703	5.557380
374.482361	794.147461	8908.301758	1254.006958	5.667374
374.846436	788.574768	9125.860352	1269.164673	5.764345
375.210510	791.323975	9460.519531	1288.780640	5.738210
375.574524	799.051453	9813.977539	1309.511108	5.662384
375.938538	804.401184	10193.218750	1336.705933	5.669561
376.302460	801.057617	10468.362305	1354.167114	5.721445
376.666412	800.537537	10693.945313	1360.036987	5.655275
377.030304	804.252625	10736.223633	1354.761475	5.542796
377.394196	802.023499	10652.632813	1347.851318	5.541056
377.757996	799.274353	10414.790039	1336.185913	5.583804
378.121796	805.590088	10116.389648	1304.830078	5.361945
378.485565	808.042053	9778.981445	1278.006836	5.238747
378.849304	806.407410	9489.274414	1259.505371	5.218299
379.212982	793.107239	9306.341797	1263.220581	5.522147
379.576630	789.837891	9201.277344	1262.031738	5.613710
379.940277	788.500488	9163.234375	1259.059692	5.618795
380.303864	793.478760	9129.204102	1258.539551	5.579128
380.667450	802.395081	9140.274414	1254.675781	5.424409
381.030945	804.178406	9130.168945	1258.762451	5.459820
381.394501	802.246582	9174.231445	1267.010010	5.551413
381.757935	806.630371	9228.026367	1290.118164	5.741183
382.121399	813.912109	9332.496094	1295.765015	5.656491
382.484741	813.540527	9500.643555	1287.071655	5.450967
382.848145	804.401306	9653.112305	1284.916992	5.430347
383.211487	799.423035	9820.144531	1295.245117	5.496479
383.574768	801.577820	9924.912109	1307.133423	5.541347
383.938019	805.144287	10006.644531	1310.031250	5.487007
384.301270	801.131897	10016.229492	1307.207642	5.491811
384.664459	800.388916	10044.761719	1316.941284	5.587749
385.027649	799.348633	10060.737305	1320.805054	5.630435
385.390778	800.686096	10175.832031	1332.247803	5.669904
385.753876	792.958679	10257.565430	1338.489258	5.763901
386.116943	793.998840	10383.433594	1349.783203	5.795799
386.479980	792.884338	10433.959961	1350.377686	5.782481
386.842987	809.453918	10493.252930	1347.554199	5.556706
387.205994	805.887390	10503.655273	1343.318970	5.541807
387.568909	810.419739	10482.478516	1344.879272	5.525809
387.931793	803.435303	10400.746094	1340.421021	5.595169
388.294678	803.732605	10362.257813	1335.591309	5.564234
388.657471	801.503479	10351.112305	1330.390137	5.538307
389.020294	800.314636	10402.603516	1336.037231	5.579113
389.383057	803.732483	10552.695313	1347.479858	5.577489
389.745819	806.258789	10753.312500	1360.185669	5.568753
390.108521	804.698425	11008.839844	1367.095703	5.511461
390.471191	801.949219	11309.988281	1384.705566	5.545815
390.833801	801.280518	11596.871094	1405.510376	5.597006
391.196442	801.577698	11842.293945	1424.680298	5.643679
391.558960	809.899658	11903.742188	1434.191040	5.627368
391.921509	811.459961	11883.011719	1428.098267	5.569574
392.284027	808.933777	11825.425781	1434.711304	5.680370
392.646484	799.348633	11783.000000	1419.256226	5.643912
393.008911	796.005066	11729.426758	1425.497681	5.757508
393.371307	795.039063	11733.811523	1428.395508	5.790014
393.733673	797.788330	11723.558594	1435.751465	5.839067
394.096008	804.104004	11683.062500	1433.819458	5.788380
394.458344	811.162781	11546.346680	1422.822754	5.697713
394.820587	814.134949	11274.992188	1403.132446	5.630490
395.182831	804.401184	11034.995117	1389.237915	5.716547
395.545013	794.816223	10763.938477	1360.259766	5.671949
395.907196	792.438538	10571.865234	1353.201050	5.734104
396.269287	797.862610	10408.101563	1339.603760	5.637125
396.631409	798.011230	10330.158203	1347.182617	5.761256
396.993469	796.673828	10272.871094	1346.513794	5.802327
397.355530	790.358093	10270.864258	1346.588257	5.867094
397.717499	795.336365	10308.610352	1342.798828	5.754722
398.079468	796.005066	10348.957031	1344.507813	5.741709
398.441376	796.599548	10381.278320	1345.622192	5.728128
398.803284	789.020691	10346.654297	1354.092773	5.912259
399.165131	786.568665	10356.981445	1353.721313	5.926104
399.526978	790.432373	10310.617188	1353.052612	5.909762
399.888763	799.125793	10284.240234	1344.879272	5.753789
400.250519	810.345459	10282.679688	1343.170288	5.625064
400.612244	816.438293	10323.843750	1342.501587	5.533195
400.973938	818.815918	10416.423828	1345.696655	5.489709
401.335602	813.614807	10482.405273	1353.944214	5.588387
401.697205	815.546692	10654.712891	1369.622070	5.631325
402.058807	813.169128	10827.095703	1384.854126	5.708899
402.420349	812.203064	11108.480469	1402.092407	5.729152
402.781860	803.361023	11344.167969	1415.689819	5.809126
403.143341	802.469421	11612.920898	1424.011597	5.749456
403.504822	797.565430	11849.426758	1434.637085	5.764383
403.866241	797.639709	12035.554688	1448.531616	5.791928
404.227631	797.119629	12158.823242	1461.683105	5.849154
404.588959	800.537537	12184.531250	1468.890625	5.870989
404.950287	803.138123	12162.092773	1452.915405	5.720397
405.311554	802.617981	12046.402344	1449.943359	5.757185
405.672821	798.382751	11935.989258	1436.866089	5.732680
406.034027	804.921387	11774.010742	1431.664917	5.713724
406.395203	798.828613	11589.738281	1422.674194	5.781214
406.756348	803.361023	11418.469727	1408.110962	5.697068
407.117493	795.856445	11331.981445	1399.120239	5.725670
407.478516	810.048279	11350.706055	1394.884888	5.548388
407.839600	808.264954	11394.397461	1410.339966	5.687393
408.200592	808.116394	11513.651367	1430.401733	5.812744
408.561554	803.732483	11648.065430	1430.030273	5.775346
408.922485	808.413574	11824.906250	1435.008423	5.687789
409.283417	807.076172	11925.289063	1432.036499	5.621050
409.644257	807.150452	12051.604492	1441.175659	5.638559
410.005096	800.908997	12160.011719	1439.243652	5.619587
410.365906	800.537598	12188.320313	1438.054810	5.598256
410.726715	799.645813	12164.023438	1440.135376	5.635941
411.087433	801.875000	12072.557617	1440.358276	5.664992
411.448120	809.750977	12031.319336	1437.757690	5.596426
411.808807	808.785156	11978.340820	1424.606079	5.513388
412.169434	808.636536	11910.131836	1421.856812	5.523763
412.530029	802.692322	11953.003906	1434.636841	5.667505
412.890564	800.388916	12028.050781	1447.788452	5.766112
413.251099	804.772766	12204.519531	1463.020508	5.774231
413.611572	806.704651	12352.753906	1462.723511	5.681761
413.972076	806.184509	12510.721680	1474.611694	5.710838
414.332489	802.543640	12648.776367	1474.091675	5.668874
414.692871	803.063721	12856.303711	1485.311401	5.660285
415.053223	803.138123	13077.799805	1496.159668	5.645952
415.413574	807.224792	13379.246094	1510.351440	5.592789
415.773834	807.150452	13642.277344	1535.168457	5.672075
416.134094	816.141113	13949.221680	1554.412720	5.621466
416.494263	810.196960	14254.084961	1574.028687	5.681628
416.854462	804.698486	14685.858398	1594.387695	5.688928
417.214630	797.491150	15153.223633	1618.090332	5.716178
417.574738	798.159851	15629.578125	1646.325562	5.718709
417.934784	808.487976	16142.340820	1672.925781	5.637447
418.294861	807.373352	16777.927734	1706.807983	5.631831
418.654846	806.110291	17472.138672	1745.816772	5.638454
419.014832	800.760437	18191.164063	1785.197266	5.660805
419.374756	798.679932	18926.166016	1829.184448	5.684762
419.734680	801.577820	19708.869141	1877.927124	5.692774
420.094543	808.190735	20352.554688	1918.644897	5.681710
420.454376	809.528137	20790.048828	1932.167969	5.618671
420.814148	805.441467	21072.697266	1945.542358	5.625334
421.173920	795.039063	21276.138672	1959.808594	5.687046
421.533691	793.553040	21401.560547	1976.080933	5.738196
421.893341	794.073181	21414.712891	1971.102539	5.708015
422.253021	803.063782	21394.652344	1949.777710	5.568846
422.612640	802.097900	21329.414063	1947.102661	5.577956
422.972260	812.574646	21333.423828	1950.297729	5.544230
423.331757	807.299011	21420.507813	1961.963257	5.601575
423.691315	810.865662	21623.427734	1966.867310	5.554346
424.050781	795.782043	21670.386719	1970.285278	5.626469
424.410248	792.512878	21484.037109	1959.065552	5.637829
424.769653	789.763672	21174.566406	1938.855103	5.637001
425.128998	799.125793	20793.839844	1919.610718	5.603905
425.488373	801.057617	20273.943359	1884.762695	5.565200
425.847656	802.395081	19728.636719	1865.741211	5.618370
426.206940	799.274414	19217.136719	1823.240234	5.559634
426.566193	796.153625	18773.919922	1814.472534	5.664324
426.925385	795.336243	18289.912109	1783.934082	5.650882
427.284576	796.525146	17809.248047	1764.169434	5.687768
427.643677	803.212402	17428.966797	1732.739624	5.590888
428.002777	804.178406	17131.755859	1714.015137	5.572393
428.361847	804.326965	16847.326172	1703.166992	5.602693
428.720856	800.463196	16587.562500	1694.102051	5.660564
429.079865	800.760437	16414.140625	1682.659546	5.648355
429.438812	803.138184	16358.114258	1676.640991	5.615584
429.797760	799.200012	16345.335938	1675.303345	5.635506
430.156616	800.760437	16211.367188	1670.325195	5.642638
430.515503	802.172180	16103.257813	1662.746216	5.624268
430.874268	806.927551	16062.688477	1658.956909	5.584968
431.233093	803.361023	16221.621094	1673.074341	5.640801
431.591827	795.262024	16419.861328	1685.260132	5.696134
431.950562	794.296082	16590.533203	1693.879028	5.694919
432.309204	799.274414	16709.492188	1692.764648	5.615827
432.667877	813.986328	16903.201172	1701.903809	5.518713
433.026459	819.336121	17026.320313	1709.111206	5.490072
433.385010	812.500305	17136.212891	1712.454712	5.513172
433.743561	803.361023	17150.923828	1716.467163	5.585580
434.102051	805.144287	17193.279297	1726.498047	5.622078
434.460510	816.586914	17216.087891	1737.569214	5.615917
434.818939	810.939941	17188.150391	1733.705566	5.634449
435.177338	804.029785	17170.541016	1723.228882	5.616341
435.535675	797.416809	17134.132813	1714.683960	5.614758
435.894012	798.605652	17103.742188	1715.872681	5.625632
436.252289	797.342468	17243.876953	1736.083008	5.707832
436.610535	795.113464	17349.757813	1746.188354	5.745064
436.968719	802.543640	17688.654297	1777.841309	5.775739
437.326935	804.401184	17992.552734	1786.237427	5.712285
437.685028	806.333191	18310.123047	1807.636719	5.720496
438.043152	797.565430	18542.095703	1807.265137	5.690202
438.401215	798.531311	18867.615234	1813.209351	5.615548
438.759277	796.376648	19300.947266	1826.212280	5.565305
439.117249	801.726379	19862.900391	1856.304810	5.532599
439.475250	799.497253	20310.275391	1894.942383	5.614564
439.833130	799.943115	20798.371094	1928.973022	5.645593
440.191071	802.320801	21007.609375	1937.369141	5.617580
440.548889	800.240295	21171.072266	1942.496094	5.607311
440.906708	802.840881	21142.691406	1938.037964	5.581148
441.264496	803.583984	20988.587891	1933.654175	5.598563
441.622223	813.837708	20692.416016	1913.889526	5.533855
441.979950	812.500244	20311.095703	1884.688477	5.498797
442.337616	808.042175	20070.427734	1867.970337	5.502581
442.695251	809.305237	19783.173828	1859.722778	5.536127
443.052887	809.676758	19671.794922	1868.341919	5.612653
443.410461	811.831543	19726.183594	1874.434937	5.617974
443.768005	799.348633	19954.068359	1882.979614	5.657253
444.125458	802.097839	20248.755859	1884.911499	5.568122
444.482941	800.834656	20608.380859	1910.174194	5.600591
444.840393	803.732483	21178.205078	1950.743530	5.629647
445.197754	801.800598	21714.894531	1996.142578	5.710978
445.555084	797.268250	22169.181641	2014.718262	5.696495
445.912415	796.896667	22488.087891	2030.470337	5.686980
446.269714	797.193848	22659.281250	2034.557007	5.659858
446.626953	803.138123	22705.500000	2026.309448	5.584655
446.984161	800.017395	22547.679688	2018.061890	5.600806
447.341309	801.875000	22322.693359	2009.294312	5.610471
447.698456	802.989502	22006.681641	1991.684204	5.606074
448.055542	807.224792	21753.310547	1964.043823	5.522841
448.412598	811.831543	21383.359375	1928.526978	5.428355
448.769653	813.763367	20975.658203	1917.679077	5.475258
449.126617	814.877930	20448.035156	1902.149780	5.537937
449.483582	816.586914	20093.980469	1894.050781	5.589261
449.840515	810.716980	19773.884766	1863.660767	5.552574
450.197388	810.048340	19538.197266	1842.856079	5.514735
450.554230	809.453918	19348.578125	1823.240234	5.468361
450.911041	808.339355	19251.984375	1827.921265	5.528093
451.267822	804.772766	19293.517578	1825.840820	5.522647
451.624573	796.896729	19332.007813	1836.465942	5.608648
451.981262	799.125793	19306.373047	1833.271118	5.587785
452.337921	806.258789	19108.208984	1824.577637	5.563991
452.694580	804.475525	18764.484375	1803.029785	5.559876
453.051147	802.395081	18508.287109	1795.079468	5.606520
453.407715	802.469421	18144.279297	1782.150757	5.649245
453.764221	805.590149	18002.138672	1774.571777	5.634745
454.120728	807.076172	17630.919922	1754.435913	5.631054
454.477142	805.144287	17542.576172	1745.890991	5.620615
454.833557	802.469421	17402.068359	1744.033569	5.672210
455.189911	805.887390	17413.585938	1738.906616	5.617992
455.546265	804.698486	17458.761719	1746.039673	5.652322
455.902557	803.509583	17529.794922	1744.776489	5.627471
456.258820	798.011230	17754.634766	1771.674194	5.742081
456.615051	798.531311	18046.570313	1790.323853	5.750175
456.971252	800.091614	18415.259766	1820.639526	5.793575
457.327393	801.131897	19031.453125	1857.790649	5.796161
457.683502	803.806885	19735.398438	1894.422241	5.760822
458.039612	807.819153	20728.603516	1943.833496	5.702659
458.395630	805.887268	21700.779297	1987.523438	5.655144
458.751648	800.017395	22616.335938	2034.334106	5.657768
459.107605	794.370422	23463.537109	2073.863281	5.644199
459.463562	806.035889	23871.904297	2092.736084	5.578373
459.819458	812.425964	23902.369141	2099.126221	5.572557
460.175323	812.574524	23354.533203	2070.296631	5.579472
460.531158	801.354797	22657.576172	2034.928711	5.644041
460.886932	794.296082	21818.029297	1989.455444	5.684811
461.242676	791.101074	21030.494141	1949.183228	5.721921
461.598419	798.679932	20356.939453	1908.316772	5.673495
461.954102	802.023621	19693.863281	1860.837280	5.604609
462.309723	808.562195	19146.029297	1831.190552	5.576715
462.665344	807.299072	18670.416016	1809.048340	5.607920
463.020905	809.751038	18408.351563	1802.435425	5.640701
463.376373	812.723145	18313.318359	1795.450806	5.615396
463.731873	809.899658	18290.507813	1790.992676	5.612465
464.087341	809.305237	18323.125000	1792.998901	5.616671
464.442749	808.710876	18456.943359	1803.252563	5.635362
464.798126	809.676758	18586.232422	1807.487915	5.613074
465.153503	805.515808	18825.486328	1821.011108	5.635388
465.508820	801.726379	19022.166016	1827.029663	5.627214
465.864105	804.029724	19197.818359	1836.614746	5.613770
466.219330	808.264954	19480.169922	1843.153320	5.542490
466.574524	805.738770	19511.671875	1844.639282	5.553855
466.929657	798.828552	19457.355469	1843.822144	5.600622
467.284790	796.673767	19247.154297	1836.466187	5.635585
467.639893	796.748047	19004.851563	1826.063843	5.653064
467.994934	794.890442	18839.306641	1811.723267	5.635166
468.349945	789.094910	18566.019531	1794.930786	5.658099
468.704926	793.553040	18408.720703	1790.769653	5.661125
469.059875	792.958557	18167.533203	1786.980469	5.721129
469.414764	797.268250	18063.066406	1791.290039	5.757172
469.769653	793.924622	18038.322266	1785.419922	5.749666
470.124451	793.924622	18097.617188	1784.528320	5.724811
470.479248	796.450867	18153.343750	1778.286987	5.656751
470.834015	795.187683	18216.205078	1782.447876	5.667064
471.188721	798.531311	18423.656250	1793.667603	5.646123
471.543365	799.720215	18689.064453	1812.763550	5.662831
471.898010	802.097839	18935.306641	1831.116211	5.674772
472.252625	804.178406	19234.224609	1854.372925	5.698274
472.607178	800.388855	19508.255859	1863.437866	5.682364
472.961700	803.881104	19682.716797	1858.905273	5.588396
473.316193	804.772766	19788.748047	1860.391479	5.560578
473.670654	802.543701	19772.697266	1856.676392	5.556796
474.025055	792.587097	19822.703125	1871.239746	5.668135
474.379456	781.813232	19835.111328	1870.942505	5.716224
474.733795	786.865906	19990.181641	1881.790649	5.701748
475.088104	793.330261	20284.642578	1891.450073	5.633894
475.442383	810.419861	20620.863281	1914.483887	5.573141
475.796570	813.317627	20968.748047	1944.947876	5.614518
476.150787	817.924377	21429.425781	1969.765137	5.588340
476.504944	815.026550	21846.263672	1985.814453	5.566900
476.859070	818.815979	22282.197266	2004.835938	5.525784
477.213135	819.187500	22559.791016	2029.578979	5.567423
477.567200	815.695313	22907.083984	2057.219482	5.619946
477.921173	805.887390	23199.759766	2064.649658	5.621012
478.275146	798.754211	23529.443359	2074.903564	5.614213
478.629089	795.559265	23858.083984	2093.107666	5.626220
478.983002	800.686096	24307.095703	2126.841064	5.641674
479.336823	804.549866	24857.158203	2164.512451	5.654117
479.690643	798.754211	25550.031250	2203.075684	5.673734
480.044403	795.113464	26458.455078	2257.465088	5.698212
480.398163	795.633606	27660.970703	2330.430420	5.712926
480.751862	799.943115	29379.000000	2418.999268	5.665184
481.105499	797.193909	31683.572266	2561.140625	5.711083
481.459137	800.240234	35032.765625	2764.507080	5.738014
481.812744	804.772766	39447.832031	3044.182617	5.795115
482.166290	805.887207	44734.250000	3377.133057	5.853271
482.519806	800.463196	49951.636719	3718.553955	5.936971
482.873291	801.652039	54190.535156	4040.879639	6.067232
483.226715	800.463196	56924.800781	4263.341309	6.170012
483.580139	801.503418	58040.675781	4353.990723	6.206392
483.933502	796.153625	57894.378906	4281.694824	6.104465
484.286804	800.166016	56615.855469	4117.856934	5.944012
484.640106	798.828613	54509.441406	3893.685547	5.762096
484.993347	806.258789	51950.378906	3693.811279	5.645913
485.346558	810.568420	49659.628906	3543.199951	5.594031
485.699738	807.299072	48303.750000	3484.426025	5.636478
486.052887	802.989563	48104.468750	3497.206299	5.695840
486.405975	798.308411	48882.199219	3563.260986	5.750268
486.759064	798.308411	49872.503906	3636.821045	5.784125
487.112061	798.457031	50522.207031	3679.173096	5.793441
487.464996	798.382751	50385.488281	3653.761719	5.758309
487.817963	803.583923	49544.386719	3571.954834	5.679781
488.170868	809.008057	47920.792969	3439.696045	5.583928
488.523743	805.218567	45859.636719	3300.898438	5.539257
488.876587	805.515808	43681.382813	3167.896484	5.509814
489.229401	799.943115	42199.117188	3099.166748	5.553791
489.582153	799.720215	41548.000000	3065.656250	5.560814
489.934845	794.444641	41931.179688	3106.745361	5.621012
490.287537	799.497253	42975.578125	3184.614502	5.655142
490.640198	805.515808	44394.906250	3277.344482	5.670712
490.992798	801.875000	45358.468750	3327.052734	5.667349
491.345337	797.342468	45442.058594	3310.557617	5.629367
491.697876	798.902832	44375.292969	3238.855469	5.599254
492.050354	806.556091	42469.355469	3117.816406	5.547539
492.402832	808.042053	39787.839844	2961.037842	5.523364
492.755219	808.710754	36843.519531	2787.243896	5.490617
493.107605	807.299072	33993.343750	2631.282471	5.496236
493.459930	805.441467	31721.837891	2508.459961	5.508464
493.812225	803.806824	30001.062500	2419.370850	5.533273
494.164490	813.837646	28927.681641	2357.476807	5.490673
494.516724	817.181335	28367.587891	2325.526611	5.474856
494.868896	806.481750	28223.666016	2323.668945	5.533710
495.221039	796.227966	28368.630859	2340.164307	5.599571
495.573120	791.621277	28555.576172	2359.780273	5.648183
495.925201	799.868835	28869.431641	2380.882324	5.632483
496.277222	803.212402	29051.250000	2399.011963	5.649240
496.629211	811.014160	29143.830078	2402.504150	5.617126
496.981140	812.203064	29074.728516	2386.231689	5.569313
497.333069	813.094666	28872.625000	2374.046143	5.562999
497.684967	807.373352	28524.515625	2351.904053	5.572474
498.036804	810.494141	27994.812500	2326.269287	5.575917
498.388580	803.806885	27463.177734	2288.523682	5.569211
498.740326	800.017395	26931.541016	2263.186279	5.599248
499.092072	794.221863	26396.193359	2235.768799	5.630609
499.443756	799.423035	25872.578125	2201.366455	5.591412
499.795410	800.909119	25464.062500	2167.930176	5.542766
500.147003	803.732605	25125.615234	2143.930420	5.510255
500.498566	795.113464	24870.085938	2136.054443	5.569854
500.850098	800.611816	24595.759766	2123.125977	5.557915
501.201599	796.153625	24433.259766	2115.769775	5.582817
501.553009	800.240417	24292.826172	2102.989990	5.545364
501.904449	789.317871	24218.822266	2104.550293	5.613574
502.255859	792.958679	24223.353516	2102.989990	5.591162
502.607178	797.193848	24338.005859	2112.054932	5.585454
502.958405	808.413574	24460.900391	2108.785400	5.497823
503.309692	812.797424	24523.912109	2123.868896	5.529354
503.660919	816.141113	24577.259766	2130.704590	5.532414
504.012115	813.986328	24579.783203	2142.741699	5.591041
504.363251	814.134949	24550.287109	2132.265137	5.553259
504.714294	814.580750	24439.875000	2119.559326	5.523650
505.065369	823.794250	24355.912109	2113.986816	5.482688
505.416443	816.512634	24256.791016	2107.596680	5.507972
505.767395	807.299011	24217.634766	2100.315186	5.523270
506.118317	800.017395	24175.578125	2094.296387	5.536890
506.469238	803.509583	24354.203125	2096.897217	5.491930
506.820160	810.271179	24507.638672	2123.348877	5.541028
507.170929	803.361023	24745.851563	2137.837891	5.573676
507.521729	797.862610	24921.130859	2172.908936	5.700083
507.872498	795.484924	25190.923828	2185.688965	5.698623
508.223236	799.125793	25540.072266	2200.177979	5.662889
508.573883	804.178284	25826.658203	2207.608398	5.608677
508.924500	805.961609	26080.328125	2219.273682	5.591879
509.275116	802.766602	26272.845703	2232.573975	5.613675
509.625702	805.144287	26506.603516	2246.468506	5.607947
509.976196	802.692322	26722.304688	2253.527100	5.597440
510.326660	807.076172	26904.867188	2274.480713	5.622715
510.677124	811.237122	27126.140625	2266.381592	5.529735
511.027557	816.809814	27299.265625	2286.666260	5.550303
511.377869	817.404297	27531.240234	2289.341309	5.510017
511.728180	812.128723	27558.138672	2295.359619	5.545616
512.078430	809.230957	27548.478516	2281.167725	5.504780
512.428650	805.070007	27410.275391	2264.746826	5.486433
512.778931	803.732483	27298.302734	2263.632568	5.510186
513.129028	808.487976	27159.724609	2265.861572	5.530570
513.479126	805.218567	27015.650391	2269.130615	5.585227
513.829285	806.184570	26845.720703	2263.335205	5.595916
514.179382	803.063782	26719.779297	2248.994385	5.579144
514.529297	806.184570	26623.630859	2244.759521	5.572104
514.879272	803.361023	26749.349609	2254.790283	5.594041
515.229187	798.159851	26873.955078	2265.935547	5.628881
515.579163	801.131897	27267.166016	2299.297607	5.660711
515.928955	802.915222	27773.615234	2319.953857	5.624765
516.278748	805.515808	28560.554688	2363.123779	5.611982
516.628540	804.326965	29427.814453	2398.491699	5.569429
516.978333	803.732483	30403.335938	2465.364258	5.613696
517.327942	802.246399	31406.867188	2530.602051	5.647368
517.677612	797.119568	32291.443359	2579.716064	5.660056
518.027222	796.153625	32889.800781	2601.932617	5.626594
518.376831	797.713928	33104.460938	2602.601318	5.586720
518.726379	801.949219	32944.261719	2593.313721	5.573228
519.075867	805.367188	32415.304688	2563.146729	5.560845
519.425293	800.983337	31757.501953	2524.806396	5.568530
519.774658	806.333069	30983.195313	2476.286865	5.533888
520.124084	802.989502	30285.640625	2442.479004	5.560862
520.473389	810.196960	29645.445313	2411.569092	5.553523
520.822693	808.933777	29206.095703	2386.677734	5.555992
521.171997	807.670593	28952.500000	2380.362061	5.587852
521.521240	806.927551	28841.416016	2368.696533	5.570885
521.870361	800.760437	28901.009766	2381.773926	5.626332
522.219482	805.664368	29088.773438	2382.145264	5.573931
522.568604	799.868835	29390.812500	2408.968750	5.628006
522.917664	802.915222	29847.328125	2438.912598	5.632744
523.266724	803.138123	30471.990234	2474.355225	5.632901
523.615662	808.487976	31406.718750	2531.344971	5.630577
523.964600	812.425964	32566.953125	2600.074951	5.629588
524.313538	808.636536	33989.257813	2689.609619	5.668890
524.662354	804.549866	35475.757813	2768.593506	5.664769
525.011169	796.896667	36940.265625	2844.828125	5.666133
525.359985	793.924622	38365.394531	2918.462158	5.654657
525.708740	797.416809	39785.242188	2998.634766	5.645911
526.057434	802.023621	41458.910156	3101.172607	5.655005
526.406067	804.698425	43609.824219	3242.199219	5.694413
526.754700	801.577698	46485.640625	3426.692627	5.746238
527.103333	803.138123	49710.230469	3646.182861	5.813154
527.451782	802.246521	52923.152344	3893.016846	5.930001
527.800293	798.679932	55332.269531	4101.732910	6.056915
528.148743	797.268250	56890.843750	4232.877441	6.124782
528.497131	800.908997	57209.378906	4238.301758	6.093753
528.845642	805.887268	56497.410156	4117.782715	5.946857
529.193909	812.723145	54723.582031	3928.087891	5.778733
529.542175	815.175110	51975.644531	3685.043701	5.609543
529.890503	818.295898	48671.324219	3460.723877	5.521966
530.238770	817.478516	45332.683594	3241.753662	5.445949
530.586914	812.500244	42673.542969	3091.141846	5.443347
530.934998	812.277344	40969.703125	3008.071533	5.467966
531.283142	810.791321	40530.500000	3008.962891	5.534209
531.631226	815.398132	40964.722656	3069.222656	5.613605
531.979248	811.682922	42218.878906	3146.719971	5.639206
532.327148	807.150452	43458.027344	3217.531006	5.651421
532.675110	803.732483	44485.410156	3257.728516	5.617908
533.023071	812.723145	44746.214844	3262.558350	5.576236
533.370850	808.636536	44183.074219	3225.183594	5.571362
533.718689	804.624207	43016.449219	3148.577881	5.552836
534.066467	797.268250	41350.429688	3046.931641	5.547443
534.414246	797.788391	39750.691406	2950.783936	5.527176
534.761963	804.252686	38380.328125	2872.394531	5.503880
535.109619	806.407471	37597.996094	2828.481689	5.496023
535.457153	808.710754	37159.457031	2815.107178	5.519547
535.804749	804.401184	36990.941406	2805.596436	5.530220
536.152344	799.274414	36841.074219	2800.023438	5.551190
536.499817	795.856445	36496.531250	2774.835205	5.543253
536.847229	790.432373	35849.652344	2741.398682	5.564774
537.194641	793.330139	34985.808594	2701.572510	5.580884
537.542114	796.896667	34082.136719	2643.764893	5.548610
537.889404	800.240295	33336.066406	2598.811768	5.527973
538.236694	793.181580	32809.257813	2572.062744	5.556212
538.583984	798.902832	32861.269531	2579.196045	5.552595
538.931213	805.515808	33581.484375	2631.579346	5.571349
539.278381	811.905823	35057.214844	2718.067627	5.566198
539.625488	804.847107	37091.175781	2841.559326	5.612891
539.972595	800.686096	39634.039063	2998.486328	5.659569
540.319641	800.983337	42172.667969	3154.299072	5.688228
540.666687	808.785095	44345.718750	3277.790283	5.671059
541.013611	808.190674	45771.074219	3349.864014	5.652825
541.360596	802.097839	46279.152344	3356.848389	5.617669
541.707458	790.952454	45855.406250	3320.440186	5.613044
542.054260	793.255859	44562.238281	3226.744141	5.559846
542.401062	798.011230	42861.449219	3125.469727	5.533210
542.747864	805.961609	40833.281250	3011.340576	5.509684
543.094666	805.590088	38745.222656	2901.372314	5.523992
543.441284	809.751038	36639.562500	2776.395264	5.488849
543.787903	810.048279	34850.722656	2672.297119	5.470657
544.134460	804.475586	33356.421875	2581.722412	5.459725
544.481079	798.382751	32314.476563	2529.115967	5.491585
544.827637	792.067078	31551.240234	2496.719971	5.541933
545.174072	803.212402	31140.046875	2477.847168	5.520137
545.520508	807.967773	30948.791016	2483.642822	5.559486
545.866943	814.506409	30913.125000	2482.379639	5.541361
546.213318	806.110168	30814.599609	2477.252686	5.568899
546.559631	808.116394	30486.927734	2449.983643	5.532119
546.905823	803.509583	30020.228516	2416.250000	5.519923
547.252136	805.367188	29270.369141	2385.489014	5.551104
547.598389	805.144348	28279.392578	2329.687500	5.548990
547.944458	806.704651	27163.740234	2276.561279	5.576715
548.290588	807.893494	26005.062500	2199.657959	5.523495
548.636658	801.429199	25049.529297	2155.968018	5.586165
548.982727	800.314636	24174.462891	2106.036377	5.586179
549.328735	799.497314	23526.843750	2074.086182	5.608173
549.674622	798.754333	22983.541016	2043.473267	5.610687
550.020569	793.478760	22666.193359	2020.885376	5.611588
550.366455	799.422913	22417.947266	2013.232300	5.614673
550.712280	803.361023	22320.312500	1997.703125	5.550703
551.058044	804.772766	22285.169922	1998.891968	5.559111
551.403748	795.039063	22415.197266	1993.839233	5.544826
551.749512	790.580994	22582.900391	2009.294312	5.592399
552.095154	795.410645	22763.009766	2026.086548	5.602232
552.440735	804.401306	22903.443359	2050.532227	5.638845
552.786316	810.568420	22936.134766	2057.591064	5.636117
553.131897	806.704651	22803.505859	2036.488892	5.590741
553.477417	801.206238	22530.888672	2009.740112	5.561674
553.822815	799.497253	22134.259766	1979.498901	5.530888
554.168213	806.184509	21671.578125	1968.130371	5.568770
554.513672	806.035950	21251.396484	1947.845703	5.584689
554.859009	806.778992	20893.626953	1926.966797	5.576723
555.204285	806.258850	20632.900391	1907.202148	5.552849
555.549500	810.791321	20440.457031	1895.610962	5.526429
555.894714	813.912048	20287.318359	1892.936157	5.541014
556.239990	813.243347	20147.851563	1874.657715	5.489712
556.585022	809.156555	19967.964844	1863.512207	5.503242
556.930115	801.206238	19816.609375	1854.893066	5.541228
557.275146	800.834717	19662.060547	1851.326538	5.569584
557.620178	800.463196	19570.373047	1849.766235	5.590346
557.965149	800.537598	19474.818359	1838.769409	5.559688
558.310059	797.491150	19428.826172	1838.323608	5.586462
558.654968	790.655273	19336.242188	1839.661133	5.656364
558.999756	793.775940	19334.013672	1842.113159	5.654389
559.344604	793.255859	19358.830078	1849.692017	5.690296
559.689331	804.029724	19415.671875	1851.326660	5.627106
560.033997	805.367188	19412.701172	1857.493774	5.654365
560.378723	808.190674	19471.251953	1861.357544	5.643055
560.723389	812.574524	19539.611328	1860.168823	5.594020
561.067932	815.100891	19667.335938	1849.989258	5.489474
561.412476	810.642761	19625.800781	1843.896484	5.491602
561.757019	800.240234	19581.294922	1836.837524	5.519377
562.101501	797.714050	19487.447266	1836.020386	5.555491
562.445862	797.936951	19414.853516	1837.208984	5.582407
562.790222	798.605652	19368.490234	1833.865601	5.574940
563.134644	798.159851	19322.048828	1836.986206	5.608037
563.478943	796.376648	19407.423828	1840.032593	5.607723
563.823181	800.611816	19495.919922	1858.013794	5.655975
564.167358	798.679932	19732.275391	1871.685547	5.667205
564.511536	807.447693	20018.638672	1892.861816	5.649905
564.855774	809.453796	20399.367188	1919.313477	5.665464
565.199768	812.797546	20814.052734	1947.920044	5.675256
565.543823	806.704590	21169.216797	1951.932251	5.624197
565.887817	806.630371	21487.603516	1954.978882	5.552681
566.231812	803.583984	21515.689453	1946.656860	5.518864
566.575745	807.076172	21432.099609	1957.207642	5.576389
566.919617	804.549866	21233.787109	1941.827148	5.566911
567.263428	804.624207	20956.562500	1933.282349	5.600743
567.607239	807.521973	20668.267578	1912.254883	5.562394
567.950989	808.933777	20367.193359	1901.183960	5.584599
568.294678	808.933777	20243.255859	1886.248901	5.543364
568.638367	808.636475	20161.078125	1872.428589	5.496940
568.981995	811.385742	20082.169922	1862.323364	5.453528
569.325623	812.426025	20062.478516	1872.577148	5.507264
569.669128	802.915222	20134.701172	1888.403687	5.615046
570.012573	793.032959	20345.201172	1915.598511	5.741386
570.356140	786.717224	20661.060547	1919.833618	5.701403
570.699524	787.757507	20956.638672	1928.601440	5.656456
571.042908	794.221741	21363.296875	1948.143066	5.609982
571.386230	803.881104	21647.802734	1971.771484	5.603026
571.729492	816.958435	21851.835938	1983.213989	5.544390
572.072815	811.831543	21852.505859	1975.263672	5.529443
572.416016	810.271179	21707.244141	1962.929321	5.515910
572.759094	808.264954	21497.634766	1953.195679	5.533908
573.102234	804.698425	21219.148438	1931.276245	5.518532
573.445374	803.286682	21004.931641	1927.263794	5.563790
573.788391	794.370422	20880.773438	1912.849243	5.568338
574.131409	797.936951	20774.447266	1914.038086	5.587068
574.474365	793.998840	20682.906250	1912.180542	5.622137
574.817261	799.943115	20541.656250	1913.666626	5.641474
575.160156	802.915222	20339.255859	1908.985474	5.661604
575.502930	805.367188	20086.330078	1884.465698	5.596704
575.845703	803.361023	19809.179688	1861.060181	5.565134
576.188477	808.487976	19502.384766	1841.147095	5.524045
576.531250	808.264954	19166.164063	1820.342285	5.513035
576.873901	808.264954	18776.298828	1804.367188	5.543746
577.216431	804.401306	18401.587891	1782.522339	5.558394
577.559082	809.379578	17997.531250	1766.250000	5.567035
577.901611	808.487976	17630.771484	1750.052124	5.597125
578.244080	806.333191	17239.419922	1721.371094	5.568266
578.586487	801.280518	16971.634766	1703.390015	5.578786
578.928955	846.308044	16774.136719	1730.659058	5.552238
579.271301	848.388489	16595.585938	1724.491821	5.563551
579.613647	851.509216	16403.960938	1710.225586	5.521421
579.955872	804.475586	16203.789063	1655.018677	5.523253
580.298157	805.367188	16081.411133	1644.319336	5.491946
580.640320	804.326904	15977.760742	1645.285156	5.542307
580.982483	800.908997	15893.128906	1641.347168	5.568685
581.324524	799.348633	15844.014648	1634.437012	5.550727
581.666626	795.187744	15779.816406	1621.879761	5.516933
582.008728	798.902832	15703.135742	1612.071899	5.455961
582.350647	794.444641	15587.893555	1612.369141	5.528964
582.692566	794.444641	15534.468750	1617.273071	5.582273
583.034424	792.215637	15516.414063	1621.805542	5.634194
583.376343	789.912292	15460.686523	1616.009888	5.630907
583.718201	792.587158	15377.245117	1609.545532	5.601491
584.059937	794.964783	15266.756836	1594.982300	5.528117
584.401611	802.395020	15211.030273	1590.895630	5.472417
584.743347	809.230957	15133.829102	1595.651001	5.489997
585.085022	810.568359	15083.526367	1600.257813	5.532767
585.426514	803.063782	15036.567383	1597.285522	5.579946
585.768127	800.537537	15050.684570	1597.508423	5.592721
586.109619	797.045227	15041.546875	1603.526978	5.661705
586.451172	796.376526	15098.239258	1606.499023	5.664454
586.792542	790.209473	15146.239258	1602.932617	5.661197
587.133850	794.444641	15179.081055	1609.099731	5.663369
587.475220	801.429138	15218.385742	1621.805542	5.690358
587.816589	805.070007	15244.093750	1625.743530	5.683719
588.157776	810.345520	15361.343750	1630.647461	5.637427
588.498962	811.980164	15476.364258	1626.783813	5.556345
588.840210	808.785156	15604.315430	1635.477173	5.587444
589.181335	813.763367	15723.718750	1645.433594	5.577952
589.522400	815.472351	15755.891602	1650.857788	5.591446
589.863403	817.998718	15727.062500	1634.882813	5.479111
590.204407	804.549805	15574.147461	1616.975952	5.500665
590.545410	796.599426	15478.668945	1612.071899	5.554207
590.886353	796.599426	15370.260742	1620.170898	5.651095
591.227112	794.593262	15270.546875	1614.672485	5.665114
591.567932	803.063782	15145.569336	1613.483521	5.650475
591.908752	798.828552	15034.561523	1601.372192	5.637529
592.249512	800.834717	15005.136719	1598.548828	5.616004
592.590149	798.531311	15036.640625	1596.691284	5.605800
592.930786	806.258789	15160.800781	1599.960571	5.529273
593.271423	805.441467	15302.421875	1607.390747	5.531837
593.612000	804.326965	15424.651367	1611.477417	5.520742
593.952576	802.915222	15548.067383	1620.319458	5.543546
594.292969	809.230957	15692.213867	1634.511353	5.545128
594.633484	812.723145	15898.997070	1645.210938	5.518180
594.973877	805.887390	16171.764648	1672.925781	5.642622
595.314209	804.549866	16449.134766	1691.947266	5.672234
595.654480	798.382813	16791.671875	1717.284546	5.745546
595.994812	800.091736	17111.396484	1731.699219	5.711422
596.335022	799.720215	17432.533203	1738.980835	5.647034
596.675171	803.138123	17564.568359	1742.398804	5.603703
597.015320	802.469421	17535.218750	1728.875610	5.536485
597.355408	801.949280	17292.101563	1701.681030	5.456176
597.695496	795.707825	16884.701172	1672.925781	5.452286
598.035461	803.509583	16364.804688	1646.325317	5.416103
598.375366	810.419739	15829.229492	1625.743530	5.428685
598.715271	814.729309	15385.196289	1607.093628	5.438153
599.055176	810.939880	14935.887695	1575.291992	5.411362
599.395081	798.977234	14652.942383	1562.288940	5.509698
599.734802	801.577820	14386.715820	1551.589355	5.520824
600.074524	797.714050	14254.456055	1552.703979	5.610496
600.414246	800.686218	14137.875000	1558.202271	5.679728
600.753906	800.240417	14128.809570	1560.208496	5.701798
601.093506	808.785156	14171.535156	1569.124878	5.689994
601.433044	810.419739	14300.301758	1575.143188	5.668867
601.772583	802.692322	14524.027344	1587.403320	5.718912
602.112122	794.816223	14859.726563	1608.356567	5.784184
602.451538	796.525146	15256.131836	1624.851929	5.728557
602.790894	802.617981	15658.406250	1638.151978	5.624300
603.130310	800.686096	16120.792969	1656.281860	5.584790
603.469604	798.234070	16552.044922	1679.687378	5.595175
603.808838	804.178406	16972.228516	1709.333984	5.598422
604.148010	811.905823	17322.638672	1731.773438	5.571332
604.487305	812.500305	17494.798828	1737.568970	5.545211
604.826416	807.447693	17446.576172	1723.451782	5.505120
605.165527	810.568359	17119.498047	1698.188843	5.442543
605.504456	805.887390	16711.796875	1672.256958	5.446841
605.843445	803.881104	16210.178711	1652.938354	5.511105
606.182434	790.952454	15727.583008	1618.907593	5.543118
606.521423	797.268250	15271.661133	1594.462036	5.507615
606.860229	795.633545	14872.878906	1574.697632	5.534208
607.199036	801.652039	14656.731445	1571.428223	5.555913
607.537903	798.457031	14555.902344	1576.332397	5.654214
607.876648	797.714050	14619.282227	1578.412720	5.648409
608.215271	793.553040	14741.882813	1595.130859	5.746766
608.553955	793.701660	14951.342773	1599.440430	5.691194
608.892578	798.085510	15192.676758	1614.078003	5.668744
609.231140	804.624207	15343.661133	1618.833374	5.600159
609.569641	804.326965	15383.635742	1621.359741	5.604057
609.908081	802.469421	15326.125000	1609.842773	5.559023
610.246521	806.407410	15141.706055	1593.198853	5.488490
610.584961	808.264954	14867.454102	1572.988647	5.439316
610.923340	810.791260	14496.833008	1562.809082	5.494780
611.261597	804.178406	14113.503906	1549.731812	5.601737
611.599854	798.308411	13757.000000	1529.595825	5.643219
611.938110	794.890442	13469.077148	1507.973633	5.626264
612.276245	793.404480	13228.039063	1491.107056	5.610961
612.614319	801.577637	13004.164063	1486.500366	5.612931
612.952393	802.617981	12769.665039	1478.252563	5.645792
613.290466	802.840881	12587.476563	1464.729492	5.616539
613.628479	798.234131	12397.335938	1457.002075	5.679474
613.966370	802.395081	12281.050781	1447.491333	5.619964
614.304260	805.738770	12160.383789	1440.804077	5.593000
614.642151	808.116394	12053.015625	1428.395508	5.516093
614.979980	807.447693	11926.477539	1417.547241	5.486985
615.317749	804.549805	11839.543945	1428.024048	5.649973
615.655396	802.766541	11830.776367	1423.491577	5.628623
615.993164	807.447571	11849.723633	1429.212891	5.630771
616.330811	803.509583	11840.583008	1417.547363	5.563411
616.668396	802.989502	11801.278320	1417.621704	5.588435
617.005859	798.382751	11787.085938	1416.209961	5.622385
617.343445	804.847168	11802.764648	1415.318359	5.550789
617.680908	804.178406	11803.953125	1422.153931	5.618074
618.018311	806.035950	11796.893555	1420.296509	5.588832
618.355652	805.812988	11758.777344	1421.039429	5.616985
618.692993	805.887390	11720.065430	1413.757813	5.569549
619.030273	803.509583	11657.354492	1416.135376	5.644320
619.367554	800.388855	11632.536133	1408.259399	5.611727
619.704712	809.230957	11613.664063	1403.950073	5.504399
620.041870	802.543640	11590.481445	1397.411255	5.514192
620.379028	799.868835	11528.809570	1400.457642	5.597839
620.716064	795.336243	11469.887695	1403.504028	5.697361
621.053040	799.051453	11423.747070	1396.668335	5.624791
621.389954	801.429199	11408.143555	1395.033569	5.596496
621.726929	811.088562	11396.997070	1391.318359	5.481153
622.063843	811.905823	11418.842773	1392.953125	5.477993
622.400635	813.243347	11399.597656	1394.810547	5.493555
622.737427	800.760437	11385.257813	1395.925171	5.622985
623.074219	797.416809	11381.839844	1407.962280	5.768340
623.410889	794.890564	11412.601563	1404.024414	5.736960
623.747559	801.280579	11479.770508	1416.284180	5.759275
624.084167	807.001892	11526.729492	1418.661987	5.705929
624.420715	818.741699	11666.492188	1424.606079	5.585162
624.757324	818.370178	11782.776367	1418.884766	5.476946
625.093750	817.330017	11955.307617	1418.884766	5.400933
625.430176	812.351624	12131.034180	1422.525513	5.390856
625.766602	814.432129	12325.929688	1444.221802	5.470962
626.102905	813.094666	12543.562500	1460.196899	5.516423
626.439209	809.676758	12697.666992	1483.453735	5.667711
626.775452	801.577698	12787.051758	1484.419800	5.697248
627.111694	803.806885	12756.215820	1483.156616	5.683789
627.447876	805.070007	12676.489258	1466.884277	5.574854
627.783997	808.933777	12564.515625	1456.704712	5.510326
628.120056	803.955505	12444.666992	1444.965210	5.506619
628.456055	798.308411	12253.113281	1434.339844	5.552530
628.792053	784.636719	12066.910156	1427.578125	5.698687
629.128052	788.649109	11879.593750	1415.912598	5.655636
629.463928	793.850342	11758.777344	1399.566040	5.524120
629.799744	800.166016	11648.364258	1382.476196	5.367805
630.135559	794.444641	11571.088867	1368.358887	5.325538
630.471375	787.237305	11470.629883	1367.095703	5.427661
630.807068	796.673645	11372.031250	1366.947144	5.392475
631.142700	810.568359	11239.699219	1373.485840	5.397549
631.478333	814.580750	11087.750000	1370.662231	5.412950
631.813965	802.543762	10989.520508	1363.380615	5.505430
632.149475	798.159851	10862.834961	1355.578857	5.538371
632.484924	799.348694	10861.719727	1360.631470	5.578037
632.820435	808.487854	10819.812500	1370.662231	5.615385
633.155884	805.218567	10873.237305	1376.457886	5.673801
633.491150	811.831543	10867.738281	1369.399048	5.544677
633.826477	811.311340	10889.508789	1364.197876	5.485967
634.161804	809.379578	10867.961914	1356.321899	5.437569
634.497009	798.531311	10818.401367	1354.315796	5.546823
634.832153	793.776062	10739.120117	1344.284790	5.535341
635.167297	792.289978	10623.952148	1343.393188	5.605392
635.502380	798.234192	10478.690430	1342.724487	5.624635
635.837463	798.085510	10367.831055	1342.501587	5.688930
636.172424	800.017395	10235.942383	1330.167358	5.618421
636.507324	797.119568	10152.872070	1323.554321	5.626856
636.842224	801.652039	10037.777344	1319.467651	5.606416
637.177124	796.302246	9977.741211	1323.702881	5.744204
637.511963	793.404480	9912.057617	1323.628540	5.814719
637.846741	793.404480	9847.860352	1322.588379	5.844458
638.181396	795.410645	9761.742188	1317.684448	5.824832
638.516113	804.178284	9688.554688	1313.226196	5.729698
638.850769	800.388916	9615.217773	1301.783569	5.688081
639.185303	808.859375	9531.850586	1293.536011	5.556313
639.519836	803.658203	9444.840820	1283.802368	5.556464
639.854370	803.658203	9364.222656	1285.437134	5.627887
640.188843	793.924561	9320.533203	1275.331909	5.645942
640.523254	793.478699	9276.323242	1272.954224	5.652297
640.857605	788.797668	9232.856445	1274.068726	5.746893
641.191895	793.924561	9166.801758	1276.223511	5.760253
641.526184	795.410645	9109.885742	1272.879883	5.742627
641.860413	805.590088	9039.297852	1261.065796	5.531842
642.194580	807.447693	8994.641602	1258.911011	5.514262
642.528748	802.617981	8957.043945	1266.489746	5.688589
642.862793	803.955383	8945.081055	1267.381470	5.692408
643.196838	804.549866	8928.066406	1272.582764	5.761457
643.530823	812.500305	8883.114258	1261.214355	5.559850
643.864746	808.636536	8850.420898	1251.109253	5.502171
644.198669	799.348633	8826.941406	1241.004028	5.501717
644.532532	795.633545	8835.040039	1239.592285	5.522283
644.866333	789.912292	8827.980469	1247.319824	5.690516
645.200073	797.936951	8777.900391	1250.812012	5.675152
645.533813	804.772766	8750.556641	1248.583008	5.585481
645.867554	813.837646	8758.285156	1246.428101	5.445193
646.201172	812.871765	8808.215820	1254.229858	5.520189
646.534729	804.772766	8837.342773	1262.923340	5.703661
646.868225	799.645813	8825.008789	1257.499268	5.705081
647.201782	801.874939	8802.791992	1249.623169	5.596211
647.535217	803.583923	8806.210938	1246.279541	5.531879
647.868591	804.921387	8811.411133	1254.601440	5.616445
648.201965	800.686096	8812.079102	1254.006958	5.658453
648.535278	800.537537	8788.080078	1254.081299	5.678139
648.868591	798.457031	8776.860352	1250.663330	5.667880
649.201782	795.410645	8768.761719	1241.152588	5.590396
649.534912	795.633606	8762.965820	1235.505493	5.520943
649.868103	795.113464	8754.124023	1237.511841	5.558459
650.201172	794.890564	8765.045898	1249.028687	5.697983
650.534180	795.261963	8778.420898	1250.068970	5.697081
650.867188	797.565430	8791.870117	1242.564331	5.566449
651.200134	800.760437	8809.776367	1240.781128	5.494067
651.533020	806.035950	8799.151367	1236.545898	5.386010
651.865845	807.224792	8776.339844	1241.004028	5.443254
652.198608	806.333191	8729.381836	1239.666626	5.469276
652.531433	794.741882	8642.817383	1245.462158	5.743067
652.864136	791.992737	8571.859375	1245.536377	5.829710
653.196777	880.190002	8576.094727	1427.057983	7.105961
653.529358	888.437683	8558.260742	1434.413940	7.118498
653.861938	895.496399	8502.311523	1430.401733	7.031922
654.194519	804.252625	8360.466797	1239.815308	5.764297
654.526978	800.537537	8310.610352	1228.446899	5.697806
654.859375	791.175354	8268.852539	1220.496582	5.741372
655.191833	790.283752	8266.846680	1219.381958	5.739244
655.524170	788.872009	8241.286133	1215.518188	5.724939
655.856445	789.763672	8255.998047	1215.889648	5.707375
656.188660	800.834717	8273.088867	1225.623291	5.684879
656.520874	803.138123	8280.592773	1233.573730	5.756445
656.853088	811.608643	8329.631836	1242.044067	5.725380
657.185181	806.778992	8387.885742	1244.347656	5.771831
657.517212	806.556091	8530.621094	1248.211426	5.717913
657.849243	803.435364	8678.929688	1258.390991	5.776852
658.181274	805.218567	8904.585938	1266.935669	5.700656
658.513123	812.574646	9117.241211	1257.647827	5.359314
658.844971	811.162842	9358.278320	1261.957397	5.274230
659.176819	798.828613	9493.881836	1267.381470	5.388729
659.508667	795.187683	9589.286133	1283.133789	5.548563
659.840393	797.268250	9569.745117	1283.133789	5.538522
660.172058	810.568359	9469.510742	1282.539429	5.450678
660.503662	812.500244	9300.843750	1288.557861	5.608369
660.835266	810.048279	9124.597656	1284.693970	5.708616
661.166931	802.395020	8940.920898	1270.502197	5.751744
661.498413	796.748047	8759.993164	1252.446655	5.722524
661.829773	798.382629	8542.360352	1243.084473	5.742551
662.161194	800.983337	8362.176758	1232.087769	5.701540
662.492615	811.460022	8193.806641	1220.719360	5.543756
662.823975	813.986328	8057.684082	1212.991943	5.508314
663.155212	810.419739	7920.447266	1214.478027	5.682936
663.486450	805.218567	7788.187988	1208.533813	5.775699
663.817627	806.110291	7686.021973	1201.475098	5.746655
664.148743	812.797546	7607.484375	1191.369873	5.571593
664.479858	808.042175	7575.979004	1188.472046	5.621061
664.810913	804.995667	7553.614746	1182.156372	5.588709
665.141907	812.128723	7516.017090	1175.617554	5.422060
665.472778	807.150391	7475.819824	1180.670288	5.601116
665.803711	810.494080	7446.099121	1184.088135	5.630143
666.134583	804.401184	7447.881348	1183.196533	5.701761
666.465454	816.066833	7448.476563	1178.589844	5.465932
666.796143	806.630371	7437.033691	1172.274048	5.514652
667.126831	804.698486	7437.182129	1168.187378	5.480434
667.457458	803.732483	7420.018066	1167.444336	5.497221
667.788147	802.172180	7421.355469	1162.466187	5.443179
668.118774	794.741882	7414.742676	1164.992310	5.592906
668.449219	790.358093	7431.312500	1167.592896	5.680430
668.779663	796.822327	7437.999512	1180.818848	5.782055
669.110107	809.082336	7431.980957	1182.304932	5.635336
669.440552	804.178406	7420.984375	1185.871460	5.768539
669.770874	804.475586	7390.074219	1178.069702	5.672895
670.101135	796.673828	7375.362793	1171.159546	5.692407
670.431396	797.639709	7344.750000	1163.060425	5.581405
670.761597	795.782166	7281.740723	1160.682739	5.626009
671.091797	798.754211	7216.279785	1157.636353	5.592220
671.421875	799.571594	7143.166504	1156.447510	5.625768
671.751892	802.617981	7125.630859	1165.438232	5.738091
672.081909	802.023621	7094.795410	1167.295776	5.804630
672.411865	806.704590	7046.350098	1167.964478	5.789750
672.741821	792.735657	6977.322754	1156.224609	5.877336
673.071716	791.323975	6946.189941	1160.014038	5.990221
673.401550	787.906006	6931.255371	1143.816162	5.793422
673.731262	797.936829	6922.785156	1149.463135	5.739347
674.060974	801.652039	6894.995605	1149.463135	5.708050
674.390625	805.590088	6867.503418	1153.178223	5.733968
674.720276	801.354797	6854.723145	1144.261841	5.664732
675.049927	805.367188	6806.574707	1138.169067	5.545582
675.379395	807.373352	6777.745605	1131.927612	5.436081
675.708923	811.757263	6723.578613	1126.949341	5.331556
676.038330	803.361023	6707.083496	1123.382813	5.420678
676.367737	796.153625	6700.693848	1131.184448	5.674122
676.697083	798.159851	6727.442871	1134.751099	5.676761
677.026428	802.989502	6717.040527	1130.218628	5.533080
677.355652	799.497253	6723.207031	1122.788452	5.457580
677.684875	797.862549	6752.631348	1125.983398	5.510220
678.013977	792.215637	6822.252441	1137.574707	5.727313
678.343079	799.868835	6897.224121	1147.011230	5.693327
678.672180	794.964844	6921.446777	1150.874878	5.809371
679.001221	803.881165	6998.795410	1158.676636	5.727206
679.330139	801.949402	7091.303223	1173.239868	5.903475
679.659058	802.766602	7188.044922	1180.075806	5.909049
679.987976	795.856445	7277.134277	1182.899292	5.971706
680.316772	798.085632	7328.552246	1171.679565	5.720785
680.645630	806.184570	7408.427246	1167.741577	5.476275
680.974304	808.413635	7416.303223	1166.998413	5.426616
681.302979	806.704590	7378.334473	1169.004761	5.513094
681.631653	803.509583	7313.245605	1161.723022	5.502734
681.960266	802.320801	7240.205566	1155.035767	5.478740
682.288757	812.500244	7182.101074	1150.503296	5.306503
682.617249	810.642761	7059.798828	1144.707886	5.345764
682.945679	807.076172	6967.068848	1132.522095	5.283219
683.274109	796.748047	6857.695313	1129.772827	5.494599
683.602478	798.085510	6768.085938	1132.522095	5.601953
683.930725	802.097839	6683.826660	1137.054565	5.694869
684.259033	797.193848	6585.970215	1117.735718	5.537299
684.587280	794.518982	6507.654785	1114.169312	5.595007
684.915344	794.667542	6410.244141	1104.138306	5.510935
685.243469	800.908997	6354.442871	1114.094971	5.639400
685.571533	801.429138	6326.134277	1107.110596	5.532991
685.899536	805.961609	6321.155762	1108.522339	5.485949
686.227539	805.144287	6302.505859	1108.448120	5.517262
686.555420	811.831543	6316.994629	1109.934082	5.414963
686.883301	802.915222	6323.979004	1111.642944	5.591816
687.211121	804.847107	6344.189453	1115.209595	5.602876
687.538940	796.599426	6353.773926	1114.763672	5.725288
687.866638	796.748047	6353.550781	1114.615112	5.720323
688.194336	793.032959	6340.622559	1109.339478	5.701693
688.521973	794.593262	6302.282715	1103.989746	5.617537
688.849609	800.834656	6233.181152	1100.200317	5.510798
689.177063	799.125732	6170.172363	1097.822632	5.561242
689.504578	804.252625	6087.548340	1088.163330	5.373742
689.832031	800.834717	6029.591309	1079.692871	5.333164
690.159485	808.116394	5962.644531	1072.485474	5.128870
690.486816	801.429199	5906.917969	1077.909546	5.415355
690.814087	807.521973	5851.488281	1085.934204	5.519708
691.141296	808.339294	5786.101563	1084.002441	5.537893
691.468506	803.806824	5712.839355	1076.423462	5.553368
691.795715	800.017334	5631.403809	1065.352417	5.491903
692.122803	801.577820	5569.955078	1063.197632	5.486558
692.449829	803.658264	5544.469238	1070.479370	5.628174
692.776855	795.484924	5512.593750	1070.627930	5.832874
693.103821	788.054688	5473.213379	1070.925171	6.037586
693.430664	787.608887	5433.758301	1067.061401	6.014712
693.757568	794.667542	5412.284668	1065.649658	5.868441
694.084351	792.958679	5410.575684	1061.786011	5.821776
694.411133	798.531311	5394.452148	1060.002563	5.689203
694.737854	803.583923	5378.922363	1060.819946	5.622230
695.064575	808.636536	5398.687500	1066.466919	5.617157
695.391174	813.763367	5408.271973	1062.083130	5.404707
695.717773	807.967773	5431.603516	1063.048950	5.516896
696.044250	805.367188	5430.191406	1060.151245	5.509054
696.370789	806.407410	5481.386230	1064.535156	5.521474
696.697205	810.048279	5570.920410	1066.095581	5.378160
697.023621	807.893372	5711.056152	1069.736206	5.340284
697.349915	806.333069	5887.228027	1078.726929	5.361139
697.676208	798.308411	6093.491699	1096.188110	5.625484
698.002380	800.983337	6318.332031	1108.002197	5.564609
698.328674	796.599426	6542.354004	1118.627441	5.604626
698.654724	806.258850	6723.132813	1123.457031	5.360908
698.980896	802.023621	6843.949219	1132.001953	5.461476
699.306946	799.720215	6869.732422	1136.311523	5.545150
699.632935	791.769836	6820.173340	1136.311523	5.715306
699.958862	804.178406	6704.929199	1140.918335	5.706730
700.284729	802.840881	6517.462891	1127.098022	5.674166
700.610596	802.097839	6306.071777	1112.088745	5.632129
700.936340	795.410645	6068.080078	1092.250000	5.629774
701.262146	802.320801	5862.335938	1075.383301	5.396476
701.587830	810.196960	5668.703125	1064.163574	5.227257
701.913513	807.744873	5497.806152	1058.293701	5.342123
702.239075	800.760437	5343.554199	1058.219360	5.667414
702.564697	796.005066	5216.050781	1052.126587	5.794544
702.890137	798.308411	5109.426270	1041.352661	5.637616
703.215698	801.131836	5033.860840	1031.396118	5.440090
703.541016	797.565247	4964.312988	1019.061768	5.315813
703.866455	793.850281	4904.797363	1009.848206	5.254213
704.191711	795.633484	4866.308105	1010.739929	5.284295
704.517029	793.775940	4831.237305	1017.055664	5.530201
704.842163	796.376526	4792.599609	1020.919373	5.618876
705.167419	792.438477	4761.020996	1023.668518	5.826515
705.492493	802.395020	4727.733887	1024.337280	5.654092
705.817566	804.252625	4712.056152	1027.012207	5.700378
706.142578	814.283508	4684.267090	1017.873047	5.260734
706.467590	813.391846	4682.037598	1019.359070	5.324014
706.792480	806.927551	4675.053223	1013.711975	5.345856
707.117371	792.438477	4685.455078	1018.838867	5.815552
707.442200	790.952393	4694.892090	1017.055603	5.791667
707.766907	803.435303	4710.347168	1018.987488	5.517201
708.091675	818.072937	4695.337402	1022.776917	5.279598
708.416321	813.837708	4702.991211	1026.120605	5.458332
708.741028	797.119568	4711.312988	1031.098877	5.977715
709.065552	789.317810	4736.501465	1033.625122	6.189408
709.390137	793.478760	4736.129395	1033.699341	6.092870
709.714600	803.063782	4767.559570	1037.711792	5.918735
710.039063	800.983337	4806.865723	1043.061646	6.043071
710.363403	804.921326	4867.348145	1041.575684	5.825443
710.687744	800.983215	4929.391113	1045.439331	5.921317
711.012085	807.001770	4994.777832	1047.594116	5.745111
711.336304	802.766602	5053.402832	1047.519653	5.758033
711.660461	805.812988	5073.092773	1037.488892	5.429124
711.984619	802.246521	5072.201172	1033.476563	5.415281
712.308716	801.726379	5041.811035	1037.340210	5.556819
712.632751	800.463196	4979.322754	1034.888306	5.609787
712.956726	808.859375	4902.567871	1032.361938	5.459660
713.280701	810.494141	4820.017578	1026.343384	5.383414
713.604553	819.633301	4758.717285	1030.430176	5.351418
713.928467	810.791260	4718.371582	1028.869751	5.580909
714.252258	809.899658	4698.755371	1027.160889	5.586765
714.575989	801.132019	4681.294434	1021.588135	5.681621
714.899719	804.326965	4658.483887	1013.414856	5.424997
715.223267	796.450928	4650.310547	1013.043396	5.620144
715.546936	799.423035	4666.210938	1013.191956	5.528333
715.870422	798.531433	4674.384277	1021.662415	5.756952
716.193970	810.271179	4643.623047	1023.074158	5.551355
716.517395	813.168945	4607.883301	1020.027771	5.451236
716.840820	818.072937	4577.642090	1009.179504	5.083204
717.164124	815.843933	4542.868652	997.736877	4.880379
717.487488	816.066833	4483.797852	1000.783264	5.036259
717.810730	815.620911	4405.779785	994.393250	4.979510
718.133972	811.311462	4320.703613	992.238586	5.155512
718.457092	800.537537	4247.366699	983.990906	5.322381
718.780212	787.906067	4177.299316	988.969238	5.932128
719.103210	794.816223	4132.568848	984.213867	5.674406
719.426208	807.893494	4073.052002	981.984802	5.331788
719.749207	816.735535	4039.913330	976.263489	4.949400
720.072083	810.494141	3984.334961	978.492493	5.293219
720.394958	807.819153	3953.796143	973.217041	5.257441
720.717773	803.732483	3906.539795	969.799133	5.352142
721.040527	801.132019	3903.716553	964.077820	5.251937
721.363281	790.135193	3870.725830	958.505127	5.465508
721.685913	793.478760	3844.125244	960.214050	5.465572
722.008545	793.478760	3792.187744	963.780579	5.679171
722.331055	799.125732	3771.680420	964.820801	5.574164
722.653503	797.639709	3751.173096	970.244934	5.844025
722.976013	798.605652	3754.739502	973.365723	5.911778
723.298401	802.840881	3751.767578	983.099365	6.112681
723.620789	801.875000	3755.556641	977.600891	5.949385
723.943115	799.274414	3739.953125	978.121033	6.081814
724.265381	799.051453	3730.368408	968.313049	5.774251
724.587585	804.178406	3714.319092	964.597961	5.512433
724.909790	808.785156	3717.142578	965.266663	5.380408
725.231873	803.658264	3722.640625	971.582336	5.752829
725.553894	796.005066	3726.355713	975.074524	6.110855
725.875916	845.342041	3791.296143	1013.043274	5.692595
726.197937	854.704163	3814.330078	1007.544922	5.164192
726.519775	857.676331	3843.457031	1005.018555	4.934797
726.841675	807.076172	3824.732666	961.923035	5.131361
727.163513	803.955505	3850.515869	964.375000	5.265594
727.485291	803.509583	3898.366455	968.164490	5.320275
727.806946	801.429199	3923.257813	971.582336	5.450432
728.128662	797.639709	3950.155518	975.446106	5.640143
728.450256	801.280518	3955.876953	973.291321	5.452704
728.771790	802.766602	3952.979248	974.777405	5.460292
729.093323	799.423035	3951.567627	982.430603	5.805811
729.414795	796.153625	3938.564453	985.699890	6.031874
729.736145	798.085449	3913.375732	984.659668	5.988984
730.057495	796.005066	3897.474854	967.792969	5.538919
730.378845	793.924500	3887.518311	966.306885	5.572237
730.700134	797.491028	3903.344727	957.464844	5.150720
731.021301	800.091736	3905.053711	966.232605	5.350818
731.342468	797.416809	3929.202393	967.644348	5.435479
731.663574	798.308411	3963.827148	975.966309	5.612284
731.984680	796.896667	3983.219971	970.244934	5.440385
732.305664	797.491150	3988.049805	968.981873	5.374944
732.626648	799.200012	3986.563721	968.535950	5.312727
732.947571	805.218567	3990.873291	973.217041	5.273593
733.268433	812.946106	4000.458252	969.427551	4.909203
733.589233	814.060608	3994.216797	971.062256	4.936916
733.909973	813.689148	3944.954102	978.121033	5.251293
734.230713	809.008057	3879.790771	987.408875	5.809620
734.551331	799.125793	3812.918701	985.922852	6.198072
734.871948	794.147461	3759.866455	971.805359	5.990382
735.192505	793.478760	3696.263428	952.560852	5.480327
735.513062	795.336243	3641.056396	942.009827	5.154181
735.833435	804.326965	3590.753174	942.455627	4.957198
736.153931	809.379578	3553.156250	948.994324	5.088415
736.474304	813.614807	3526.406982	946.170715	4.886327
736.794617	808.859436	3537.552490	947.359619	5.075696
737.114807	810.939941	3539.335938	948.399902	5.038124
737.434998	805.961670	3529.082031	957.836243	5.577226
737.755188	804.252625	3511.397705	953.303894	5.505847
738.075256	808.785156	3536.660889	950.851868	5.207961
738.395325	810.271179	3588.969971	940.226563	4.676843
738.715271	816.586914	3630.579346	948.251282	4.678917
739.035278	810.419739	3645.811523	950.331787	4.934487
739.355164	809.230957	3628.127686	957.464844	5.258578
739.675049	804.029785	3624.040771	950.629089	5.198536
739.994873	801.726379	3584.065674	952.783875	5.429154
740.314636	804.252686	3541.341797	952.263672	5.407606
740.634277	802.692383	3495.422852	952.040771	5.546355
740.953979	801.503479	3460.574951	952.486511	5.678036
741.273499	800.017395	3436.500732	952.040710	5.766140
741.593140	798.308411	3391.547607	951.297668	5.899543
741.912598	804.475586	3345.182861	937.180176	5.223136
742.232117	801.577698	3302.161377	929.155579	5.101924
742.551453	803.583984	3258.545898	923.880066	4.900120
742.870850	795.336365	3236.700928	925.737610	5.341326
743.190063	798.308411	3200.441162	928.932617	5.437843
743.509338	795.856445	3179.710693	924.846008	5.410967
743.828552	804.624207	3158.757080	928.263916	5.252028
744.147705	805.812988	3143.525391	921.130859	4.932937
744.466797	805.887390	3130.299561	923.136963	5.044268
744.785828	801.429199	3109.569092	929.229797	5.536952
745.104858	796.005066	3089.952881	936.437195	6.121854
745.423706	799.571594	3081.928467	937.774658	6.055278
745.742615	801.577698	3071.897461	927.966736	5.567015
746.061401	809.082336	3060.677734	922.839844	5.052307
746.380249	809.453857	3047.971924	922.914124	5.068544
746.698975	807.447693	3048.789063	921.725281	5.098625
747.017639	808.190735	3054.064697	928.709778	5.366242
747.336304	807.150391	3052.132813	928.561096	5.408092
747.654907	810.122559	3054.362061	935.471191	5.585350
747.973389	810.642761	3041.953125	936.882996	5.657673
748.291931	809.156677	3036.529297	938.294739	5.797776
748.610352	810.122559	3020.405518	928.486816	5.355163
748.928711	810.048279	3036.900635	925.217468	5.171838
749.247070	815.843933	3037.866943	923.137024	4.828622
749.565308	814.432129	3055.476563	930.864441	5.195448
749.883545	807.076172	3039.204102	931.904724	5.592357
750.201782	800.240234	3026.944092	932.796387	5.953021
750.519836	800.686096	3000.715576	929.972900	5.876594
750.837952	799.348694	2983.997314	926.332031	5.812529
751.155884	800.463196	2979.241943	923.434265	5.644036
751.473877	793.627380	2975.229736	920.907959	5.834270
751.791809	794.667664	2963.935547	914.815125	5.538618
752.109619	791.769775	2946.474609	917.935852	5.855376
752.427490	788.872009	2928.641846	917.415710	6.007361
752.745300	797.045349	2922.697510	923.731445	5.959870
753.062988	799.794495	2924.257813	919.273193	5.623947
753.380615	805.887390	2936.740967	920.536438	5.380428
753.698303	799.794434	2943.799561	918.976074	5.558832
754.015808	800.388916	2937.706299	913.774902	5.305061
754.333374	792.810059	2929.607422	912.511719	5.601919
754.650757	798.159851	2929.607666	914.592224	5.462595
754.968262	802.097900	2937.632080	917.489990	5.403430
755.285583	813.317566	2925.223633	917.638611	4.939663
755.602905	813.243347	2920.022705	924.102844	5.262037
755.920105	815.843933	2897.954834	921.056580	5.053172
756.237305	814.134949	2898.772217	927.298035	5.428431
756.554443	812.797546	2890.078857	916.003967	4.968341
756.871582	802.320801	2910.809326	932.647766	6.181061
757.188599	804.772766	2924.778076	931.310364	5.968740
757.505615	798.754211	2949.520508	935.322571	6.349753
757.822510	799.200134	2969.508057	928.412537	5.953644
758.139465	798.977234	2990.312744	927.520813	5.865993
758.456238	805.070007	3013.124023	922.022461	5.296630
758.773010	805.812988	3029.693604	920.239197	5.145339
759.089783	808.116394	3046.857422	919.793396	4.988384
759.406433	808.487976	3061.940674	918.827454	4.896463
759.723145	811.014160	3057.185547	919.273254	4.819716
760.039673	804.178406	3068.182373	916.003906	4.939281
760.356201	805.664368	3063.203857	918.901794	5.015966
760.672668	807.967773	3089.507080	917.935852	4.819907
760.989136	801.875000	3091.884766	916.003906	4.983774
761.305481	792.364258	3102.361328	917.267090	5.407056
761.621826	795.187683	3103.773193	916.152588	5.239785
761.938049	796.302246	3111.054688	925.588928	5.585335
762.254333	802.395203	3145.531494	934.653870	5.644515
762.570496	796.896729	3225.852783	943.272949	6.026302
762.886597	803.658264	3376.389893	953.229553	5.813715
763.202637	801.577820	3595.657227	957.019043	5.563236
763.518677	807.299072	3860.026123	973.142761	5.432641
763.834656	806.630310	4110.129395	983.768066	5.362125
764.150574	815.100830	4290.685059	996.770996	5.227040
764.466370	811.757263	4341.210938	998.777161	5.298834
764.782288	812.574524	4262.970215	994.616211	5.275965
765.097961	807.447693	4082.934570	990.083740	5.575844
765.413696	802.692322	3871.468994	974.628723	5.602767
765.729309	797.639709	3685.563721	961.923035	5.688631
766.044861	793.924561	3524.029297	946.690918	5.595623
766.360474	795.484924	3383.448486	938.814880	5.538330
766.675903	795.707825	3254.087891	935.322571	5.679136
766.991394	804.772766	3153.184570	931.681824	5.404037
767.306763	808.562256	3082.151367	937.180176	5.657043
767.622131	812.871765	3030.362061	928.783997	5.227181
767.937378	802.395081	2972.332031	926.034851	5.697851
768.252625	799.720215	2921.731689	918.604492	5.602433
768.567810	802.915283	2858.871826	909.168152	5.168050
768.882996	805.887390	2813.621094	902.703796	4.822174
769.197998	810.345520	2767.553467	902.034973	4.684707
769.513062	809.156677	2745.634033	914.740784	5.452380
769.828064	813.020325	2721.782959	916.969910	5.445915
770.142944	812.054382	2692.136475	913.997803	5.422286
770.457825	809.602478	2664.272705	905.229980	5.156038
770.772705	800.983337	2642.353516	901.440613	5.455572
771.087402	806.035950	2637.077881	893.192932	4.759966
771.402100	808.562195	2605.647705	887.545898	4.395100
771.716736	808.487854	2584.100098	886.802917	4.410595
772.031372	792.438477	2551.778564	897.279602	5.959116
772.345947	785.974121	2555.121826	899.657410	6.425879
772.660461	793.998840	2538.329346	905.750183	6.406546
772.974854	803.881104	2532.831299	900.103210	5.565349
773.289246	809.007996	2503.258789	898.617126	5.289012
773.603638	808.116394	2498.057373	894.530457	5.113437
773.917908	807.521973	2479.927734	894.084656	5.175938
774.232178	809.825378	2465.587158	904.561340	5.721594
774.546265	806.035950	2448.572021	908.127869	6.215505
774.860474	810.939941	2434.156982	904.115479	5.740177
775.174561	815.026550	2425.538086	892.821472	4.830448
775.488586	816.438293	2409.191406	885.316895	4.324500
775.802551	810.568359	2398.194580	893.118652	5.199605
776.116516	807.596252	2390.021484	893.564514	5.432690
776.430359	805.887268	2392.919189	887.545959	5.145371
776.744202	807.670593	2379.321777	884.425293	4.883698
777.057922	809.825378	2372.263184	885.985596	4.874448
777.371704	813.986328	2356.288086	892.895752	5.116342
777.685303	813.837708	2359.334229	887.248840	4.750003
777.998962	803.583923	2354.578857	881.973328	5.054137
778.312500	803.509705	2355.767822	882.939270	5.117033
778.626038	802.395081	2349.897949	884.945496	5.334427
778.939453	808.933777	2343.804932	893.118713	5.484821
779.252869	814.877930	2337.266357	891.706970	5.046612
779.566223	812.871765	2331.470947	892.375671	5.235345
779.879578	813.540466	2329.761963	895.199219	5.385674
780.192749	809.305176	2330.579102	896.165100	5.709683
780.505920	813.837708	2330.876465	888.214783	4.902780
780.819031	802.320801	2326.715576	885.093994	5.429905
781.132141	800.760437	2308.882813	895.645020	6.291571
781.445190	802.469421	2299.000488	900.103210	6.524007
781.758118	810.048157	2287.706299	894.753418	5.732399
782.071045	805.441467	2281.910889	880.635925	5.092855
782.383911	799.645813	2262.666504	879.744141	5.474859
782.696838	798.828613	2249.515137	879.447021	5.557259
783.009583	805.664368	2222.840332	875.211731	4.907461
783.322266	808.190674	2200.995361	877.366516	4.966658
783.634888	815.843933	2184.054199	878.852600	4.605189
783.947510	809.082336	2176.846924	884.276672	5.497608
784.260132	813.466125	2174.320557	885.614197	5.301674
784.572571	802.395020	2164.512451	883.905090	5.984071
784.885010	801.874939	2160.426025	879.967102	5.748195
785.197449	801.503418	2151.286865	878.183838	5.680943
785.509766	809.082336	2144.005127	880.561523	5.354556
785.822083	810.419861	2135.757324	881.676086	5.376459
786.134277	809.974060	2132.042236	877.143616	5.080643
786.446533	809.751160	2136.649170	874.022888	4.843758
786.758606	808.562256	2130.779053	877.886658	5.243043
787.070740	801.057617	2146.159912	883.607910	6.137102
787.382690	797.788330	2153.218750	882.121887	6.221902
787.694641	799.943054	2187.769287	876.772156	5.535931
788.006653	805.738708	2219.422119	876.920715	5.035216
788.318481	800.314636	2265.935547	885.019714	5.779467
788.630310	801.131897	2304.647461	896.908203	6.370157
788.942017	796.153625	2335.557373	893.713196	6.337491
789.253784	804.549805	2341.947510	891.484070	5.654637
789.565430	802.617981	2347.000000	889.254944	5.609814
789.877014	805.292969	2318.988037	896.090820	5.998424
790.188538	810.271179	2287.483643	894.902039	5.729092
790.500061	805.144226	2248.400391	892.821533	6.074965
790.811462	801.800720	2213.403809	890.518127	6.284870
791.122925	794.518982	2194.902588	889.849426	6.807453
791.434204	802.989563	2158.494141	885.688477	6.100969
791.745483	811.980164	2129.664795	876.697815	4.911468
792.056702	808.710754	2092.884766	871.050781	4.854484
792.367920	803.881165	2072.822998	868.301575	5.076703
792.678955	797.119629	2062.272217	870.530701	5.802547
792.990112	797.119629	2053.727295	871.793762	5.942518
793.301086	803.881165	2051.052490	876.029114	5.784926
793.612122	802.246521	2056.476563	874.320129	5.746443
793.922974	805.590088	2057.071045	871.422363	5.260350
794.233826	797.714050	2046.965820	868.078674	5.632542
794.544556	805.144287	2039.907104	867.335693	5.036709
794.855286	802.172180	2043.993774	866.146790	5.151675
795.166016	805.738770	2055.436279	873.131287	5.392706
795.476624	798.382813	2071.708496	872.239563	5.800303
795.787292	796.079346	2091.324219	876.474854	6.206974
796.097778	794.667542	2118.519287	871.273682	5.786610
796.408264	796.376465	2133.082520	880.710144	6.309067
796.718689	810.196777	2140.364258	886.357178	5.725625
797.029053	813.540527	2144.228027	880.412903	5.025401
797.339355	813.911926	2143.633545	876.103333	4.677024
797.649658	802.023621	2144.227783	871.496582	5.176035
797.959839	801.503418	2120.822754	876.251953	5.665689
798.270020	808.116394	2099.572266	878.481018	5.448473
798.580078	811.237061	2078.247070	882.047546	5.588787
798.890137	810.642639	2062.272217	878.778259	5.443753
799.200195	804.921387	2039.089478	868.301575	5.135458
799.510071	805.441467	2017.616089	861.911621	4.658583
799.820007	802.246399	1995.399414	866.295410	5.368046
800.129883	799.200012	1980.910645	874.691589	6.388330
800.439575	800.686096	1966.941772	875.434631	6.409276
800.749329	806.853271	1963.003540	868.598816	5.340616
801.058960	809.379578	1949.406250	861.911560	4.607961
801.368591	810.419739	1939.598145	858.122070	4.224516
801.678162	807.001892	1928.229858	856.784668	4.440022
801.987671	801.280579	1925.555054	859.088074	5.141760
802.297119	794.816223	1907.499512	861.540039	5.996658
802.606506	792.141296	1900.960815	863.323303	6.419621
802.915894	801.875000	1900.737915	867.558533	5.977409
803.225159	798.234131	1913.369507	866.221008	6.096737
803.534424	797.862610	1909.134155	868.153015	6.325223
803.843628	792.289856	1912.403320	865.478027	6.533996
804.152771	795.484924	1912.403320	875.434753	7.158072
804.461792	800.017395	1911.065918	873.948547	6.654178
804.770874	806.853333	1904.378906	870.382080	5.788361
805.079773	807.001953	1907.425171	861.911560	4.989862
805.388733	804.995789	1918.644897	867.855774	5.644505
805.697571	798.977234	1933.951172	870.307800	6.284776
806.006470	801.875000	1931.276367	867.261414	5.789475
806.315125	798.679932	1945.691040	861.540100	5.480345
806.623901	800.463196	1949.926392	861.985840	5.352294
806.932495	793.627258	1960.625977	864.437805	6.067748
807.241150	793.701660	1946.954224	870.753601	6.681272
807.549622	788.574768	1927.041138	866.444031	6.839839
807.858154	794.147461	1900.292114	867.781433	6.656812
808.166565	804.847107	1883.945435	860.351135	5.143556
808.474915	814.209290	1868.490601	868.598816	5.158920
808.783264	817.330017	1857.865234	868.153015	4.884314
809.091492	812.648926	1851.401001	866.964111	5.228889
809.399719	808.190674	1846.348267	855.595886	4.566283
809.707825	802.023621	1835.351563	856.115906	5.234765
810.015930	803.806824	1824.726196	860.871277	5.589516
810.323975	810.865540	1815.215454	862.505920	5.141672
810.632080	824.091492	1800.354980	859.533936	3.630418
810.939880	818.221619	1780.664673	852.177917	3.528136
811.247864	815.323792	1761.494751	861.837219	4.915965
811.555664	809.007996	1759.859985	859.088074	5.266864
811.863464	817.181396	1760.305786	861.465820	4.695502
812.171143	805.070007	1765.061157	851.732117	4.860681
812.478882	799.051514	1764.541016	849.651672	5.240881
812.786438	795.039063	1755.699097	853.664001	6.102569
813.094055	798.085449	1750.275024	860.053955	6.508001
813.401489	800.983337	1743.959106	860.574036	6.319430
813.708984	795.113464	1754.881714	857.230469	6.472084
814.016357	806.258789	1759.711426	854.332703	5.042087
814.323730	811.237122	1759.117065	858.419373	4.977661
814.630981	814.580750	1732.888184	853.292419	4.215546
814.938232	807.076172	1721.073853	852.623718	4.983333
815.245361	800.240234	1717.581665	855.447205	6.018148
815.552490	804.549805	1725.606445	863.397644	6.389166
815.859619	805.367188	1731.253540	861.762878	6.090995
816.166565	811.980164	1737.717773	862.877441	5.498024
816.473572	806.333191	1751.983765	853.812561	5.020815
816.780457	798.754211	1753.172729	855.075745	5.901136
817.087341	799.943115	1756.367798	851.955017	5.438160
817.394043	799.794495	1759.191284	853.069519	5.552971
817.700806	800.463196	1773.308594	849.725891	5.063774
818.007507	793.032898	1784.008179	843.930359	5.136098
818.314209	800.314636	1793.964844	852.772400	5.279299
818.620667	818.964600	1799.017456	857.527649	3.934793
818.927246	820.079102	1817.964722	863.843445	4.385707
819.233704	817.181335	1847.462891	864.066345	4.550699
819.540161	803.583984	1895.833984	869.267578	6.013604
819.846497	805.367188	1968.353394	879.744202	6.395348
820.152832	807.001892	2053.875732	876.623535	5.583696
820.458984	806.927551	2153.441406	878.704041	5.330542
820.765259	809.751038	2266.084717	877.217957	4.632655
821.071350	807.076172	2392.027588	885.539795	4.950538
821.377502	808.562195	2575.406494	898.840027	5.109552
821.683472	808.190735	2946.697266	927.892395	5.597442
821.989441	802.766602	3686.901123	976.560730	6.025867
822.295349	798.159851	4870.989258	1035.854248	5.836100
822.601196	793.627380	6359.792969	1113.129028	5.740067
822.907043	791.621155	7731.421387	1182.602051	5.633893
823.212769	790.209473	8558.260742	1232.905151	5.698928
823.518494	795.633545	8551.574219	1228.967041	5.587117
823.824097	799.943054	7890.057129	1190.626709	5.510259
824.129700	806.630310	6860.370605	1125.537598	5.267938
824.435242	799.645813	5815.302246	1068.027222	5.350873
824.740723	804.847107	4924.487305	1019.284729	5.205251
825.046082	803.286804	4240.233398	981.984680	5.199321
825.351501	808.264954	3731.854248	951.669189	4.905075
825.656799	798.828613	3363.535889	934.579590	5.293040
825.962036	800.240295	3114.472900	925.960449	5.432477
826.267212	801.132019	3002.424561	919.421814	5.373652
826.572449	802.915283	2986.672119	922.765442	5.488256
826.877502	799.720215	3125.024170	936.511475	5.882726
827.182495	800.983337	3401.801514	960.511292	6.133760
827.487488	805.812988	3767.519531	980.201477	5.888108
827.792419	805.292908	4075.504150	987.706116	5.578025
828.097290	805.218567	4190.078613	987.854736	5.395679
828.402100	808.859375	4055.219727	975.371826	5.129204
828.706848	809.528137	3725.538330	966.455505	5.381578
829.011597	803.212402	3309.517578	949.960266	5.855147
829.316223	796.896667	2923.811768	927.000732	6.117032
829.620789	794.296082	2607.951416	904.264160	6.063340
829.925354	796.673767	2369.513916	882.419128	5.451626
830.229797	802.840820	2196.908447	873.799988	5.090081
830.534302	808.264954	2070.519287	866.369812	4.603261
830.838562	810.939880	1975.040649	868.153015	4.914792
831.142944	803.138123	1897.691528	865.552429	5.702262
831.447144	800.091614	1835.277344	865.626648	6.330751
831.751404	797.268250	1796.714233	859.088074	6.185409
832.055542	798.382751	1778.955688	864.957947	6.789418
832.359619	800.166016	1785.122925	856.561768	5.725708
832.663635	795.187744	1812.912109	856.413147	6.015912
832.967651	797.714050	1879.115845	853.515381	5.160092
833.271545	798.828552	1994.359375	868.375916	5.817279
833.575439	798.605652	2180.339111	880.041443	5.893741
833.879211	799.200012	2418.627686	895.273438	5.932554
834.183044	800.983215	2680.842041	909.985352	5.798421
834.486694	808.487793	2878.190186	922.096741	5.489144
834.790344	803.063782	2954.424805	927.075012	5.764315
835.093933	797.788330	2885.546143	919.496094	5.829592
835.397522	797.268250	2715.615723	909.465271	5.848629
835.700928	806.035950	2495.976807	892.524353	5.117836
836.004395	811.311340	2296.696777	882.939270	4.822178
836.307739	810.791260	2119.187744	875.360413	4.934984
836.611023	807.596252	1990.124023	868.004395	5.108391
836.914307	804.847107	1870.719727	859.236633	5.102817
837.217529	802.023621	1776.726685	850.023132	4.924527
837.520691	800.834717	1702.943970	850.246094	5.477316
837.823730	797.788391	1645.285156	845.193542	5.593550
838.126831	797.416809	1602.561157	845.267761	5.943152
838.429749	795.930847	1564.592407	843.558777	6.196216
838.732727	800.686096	1534.425415	847.942627	6.440507
839.035522	797.639648	1512.208984	848.388428	7.102009
839.338379	796.376648	1500.543457	841.998474	6.478838
839.641113	789.689270	1509.385376	838.208984	6.741695
839.943848	787.980408	1553.892700	840.735291	6.887849
840.246460	787.088684	1607.613647	845.490723	7.117643
840.549072	797.268250	1668.170288	854.109802	6.526745
840.851563	808.710754	1697.074097	852.029297	4.876219
841.154053	814.209229	1706.807739	857.750671	4.878055
841.456482	804.698425	1667.724609	849.800232	5.226007
841.758850	801.057617	1611.625977	841.924133	5.041711
842.061157	794.816162	1547.428345	836.054199	5.479321
842.363403	796.970947	1496.679688	835.534180	5.511326
842.665588	800.017334	1461.460083	834.791016	5.257247
842.967712	800.760437	1429.584351	836.351379	5.659922
843.269775	799.200012	1400.234863	835.757019	6.082344
843.571777	787.163086	1364.272339	838.654785	8.922349
843.873840	787.608826	1332.990845	833.304993	8.378745
844.175659	790.952454	1315.604126	829.441223	7.336061
844.477600	805.292908	1308.025146	829.515625	4.818214
844.779297	812.277344	1298.885864	828.401062	3.313489
845.081116	817.701477	1290.861084	830.555847	2.716709
845.382751	810.865540	1280.978882	832.784912	4.662572
845.684387	808.190735	1269.164673	823.794250	3.384902
845.985962	803.955383	1262.254517	822.456787	4.036971
846.287537	807.299072	1247.468384	826.617859	4.388945
846.588989	800.983337	1236.768677	840.438049	9.053703
846.890381	797.342529	1224.211670	834.345215	8.668391
847.191711	798.382813	1218.118774	828.549622	7.187092
847.493042	808.562256	1219.381958	831.224548	5.516360
847.794250	814.060608	1213.809204	836.277161	5.557631
848.095459	811.088562	1216.855591	832.041931	5.163891
848.396606	809.973938	1218.490356	822.456848	3.055669
848.697693	814.506531	1220.645142	823.942871	2.323429
848.998657	814.060608	1219.456177	822.531189	2.089461
849.299622	815.695251	1210.911499	823.199890	1.898869
849.600464	808.562195	1195.456421	823.794250	3.937008
849.901367	809.156555	1176.063599	825.800476	4.536277
850.202087	802.692322	1160.088379	819.038879	4.573793
850.502808	804.921387	1155.927612	817.329895	3.535125
850.803467	806.407410	1162.243164	814.209229	2.192534
851.104065	807.001892	1168.261719	818.295898	3.126283
851.404663	804.772766	1177.995239	812.500244	2.070475
851.705139	800.463196	1175.617554	814.283508	3.683900
852.005615	796.450867	1171.753906	819.633301	6.176991
852.306030	787.608887	1165.661133	820.004883	8.569185
852.606384	788.351868	1162.391724	816.884094	7.628125
852.906616	794.890442	1160.311401	815.100830	5.530714
853.206909	800.463196	1161.351563	814.655029	3.932472
853.506958	799.051453	1160.459961	821.342285	6.167767
853.807129	797.268250	1170.119263	817.775696	5.500172
854.107178	793.775940	1161.500244	829.069763	9.597903
854.407166	797.193909	1160.831421	825.057434	7.662445
854.707092	800.686096	1147.679810	821.713806	6.059968
855.007019	809.305176	1150.577637	819.856201	3.091672
855.306763	812.128662	1135.865723	819.113220	2.157479
855.606567	812.574524	1131.927734	823.274170	3.350411
855.906250	807.521973	1128.435425	818.890320	3.542496
856.205933	798.679993	1135.717041	817.998718	5.731929
856.505493	790.729553	1133.636597	813.540527	6.652233
856.805054	791.546875	1127.840942	810.494080	5.634118
857.104492	795.039124	1138.094727	806.407410	3.313832
857.403931	800.091736	1144.187622	809.751038	2.807154
857.703308	800.686096	1156.298950	811.385742	3.008790
858.002563	798.457031	1147.828491	820.970703	6.444050
858.301819	795.484924	1150.206177	819.113098	6.661054
858.601013	799.720215	1140.472534	822.233887	6.607049
858.900208	790.506653	1137.649048	820.673523	8.690057
859.199219	794.593262	1133.636597	825.726135	9.182565
859.498291	788.426086	1133.562378	822.605469	9.903155
859.797302	788.500488	1132.596313	818.444519	8.702236
860.096191	789.912170	1135.494141	812.500244	6.536242
860.395020	793.404480	1139.877930	815.620911	6.412159
860.693787	801.354797	1131.927612	820.153381	5.686670
860.992554	802.320740	1117.958862	815.918152	4.307912
861.291260	798.159851	1102.206543	815.843933	5.816239
861.589844	801.206238	1102.503784	816.364014	5.030833
861.888428	794.667664	1102.578003	825.800476	10.110999
862.186890	800.388977	1112.311646	824.685852	7.789391
862.485413	800.463196	1109.711182	821.267883	6.727509
862.783813	803.955383	1108.670898	810.568359	2.170213
863.082153	805.961670	1106.813354	805.664368	-0.098820
863.380371	809.082336	1109.116699	807.150574	-0.643847
863.678589	807.819275	1115.060913	809.230957	0.459470
863.976746	808.785156	1109.785522	812.054443	1.086141
864.274902	809.007996	1117.884399	807.819153	-0.384893
864.572937	806.556091	1116.101196	813.614746	2.280332
864.870911	804.326965	1122.862793	809.751038	1.702814
865.168884	805.813049	1115.432495	813.094666	2.351795
865.466736	807.373352	1111.345825	817.627136	3.373261
865.764587	800.537415	1107.184937	822.679688	7.220757
866.062317	801.354797	1101.983643	825.205994	7.933768
866.360107	804.104004	1103.246826	824.017151	6.656736
866.657715	811.311340	1097.079712	823.274170	4.186198
866.955322	806.555969	1098.788696	822.976868	5.619117
867.252808	803.138184	1093.438965	827.806580	8.497530
867.550293	797.714050	1094.627686	826.617737	9.734712
867.847717	794.593323	1096.113770	828.921143	11.384906
868.145081	791.918396	1100.051880	817.404236	8.271039
868.442383	797.862610	1096.856812	814.803650	5.666009
868.739624	800.017395	1101.686401	810.048279	3.325129
869.036804	802.989502	1101.612183	811.237122	2.761887
869.333984	803.658203	1107.184937	808.562195	1.615670
869.631042	807.819153	1100.274780	812.202942	1.498959
869.928101	806.035950	1100.720581	818.593018	4.261189
870.224976	801.577698	1097.896973	820.896484	6.519585
870.521851	801.726318	1100.126099	816.363953	4.905377
870.818726	802.692200	1102.503662	812.128723	3.147486
871.115479	809.230957	1104.286987	819.261780	3.399633
871.412231	806.333191	1105.475830	817.255554	3.651222
871.708862	804.475586	1109.339600	816.586914	3.972698
872.005493	797.416809	1105.847412	815.769592	5.950377
872.302063	797.639709	1105.624512	820.302063	7.358270
872.598572	796.673828	1099.382935	824.388672	9.155602
872.895020	796.971008	1110.379883	821.862305	7.942116
873.191406	794.593323	1118.181641	822.382507	8.587821
873.487671	798.308411	1126.652222	812.946045	4.458021
873.783997	801.354797	1131.258911	812.797546	3.468508
874.080200	799.125793	1131.036011	808.710876	2.887854
874.376343	797.119629	1126.949341	819.633301	6.825847
874.672424	795.707825	1122.639771	820.227783	7.500019
874.968445	798.159851	1118.999023	817.775818	6.113956
875.264465	796.227844	1115.283813	816.809814	6.450896
875.560364	794.816162	1118.181641	818.964539	7.467828
875.856201	794.296082	1115.878296	824.239990	9.311432
876.152039	798.234192	1121.079468	820.376282	6.858421
876.447754	801.057617	1113.723511	813.391907	3.944879
876.743469	805.441589	1110.454224	811.534363	1.997548
877.039063	808.339355	1099.457397	811.980164	1.250630
877.334595	815.992493	1093.661743	816.809753	0.294329
877.630127	810.494080	1097.525513	819.187500	3.028735
877.925537	807.224792	1109.636841	820.302002	4.324302
878.221008	796.376526	1121.525269	819.038879	6.969842
878.516296	799.348694	1132.819214	812.425964	3.921567
878.811646	798.754211	1140.843994	811.905823	3.844491
879.106812	795.707825	1163.654907	811.831482	4.382059
879.401978	795.410645	1184.534058	817.924316	5.785741
879.697083	793.255859	1219.604858	819.113098	6.064806
879.992126	798.382751	1243.530396	823.868469	5.725228
880.287109	802.915222	1289.226563	825.577454	4.660025
880.582031	805.961609	1361.300171	820.227722	2.568904
880.876892	803.286682	1505.075806	823.794250	2.922184
881.171753	801.280518	1777.395386	841.403992	4.110528
881.466492	807.373352	2228.858643	871.199402	4.490096
881.761230	811.831543	2811.243408	910.431213	4.931434
882.055786	807.819153	3392.587891	939.260681	5.085234
882.350403	802.395020	3769.525635	961.551453	5.363985
882.644958	799.051453	3842.267822	959.916809	5.286031
882.939453	800.537537	3639.867188	951.669250	5.322796
883.233826	802.617981	3282.470947	937.700378	5.447194
883.528137	804.549805	2895.205322	914.517822	5.259978
883.822449	811.831543	2536.323486	893.341553	4.726610
884.116577	807.150452	2244.090820	863.917664	3.950561
884.410828	801.206238	2010.928833	850.766113	4.096797
884.704956	797.936829	1827.847046	836.722961	3.765972
884.999023	801.652039	1679.835938	836.945801	4.018949
885.292969	807.521973	1562.883423	836.500000	3.836313
885.586914	804.772766	1475.577637	828.995422	3.610984
885.880798	799.571533	1409.968262	824.686035	4.114456
886.174622	804.178284	1366.798462	825.057434	3.711056
886.468384	810.568359	1326.823608	829.218445	3.612571
886.762085	812.203125	1292.495972	826.246277	2.923873
887.055664	809.305176	1266.267090	823.348450	3.073183
887.349304	808.487854	1241.152710	820.673523	2.816422
887.642822	809.453796	1218.936157	823.422791	3.411379
887.936340	803.286682	1195.902344	817.552795	3.633608
888.229736	797.639648	1177.103760	818.964600	5.619754
888.523071	794.370422	1163.209106	818.667419	6.587432
888.816284	796.822327	1148.348633	829.218445	9.215844
889.109619	805.367188	1135.122681	821.193665	4.799458
889.402710	814.432129	1111.865845	824.165833	3.272562
889.695862	813.689148	1094.627563	811.757263	-0.687654
889.988892	802.989441	1075.754761	815.323730	4.521942
890.281921	796.005005	1063.049072	808.042053	4.507514
>>>>>End Processed Spectral Data<<<<<
