Jaz Data File
++++++++++++++++++++++++++++++++++++
Date: Fri Jun 04 15:57:34 2021
User: jaz
Dark Spectrum Present: Yes
Reference Spectrum Present: Yes
Processed Spectrum Present: Yes
Spectrometers: JAZA3586
Integration Time (usec): 66300 (JAZA3586)
Spectra Averaged: 10 (JAZA3586)
Boxcar Smoothing: 1 (JAZA3586)
Correct for Electrical Dark: No (JAZA3586)
Strobe/Lamp Enabled: Yes (JAZA3586)
Correct for Detector Non-linearity: No (JAZA3586)
Correct for Stray Light: No (JAZA3586)
Number of Pixels in Processed Spectrum: 2048
>>>>>Begin Processed Spectral Data<<<<<
W	D	R	S	P
191.335022	0.000000	0.000000	0.000000	0.000000
191.713211	413.271729	406.584473	405.098419	122.222168
192.091385	820.970703	817.552795	812.574524	245.652603
192.469528	1233.870972	1233.722290	1228.372559	3698.111572
192.847641	1238.849243	1246.056519	1233.796753	-70.102638
193.225739	1254.452759	1253.635498	1245.610962	1081.881958
193.603790	1262.328857	1260.842896	1242.267212	1350.078003
193.981842	1271.245239	1263.220581	1257.350586	173.149475
194.359863	1271.393921	1267.084351	1258.613770	296.552795
194.737854	1274.960327	1268.347290	1267.678711	110.110016
195.115829	1267.158691	1270.724976	1260.545654	-185.432144
195.493774	1262.551880	1268.718872	1259.728271	-45.785828
195.871704	1261.363159	1272.805542	1261.957397	5.193309
196.249603	1265.895630	1277.189331	1270.799438	43.420738
196.627457	1277.561035	1284.025269	1264.780884	-197.705597
197.005310	1277.263794	1278.749756	1263.146362	-950.053406
197.383133	1283.505127	1272.805542	1254.973022	266.665527
197.760910	1280.978882	1272.211182	1261.362915	223.729904
198.138687	1283.505127	1274.291626	1257.276245	284.678772
198.516449	1272.434082	1272.211182	1261.585815	4866.867676
198.894180	1262.180298	1264.037842	1263.072021	48.005520
199.271866	1263.815063	1257.870728	1267.604492	-63.748562
199.649536	1266.192749	1265.969727	1259.951294	2798.576904
200.027191	1263.220581	1277.040894	1255.938843	-52.688667
200.404816	1257.202026	1284.916870	1249.102905	-29.223045
200.782410	1257.796509	1293.090210	1252.966797	-13.684345
201.159988	1259.356812	1296.656738	1254.750122	-12.350398
201.537537	1263.592041	1299.628906	1263.146362	-1.236730
201.915070	1265.152466	1293.090210	1262.403320	-9.840256
202.292557	1268.570435	1294.204712	1265.375366	-12.464046
202.670029	1262.700439	1302.526733	1252.446655	-25.746267
203.047485	1255.790283	1310.254150	1246.873901	-16.371187
203.424911	1260.396973	1306.093140	1246.130859	-31.219496
203.802292	1264.037964	1306.984741	1251.629272	-28.893185
204.179688	1263.889282	1303.195313	1258.985352	-12.476280
204.557037	1259.653931	1305.647339	1250.069092	-20.839592
204.934357	1260.025513	1301.412109	1248.731567	-27.288897
205.311661	1261.808838	1302.600952	1240.855591	-51.365925
205.688934	1262.328857	1304.755737	1245.833862	-38.878643
206.066177	1255.715942	1299.183105	1251.257813	-10.256316
206.443390	1249.102905	1302.006470	1260.397095	21.348637
206.820587	1251.034790	1296.359497	1251.332153	0.656073
207.197769	1252.818237	1299.777466	1250.589111	-4.746939
207.574921	1255.270142	1289.598022	1237.140259	-52.813869
207.952042	1250.514771	1288.706421	1245.016357	-14.396898
208.329147	1241.895630	1292.272949	1240.781128	-2.212309
208.706223	1261.437378	1310.848511	1265.746948	8.721861
209.083267	1267.010010	1316.124146	1265.301147	-3.479370
209.460297	1269.982056	1308.991089	1272.656982	6.857198
209.837280	1258.167847	1295.096558	1253.635620	-12.272907
210.214264	1254.378540	1286.031372	1256.384766	6.338218
210.591217	1257.870850	1284.768433	1254.155640	-13.812430
210.968124	1247.914307	1288.334839	1256.458984	21.139448
211.345016	1248.508667	1293.610352	1250.589111	4.612786
211.721893	1249.400269	1295.542114	1242.118652	-15.780938
212.098724	1253.041138	1288.037598	1234.316772	-53.503597
212.475555	1249.103149	1290.118042	1241.747070	-17.935143
212.852356	1245.833862	1296.582397	1250.217529	8.638017
213.229126	1245.759399	1303.864136	1256.904785	19.181545
213.605865	1238.403442	1303.641235	1254.304199	24.373535
213.982590	1245.982300	1298.885864	1253.709839	14.606840
214.359283	1241.970093	1303.344116	1253.709839	19.128201
214.735931	1252.669678	1305.201660	1253.858398	2.262851
215.112579	1246.353882	1308.619507	1244.867798	-2.386684
215.489197	1251.777954	1308.173706	1243.678955	-14.361009
215.865799	1252.372314	1306.390503	1240.929810	-21.182690
216.242355	1254.972900	1297.622803	1235.579956	-45.470078
216.618896	1252.818237	1289.078003	1231.270508	-59.426003
216.995407	1249.623169	1286.105835	1228.521118	-57.841309
217.371902	1249.474487	1289.449463	1236.471558	-32.527676
217.748367	1242.192993	1288.409180	1239.295044	-6.270421
218.124802	1240.929810	1301.560669	1243.307495	3.921576
218.501236	1235.357056	1305.127319	1241.449829	8.732622
218.877609	1245.536499	1308.099487	1246.576782	1.662777
219.253983	1250.663452	1299.108765	1245.388062	-10.889373
219.630295	1249.771851	1293.684692	1248.582886	-2.707556
220.006592	1252.149536	1293.684692	1243.456055	-20.930418
220.382889	1244.719116	1289.598022	1243.307495	-3.145400
220.759140	1246.799683	1294.873657	1244.198975	-5.409804
221.135391	1246.279663	1295.170776	1252.520874	12.765532
221.511581	1252.743774	1300.371948	1251.629395	-2.339749
221.887772	1261.362915	1307.727905	1250.143311	-24.198441
222.263931	1254.081177	1307.207764	1239.963867	-26.572966
222.640060	1243.010254	1311.368652	1242.713013	-0.434828
223.016159	1232.161987	1312.111694	1244.942017	15.985085
223.392212	1238.700562	1315.752563	1247.542603	11.475420
223.768265	1249.623169	1307.430542	1251.034790	2.441940
224.144302	1253.486938	1304.607056	1248.285767	-10.174413
224.520294	1250.291870	1301.560913	1251.480835	2.319070
224.896286	1245.016479	1312.631958	1247.319702	3.406354
225.272217	1248.657227	1320.062134	1249.251587	0.832380
225.648148	1252.669556	1327.120972	1251.777954	-1.197562
226.024048	1254.675781	1320.953735	1247.691284	-10.538191
226.399902	1251.183472	1315.975464	1248.805786	-3.669721
226.775772	1255.195801	1312.631714	1240.706909	-25.226189
227.151581	1253.932739	1315.232300	1245.239258	-14.181964
227.527374	1251.109253	1319.913452	1238.849243	-17.818693
227.903137	1244.273315	1328.904175	1245.313599	1.229201
228.278870	1241.078247	1344.953613	1237.808960	-3.147317
228.654572	1246.130859	1350.972046	1240.335327	-5.527915
229.030273	1241.672852	1364.420898	1242.935913	1.028987
229.405930	1249.697510	1376.458008	1247.988403	-1.348296
229.781555	1244.719238	1392.730103	1249.920410	3.514047
230.157181	1251.852173	1401.720825	1242.638794	-6.147636
230.532761	1243.307495	1395.182129	1246.948242	2.397206
230.908325	1245.239258	1387.157593	1246.576782	0.942461
231.283859	1244.570557	1373.337280	1245.462280	0.692511
231.659332	1252.743774	1378.835571	1237.066040	-12.433588
232.034821	1254.973022	1375.417603	1232.905151	-18.322012
232.410263	1258.167969	1374.303223	1234.391113	-20.473417
232.785690	1255.493042	1362.414673	1237.066040	-17.234119
233.161087	1253.858398	1360.705688	1242.192993	-10.917830
233.536469	1251.257813	1351.417847	1245.685059	-5.563850
233.911804	1254.750000	1356.693237	1244.644897	-9.912479
234.287140	1253.784058	1355.504517	1241.301270	-12.271659
234.662430	1251.406372	1369.770508	1243.530396	-6.654023
235.037704	1242.118530	1361.002930	1251.183472	7.625005
235.412933	1239.592285	1362.934692	1250.960571	9.216851
235.788162	1235.654297	1363.083496	1245.313599	7.580132
236.163345	1245.982422	1375.789185	1240.261108	-4.407562
236.538513	1251.406372	1375.492065	1241.672729	-7.844291
236.913635	1255.864624	1377.126587	1245.387939	-8.639712
237.288742	1241.895630	1379.504272	1251.109253	6.695527
237.663834	1242.787231	1383.070801	1248.062866	3.760693
238.038879	1240.706787	1381.510376	1242.861694	1.530435
238.413910	1248.062866	1382.773560	1231.270386	-12.465589
238.788910	1249.846069	1388.271973	1232.607910	-12.452987
239.163879	1253.264038	1398.600098	1236.620117	-11.452024
239.538834	1256.236206	1392.210083	1247.914185	-6.120309
239.913757	1250.143311	1402.389648	1247.691284	-1.610565
240.288651	1242.935913	1410.042603	1242.713013	-0.133388
240.663528	1241.895752	1424.085938	1242.787354	0.489380
241.038361	1246.056763	1431.367554	1244.124756	-1.042577
241.413177	1246.948364	1447.714233	1250.068970	1.554351
241.787979	1242.861694	1468.741821	1247.914185	2.236802
242.162735	1239.295044	1496.531128	1248.954468	3.755081
242.537476	1243.158813	1521.794312	1245.759399	0.933329
242.912170	1249.846069	1552.629883	1243.084595	-2.233103
243.286865	1250.366333	1570.833984	1250.291992	-0.023198
243.661514	1251.703735	1575.440552	1258.539551	2.111535
244.036148	1251.257813	1565.409668	1258.688110	2.365193
244.410751	1248.508667	1534.276855	1247.914185	-0.208030
244.785339	1243.456177	1516.890015	1236.323120	-2.608696
245.159882	1251.555054	1500.692017	1237.437500	-5.666584
245.534378	1254.750122	1509.459839	1245.239258	-3.734001
245.908890	1255.864624	1515.701172	1243.827637	-4.632523
246.283356	1245.908081	1547.131226	1242.415894	-1.159336
246.657791	1254.750000	1589.632446	1236.991699	-5.302846
247.032196	1253.264038	1646.771118	1241.524048	-2.983425
247.406586	1253.115356	1701.606567	1240.855469	-2.733585
247.780960	1243.010132	1749.531738	1240.558228	-0.484067
248.155289	1251.777954	1769.965210	1243.158813	-1.663325
248.529602	1254.155640	1756.962036	1246.428223	-1.536857
248.903870	1253.412598	1729.990234	1249.177368	-0.888676
249.278122	1245.833862	1679.018555	1242.267212	-0.823356
249.652344	1233.722534	1644.244995	1232.979370	-0.181029
250.026550	1239.220825	1600.703491	1232.682251	-1.808821
250.400711	1239.072144	1589.706665	1241.152710	0.593372
250.774857	1248.583008	1575.217773	1240.483765	-2.479602
251.148987	1244.644897	1571.651245	1243.084351	-0.477222
251.523071	1242.861694	1569.273438	1242.564331	-0.091101
251.897125	1243.381714	1575.440552	1252.520996	2.752308
252.271164	1239.369385	1588.071899	1246.576660	2.066884
252.645187	1247.617065	1603.824219	1246.651001	-0.271209
253.019165	1249.920532	1614.895142	1242.861694	-1.934063
253.393112	1256.161865	1618.313110	1247.096802	-2.503115
253.767044	1246.725342	1599.217407	1244.793457	-0.548065
254.140930	1246.428101	1579.973145	1251.034790	1.381130
254.514801	1240.781128	1555.230469	1249.325806	2.717346
254.888657	1248.954468	1550.251953	1250.143188	0.394534
255.262466	1243.381714	1553.595581	1249.102905	1.844273
255.636276	1246.502441	1556.047485	1249.920288	1.104152
256.010010	1248.285767	1557.533569	1247.542603	-0.240313
256.383759	1246.056641	1559.242554	1238.180542	-2.514832
256.757446	1253.858521	1578.189819	1238.552124	-4.719371
257.131134	1246.428223	1603.304077	1236.099976	-2.894073
257.504791	1247.691406	1624.703491	1242.341431	-1.419046
257.878418	1242.564331	1648.182983	1243.381714	0.201515
258.252014	1250.068970	1683.328125	1244.719116	-1.234793
258.625580	1253.635498	1732.145142	1245.387817	-1.723619
258.999115	1251.406372	1787.723633	1239.146484	-2.285939
259.372650	1247.022461	1852.292603	1243.307495	-0.613770
259.746124	1245.090698	1929.864624	1239.443604	-0.824666
260.119598	1246.428101	2011.894897	1251.852173	0.708597
260.493042	1245.833740	2085.825928	1246.205200	0.044222
260.866425	1250.588989	2130.110352	1254.527100	0.447756
261.239838	1255.790283	2113.540771	1243.530396	-1.429307
261.613159	1251.480713	2045.479492	1240.632446	-1.366283
261.986511	1252.000854	1950.223511	1236.248657	-2.256042
262.359802	1250.663330	1880.156128	1235.579956	-2.396116
262.733063	1257.573486	1836.986206	1243.010132	-2.513468
263.106293	1257.053345	1809.940063	1233.276489	-4.300493
263.479523	1258.167969	1793.964966	1241.004028	-3.203441
263.852692	1253.189575	1779.550171	1242.415649	-2.046872
264.225861	1247.914185	1777.915649	1251.257813	0.630871
264.598969	1251.109253	1778.361328	1250.737671	-0.070475
264.972076	1254.155640	1781.333618	1248.880249	-1.000685
265.345154	1258.688110	1785.123047	1254.824463	-0.733927
265.718201	1250.143188	1797.085571	1250.886353	0.135876
266.091217	1252.818237	1822.571411	1253.561279	0.130415
266.464203	1251.034912	1857.419434	1251.406494	0.061278
266.837158	1245.462158	1893.827759	1255.567383	1.558569
267.210114	1241.375610	1922.508667	1254.452759	1.919911
267.583038	1238.997925	1941.604492	1254.824341	2.252529
267.955902	1249.103149	1955.127441	1240.632446	-1.199775
268.328766	1245.685181	1961.442993	1240.706909	-0.695525
268.701569	1251.109253	1952.972656	1236.620239	-2.064364
269.074371	1242.341431	1953.492798	1240.409546	-0.271656
269.447144	1247.617065	1960.477173	1242.267212	-0.750477
269.819885	1239.220825	1985.963257	1242.638794	0.457717
270.192596	1242.935913	2010.780273	1251.852295	1.161223
270.565277	1235.134155	2044.142212	1250.589233	1.910374
270.937927	1235.802856	2092.513184	1249.028687	1.543792
271.310577	1241.301147	2158.048340	1249.994629	0.948296
271.683136	1251.555054	2231.979492	1248.582886	-0.303151
272.055725	1256.384766	2300.337891	1247.171143	-0.882571
272.428284	1249.548828	2335.631836	1246.502441	-0.280493
272.800812	1246.428101	2325.303711	1243.084473	-0.309918
273.173279	1246.502563	2291.570313	1242.044312	-0.426599
273.545776	1249.400269	2259.694580	1236.471558	-1.279698
273.918152	1252.669556	2237.700684	1240.781128	-1.206909
274.290558	1252.149414	2225.515137	1240.186646	-1.229011
274.662964	1249.697388	2198.766113	1243.455933	-0.657640
275.035278	1249.697388	2178.927490	1241.078247	-0.927557
275.407593	1258.390747	2163.843750	1249.325928	-1.001136
275.779907	1261.585815	2164.884033	1251.555054	-1.110460
276.152161	1261.362915	2191.707275	1255.715942	-0.606977
276.524384	1246.279541	2228.710205	1257.127808	1.104227
276.896606	1249.697388	2266.827393	1255.715942	0.591719
277.268799	1244.496338	2285.031494	1254.750000	0.985422
277.640930	1256.236206	2301.898193	1252.446655	-0.362407
278.013031	1256.830444	2318.021973	1251.777954	-0.476115
278.385162	1256.681885	2328.498779	1251.480835	-0.485255
278.757233	1250.589111	2316.759033	1249.177246	-0.132424
279.129272	1245.165039	2308.808594	1242.415771	-0.258476
279.501282	1249.251587	2312.820801	1234.762695	-1.362290
279.873230	1248.657349	2335.185791	1228.744141	-1.832737
280.245178	1252.446655	2370.925537	1230.675903	-1.946461
280.617126	1249.400146	2414.392822	1238.626343	-0.924796
280.988983	1251.629272	2464.250000	1243.901855	-0.637249
281.360870	1250.812012	2511.952393	1244.867798	-0.471336
281.732697	1253.858521	2571.171631	1239.740845	-1.071702
282.104492	1257.573608	2619.468018	1240.706787	-1.238482
282.476288	1249.920410	2671.256836	1241.821411	-0.569816
282.848053	1249.920532	2698.749268	1243.753296	-0.425670
283.219757	1250.812012	2718.885498	1235.579956	-1.037554
283.591461	1253.784058	2713.238037	1240.409668	-0.916397
283.963135	1250.811890	2711.826416	1245.387817	-0.371254
284.334747	1248.880127	2692.507568	1244.421997	-0.308814
284.706360	1254.229980	2705.064697	1242.787354	-0.788693
285.077942	1255.344604	2733.374268	1236.545898	-1.271876
285.449524	1250.143311	2795.937256	1248.211426	-0.124977
285.821014	1243.456177	2835.540283	1245.982300	0.158668
286.192535	1241.152710	2887.329346	1251.406372	0.622877
286.563995	1241.227051	2941.942139	1249.028687	0.458727
286.935425	1245.165039	2970.399658	1254.675659	0.551265
287.306824	1245.833618	2966.907471	1253.486938	0.444683
287.678223	1248.731445	2914.747314	1248.211548	-0.031206
288.049561	1251.703613	2885.546143	1248.508667	-0.195548
288.420898	1254.452759	2839.850342	1242.490112	-0.754552
288.792145	1256.236084	2829.001953	1253.189697	-0.193696
289.163452	1252.372314	2827.441406	1253.784058	0.089631
289.534668	1243.084595	2868.753906	1258.985229	0.978098
289.905914	1241.598511	2908.505859	1252.223755	0.637423
290.277039	1238.255005	2974.932373	1241.895630	0.209632
290.648193	1252.966919	3037.197998	1245.536499	-0.416449
291.019318	1251.926636	3104.962158	1244.050415	-0.425044
291.390381	1248.805786	3116.776367	1245.164917	-0.194910
291.761475	1245.982300	3096.789063	1241.301270	-0.252918
292.132507	1248.062866	3060.380127	1234.985596	-0.721577
292.503510	1254.824341	3037.049561	1240.929810	-0.779617
292.874481	1253.784058	3015.278564	1248.062744	-0.324799
293.245422	1248.582886	3014.758789	1260.545532	0.677319
293.616364	1245.610718	3045.668701	1266.935669	1.184681
293.987213	1245.610840	3103.550537	1258.613770	0.699857
294.358093	1249.994751	3171.091553	1256.384644	0.332617
294.728943	1250.514771	3254.756592	1254.973022	0.222441
295.099731	1245.982300	3352.984619	1256.310425	0.490181
295.470490	1245.536499	3427.213135	1257.276367	0.538112
295.841248	1249.920410	3458.642822	1255.270142	0.242209
296.211975	1258.688110	3468.005127	1254.081421	-0.208512
296.582642	1252.297974	3513.552734	1249.102905	-0.141296
296.953308	1251.109253	3588.821533	1236.991577	-0.603910
297.323883	1245.536499	3659.706299	1238.329224	-0.298541
297.694519	1251.480713	3700.052490	1239.889526	-0.473386
298.065063	1255.047241	3702.653076	1251.629395	-0.139640
298.435608	1252.075195	3656.808594	1254.824341	0.114322
298.806122	1251.109253	3557.614258	1255.938843	0.209390
299.176575	1249.846069	3432.860107	1251.555054	0.078286
299.547028	1262.403198	3352.093018	1244.570679	-0.853357
299.917450	1259.728394	3306.991211	1244.867676	-0.725882
300.287872	1252.818115	3301.046875	1238.923462	-0.678374
300.658234	1239.443726	3280.688232	1237.660522	-0.087359
301.028564	1240.706665	3264.489990	1234.242554	-0.319407
301.398865	1242.564331	3251.263916	1234.539673	-0.399495
301.769135	1240.260864	3234.174561	1233.128052	-0.357729
302.139374	1243.901733	3231.573975	1226.515015	-0.874728
302.509583	1240.260986	3226.149658	1225.771973	-0.729598
302.879791	1240.335327	3227.933350	1232.904907	-0.373839
303.249939	1239.592285	3205.642578	1244.347656	0.241874
303.620087	1250.143188	3183.053955	1254.304199	0.215272
303.990173	1257.127686	3165.221680	1253.932739	-0.167442
304.360260	1253.412598	3158.014404	1249.994751	-0.179452
304.730286	1252.892456	3158.014404	1249.177368	-0.195005
305.100281	1248.137207	3161.506592	1247.914185	-0.011656
305.470276	1252.298096	3178.001709	1250.217651	-0.108036
305.840179	1251.257813	3183.722656	1249.994629	-0.065366
306.210144	1248.359985	3198.434814	1249.325928	0.049534
306.579987	1244.347656	3213.592529	1248.508667	0.211300
306.949890	1243.158813	3239.301514	1240.558228	-0.130281
307.319702	1247.022583	3260.031982	1243.456055	-0.177174
307.689484	1243.233032	3288.118408	1242.713013	-0.025430
308.059265	1245.759399	3320.588623	1252.223755	0.311561
308.429016	1252.818237	3372.303467	1240.558228	-0.578443
308.798737	1257.796509	3427.064453	1236.917358	-0.962497
309.168396	1257.722168	3488.735596	1230.973267	-1.198957
309.538055	1251.852173	3540.078857	1236.545898	-0.668914
309.907684	1251.852295	3559.471680	1235.134155	-0.724476
310.277313	1249.474609	3586.443604	1235.134155	-0.613635
310.646851	1257.796509	3601.898682	1241.524048	-0.694187
311.016388	1265.821167	3624.932617	1247.765625	-0.765354
311.385895	1256.161743	3611.112305	1248.880005	-0.309210
311.755371	1246.353882	3606.430908	1250.960571	0.195192
312.124817	1243.679077	3613.638428	1249.548828	0.247673
312.494232	1255.641724	3633.254150	1257.350708	0.071878
312.863617	1246.205200	3619.359375	1256.607666	0.438339
313.232971	1244.793457	3592.164795	1260.099976	0.652071
313.602295	1239.146484	3558.654297	1254.973022	0.682323
313.971619	1249.548828	3562.220947	1255.790405	0.269886
314.340820	1247.468384	3561.626221	1248.880249	0.061010
314.710083	1249.474609	3606.059570	1248.285767	-0.050448
315.079285	1241.598389	3629.316406	1241.301270	-0.012444
315.448486	1236.991577	3669.513916	1241.078247	0.168001
315.817596	1241.821411	3637.341064	1235.208496	-0.276053
316.186707	1250.291870	3591.199219	1228.446899	-0.933184
316.555786	1259.133911	3526.184326	1229.189941	-1.320834
316.924866	1256.458984	3476.252686	1233.276611	-1.044348
317.293884	1257.202026	3451.212891	1244.570679	-0.575719
317.662872	1249.028687	3433.157227	1249.103027	0.003404
318.031830	1245.090698	3449.132080	1245.462158	0.016854
318.400757	1247.542725	3456.116943	1236.768677	-0.487828
318.769684	1255.715942	3482.865967	1234.391113	-0.957494
319.138550	1255.641602	3493.788086	1242.118652	-0.604203
319.507416	1245.833740	3518.753906	1249.325928	0.153643
319.876190	1241.598511	3527.075439	1244.570435	0.130035
320.244995	1241.598511	3528.338867	1245.833740	0.185208
320.613770	1246.353882	3499.212158	1250.886353	0.201188
320.982483	1242.638672	3468.376709	1251.852173	0.413953
321.351166	1238.552002	3437.392578	1249.623169	0.503500
321.719818	1240.558228	3422.011719	1243.084595	0.115811
322.088440	1235.802856	3432.711670	1246.576782	0.490413
322.457062	1238.849243	3465.924561	1241.821411	0.133456
322.825623	1238.552002	3528.190186	1242.341431	0.165503
323.194183	1245.610718	3580.053711	1241.598511	-0.171870
323.562653	1251.480835	3638.455811	1243.604614	-0.329967
323.931183	1253.338257	3698.269531	1246.130981	-0.294784
324.299591	1255.344482	3768.336670	1248.508545	-0.272024
324.668060	1245.982300	3831.271240	1253.709839	0.298904
325.036407	1247.171143	3864.410156	1249.400269	0.085171
325.404755	1249.177368	3874.664063	1254.527222	0.203766
325.773102	1255.641724	3859.060547	1250.960571	-0.179808
326.141388	1257.796509	3856.014404	1252.000854	-0.223063
326.509674	1252.669556	3850.515869	1245.759399	-0.265996
326.877899	1248.805786	3856.979736	1242.712891	-0.233608
327.246124	1251.852173	3856.831299	1243.010254	-0.339424
327.614288	1251.926514	3846.949219	1246.130981	-0.223333
327.982422	1259.431152	3839.518799	1247.691284	-0.455018
328.350525	1258.539429	3811.135010	1247.691284	-0.424985
328.718628	1260.619995	3807.122803	1245.908081	-0.577730
329.086700	1261.734497	3805.785400	1252.149414	-0.376765
329.454712	1256.681885	3833.128662	1257.424927	0.028840
329.822693	1260.917114	3853.933594	1260.917114	0.000000
330.190674	1255.195923	3866.044678	1257.202026	0.076837
330.558563	1261.065796	3880.162109	1256.830566	-0.161706
330.926483	1256.681885	3900.447021	1253.115356	-0.134903
331.294312	1254.229858	3934.329102	1249.548828	-0.174659
331.662231	1247.393921	3986.117920	1244.199097	-0.116654
332.029999	1247.468262	4037.832764	1246.948242	-0.018636
332.397766	1248.954468	4084.420654	1244.719116	-0.149371
332.765503	1246.576782	4132.791504	1249.177368	0.090104
333.133240	1244.793457	4196.022949	1243.604614	-0.040283
333.500916	1252.000854	4252.716309	1240.929688	-0.368951
333.868561	1252.818237	4288.753418	1237.288940	-0.511516
334.236176	1256.161865	4306.511719	1239.517944	-0.545640
334.603790	1247.988403	4319.886230	1238.403442	-0.312021
334.971344	1251.257935	4311.563965	1243.233032	-0.262225
335.338867	1250.737671	4304.579590	1242.192993	-0.279801
335.706360	1249.325928	4300.344238	1250.960693	0.053581
336.073853	1248.062866	4282.511719	1244.719238	-0.110189
336.441284	1252.297974	4278.350586	1254.750122	0.081035
336.808655	1254.006958	4264.679199	1250.812012	-0.106121
337.176086	1252.297974	4249.520996	1255.567383	0.109081
337.543396	1246.428223	4185.323730	1244.793579	-0.055621
337.910706	1241.004028	4125.138184	1247.171265	0.213833
338.277954	1238.849243	4117.410645	1239.666626	0.028396
338.645264	1234.688354	4171.948730	1243.381714	0.295968
339.012421	1247.394165	4273.743652	1242.341431	-0.166958
339.379669	1247.542603	4389.729980	1251.703613	0.132424
339.746796	1254.527222	4488.775879	1251.480591	-0.094199
340.113953	1250.217651	4554.682129	1252.075195	0.056213
340.481018	1251.777954	4592.799805	1245.907959	-0.175695
340.848114	1248.508667	4604.539551	1245.313477	-0.095207
341.215118	1251.034912	4610.632324	1247.617065	-0.101734
341.582153	1252.966797	4630.990723	1245.833740	-0.211161
341.949066	1255.790161	4656.848633	1239.740845	-0.471892
342.316010	1250.514771	4704.402832	1235.059692	-0.447469
342.682922	1252.818237	4718.966309	1233.870972	-0.546638
343.049835	1247.171143	4767.263184	1242.564331	-0.130872
343.416656	1254.378540	4815.707520	1247.988403	-0.179431
343.783478	1253.635498	4911.483887	1252.372314	-0.034534
344.150269	1251.555054	5037.650391	1249.994507	-0.041218
344.516998	1250.143188	5185.884277	1246.056519	-0.103835
344.883728	1252.669556	5303.208496	1248.137085	-0.111898
345.250427	1249.251709	5367.405762	1248.880249	-0.009020
345.617065	1247.914185	5371.864258	1256.533325	0.209002
345.983704	1237.437500	5348.532715	1247.319824	0.240382
346.350281	1247.914185	5320.743652	1246.948242	-0.023717
346.716827	1248.434326	5259.889648	1242.713013	-0.142624
347.083405	1254.155640	5218.874512	1246.205200	-0.200530
347.449860	1259.208130	5146.949219	1248.731567	-0.269477
347.816376	1254.675781	5101.253418	1247.691284	-0.181577
348.182770	1249.920288	5048.424316	1255.270142	0.140841
348.549194	1248.582886	5031.259766	1247.839844	-0.019643
348.915558	1248.954468	5041.216309	1251.109253	0.056821
349.281921	1253.932739	5059.123535	1250.143188	-0.099589
349.648193	1252.075195	5089.661621	1253.635620	0.040662
350.014526	1252.000854	5146.949707	1245.387939	-0.169782
350.380737	1256.904785	5216.125488	1241.449829	-0.390354
350.746948	1250.068970	5291.170898	1250.663330	0.014708
351.113159	1248.954468	5324.235840	1258.539429	0.235198
351.479309	1245.462280	5355.442871	1255.493042	0.244059
351.845428	1250.811890	5382.191895	1239.889526	-0.264376
352.211517	1253.858398	5425.584473	1230.007202	-0.571734
352.577576	1252.743774	5474.847656	1236.322998	-0.388924
352.943604	1253.561279	5525.521484	1243.010132	-0.246986
353.309601	1256.904907	5583.478027	1250.960571	-0.137391
353.675537	1257.647827	5666.250488	1248.731445	-0.202250
354.041473	1259.951172	5782.312500	1244.867798	-0.333529
354.407379	1251.555054	5898.298828	1236.917480	-0.315007
354.773254	1250.143188	6032.415527	1238.106323	-0.251698
355.139038	1239.295044	6118.308594	1244.942017	0.115740
355.504913	1241.003906	6242.320313	1251.926636	0.218397
355.870636	1242.935913	6321.080566	1258.613892	0.308734
356.236389	1244.570557	6449.030762	1254.155762	0.184173
356.602081	1250.143188	6572.744141	1249.994751	-0.002789
356.967804	1246.725342	6718.824219	1245.090698	-0.029872
357.333405	1250.737671	6861.931152	1245.462280	-0.094015
357.699036	1245.908081	7014.474609	1242.415649	-0.060542
358.064606	1249.400269	7168.800781	1244.124878	-0.089120
358.430176	1248.211426	7279.660156	1249.251709	0.017248
358.795654	1246.428101	7357.009766	1258.316528	0.194555
359.161163	1241.672729	7392.154785	1257.796509	0.262155
359.526581	1241.301270	7396.761719	1256.236084	0.242627
359.892029	1245.610840	7437.777344	1248.508667	0.046798
360.257416	1249.103027	7552.425781	1248.657227	-0.007072
360.622772	1252.000854	7762.330566	1250.217651	-0.027390
360.988098	1250.440552	8004.111328	1255.493042	0.074811
361.353394	1245.685181	8265.657227	1251.852173	0.087849
361.718658	1247.171265	8493.840820	1244.570679	-0.035887
362.083893	1251.629272	8677.443359	1241.449829	-0.137082
362.449097	1254.750000	8766.977539	1239.295044	-0.205731
362.814209	1242.787231	8772.327148	1238.552124	-0.056247
363.179382	1234.614136	8602.991211	1247.542603	0.175459
363.544434	1242.341431	8298.722656	1245.759399	0.048438
363.909546	1250.440552	7880.546875	1248.508667	-0.029138
364.274536	1249.400269	7535.781738	1241.449951	-0.126469
364.639587	1245.313599	7254.991699	1243.381714	-0.032146
365.004517	1248.805786	7118.497559	1250.143188	0.022785
365.369507	1257.647827	7013.805176	1250.366089	-0.126503
365.734344	1259.654175	6978.289063	1250.960571	-0.152022
366.099274	1259.728394	6929.620605	1245.165039	-0.256854
366.464081	1257.870728	6888.753906	1245.536499	-0.219046
366.828918	1258.762329	6859.775391	1243.753296	-0.267970
367.193665	1257.202026	6860.295410	1243.010254	-0.253285
367.558411	1255.121460	6872.704590	1238.477783	-0.296278
367.923126	1249.697510	6862.302246	1238.626465	-0.197253
368.287781	1247.765625	6834.810059	1234.168213	-0.243374
368.652435	1241.152710	6794.834473	1240.409668	-0.013379
369.017059	1247.914185	6768.458496	1237.586060	-0.187085
369.381653	1248.137085	6750.104980	1241.301270	-0.124243
369.746185	1256.087402	6746.019043	1237.214722	-0.343769
370.110687	1254.675659	6748.767578	1240.484009	-0.258307
370.475220	1253.635376	6777.002441	1247.022583	-0.119724
370.839661	1248.582886	6830.128906	1252.595215	0.071886
371.204041	1238.106201	6914.685059	1252.743896	0.257861
371.568451	1241.598511	6980.517090	1244.496216	0.050492
371.932770	1250.440430	7026.361816	1241.003906	-0.163377
372.297150	1260.174194	7032.380859	1242.564331	-0.305080
372.661377	1254.304321	7068.714844	1249.846069	-0.076676
373.025696	1251.852295	7113.445313	1246.428223	-0.092536
373.389862	1245.685181	7134.398438	1238.849243	-0.116085
373.754059	1249.177368	7130.312500	1238.031860	-0.189513
374.118225	1252.223755	7141.605469	1241.895630	-0.175369
374.482361	1247.988525	7184.404297	1251.555054	0.060079
374.846436	1245.165039	7255.809082	1247.914185	0.045738
375.210510	1235.728638	7333.901855	1249.103149	0.219320
375.574524	1240.186646	7457.838379	1247.765503	0.121893
375.938538	1242.713013	7593.812500	1254.006958	0.177827
376.302460	1242.044189	7757.352051	1259.282593	0.264583
376.666412	1252.223755	7920.744629	1259.654053	0.111423
377.030304	1257.573608	8070.018066	1254.824341	-0.040357
377.394196	1265.375366	8183.924316	1246.799683	-0.268491
377.757996	1252.966797	8303.922852	1252.520996	-0.006323
378.121796	1249.177246	8369.458008	1248.508667	-0.009390
378.485565	1239.592285	8399.773438	1253.561157	0.195091
378.849304	1244.124878	8298.721680	1239.815186	-0.061091
379.212982	1245.833862	8198.264648	1237.883423	-0.114355
379.576630	1247.765747	8023.579590	1234.168213	-0.200677
379.940277	1253.709839	7905.734375	1239.889526	-0.207761
380.303864	1244.347656	7774.144531	1246.725464	0.036415
380.667450	1250.737671	7736.770996	1250.663452	-0.001144
381.030945	1242.638794	7700.660156	1251.406494	0.135764
381.394501	1250.737671	7725.699707	1254.675659	0.060819
381.757935	1252.892456	7738.257324	1252.743774	-0.002293
382.121399	1257.276367	7774.813965	1247.542725	-0.149345
382.484741	1264.558105	7815.457031	1244.793579	-0.301707
382.848145	1264.037964	7856.397949	1247.171265	-0.255852
383.211487	1257.647949	7897.338379	1254.081299	-0.053717
383.574768	1246.725464	7982.712402	1260.174072	0.199653
383.938019	1241.375610	8085.398926	1254.973022	0.198676
384.301270	1250.812012	8216.989258	1259.208130	0.120527
384.664459	1256.533325	8289.286133	1256.830566	0.004227
385.027649	1263.443359	8342.561523	1258.836670	-0.065074
385.390778	1256.681885	8398.511719	1262.774780	0.085313
385.753876	1256.979126	8442.348633	1264.037842	0.098237
386.116943	1247.691162	8499.711914	1271.542480	0.328892
386.479980	1249.697388	8494.065430	1276.446411	0.369239
386.842987	1245.685059	8534.708008	1280.904663	0.483187
387.205994	1251.480835	8568.738281	1286.997437	0.485381
387.568909	1252.892456	8640.663086	1288.111938	0.476727
387.931793	1257.647827	8659.313477	1287.963379	0.409577
388.294678	1260.397095	8707.313477	1290.712524	0.407087
388.657471	1265.375366	8742.532227	1289.300781	0.319980
389.020294	1260.471313	8753.231445	1302.972534	0.567230
389.383057	1257.499268	8756.799805	1304.532837	0.627173
389.745819	1250.143188	8751.821289	1311.963135	0.824082
390.108521	1249.325806	8802.272461	1316.569824	0.890302
390.471191	1249.325928	8866.097656	1322.811157	0.964782
390.833801	1249.103027	8975.992188	1329.944336	1.046234
391.196442	1256.830566	9128.981445	1331.578979	0.949530
391.558960	1254.155640	9270.303711	1334.105347	0.997358
391.921509	1256.013184	9439.268555	1344.730591	1.084133
392.284027	1252.669556	9571.082031	1360.334351	1.294295
392.646484	1254.081421	9686.622070	1375.120483	1.435381
393.008911	1247.171265	9718.944336	1378.241211	1.547137
393.371307	1247.765625	9738.411133	1379.801392	1.555073
393.733673	1249.400269	9694.201172	1377.052368	1.511606
394.096008	1255.047241	9649.322266	1380.916016	1.499460
394.458344	1241.524292	9610.833984	1383.516602	1.696583
394.820587	1237.511841	9595.528320	1393.027344	1.860675
395.182831	1240.409546	9619.156250	1402.909668	1.939432
395.545013	1246.948364	9575.168945	1411.454468	1.975285
395.907196	1246.651001	9507.032227	1409.745483	1.974418
396.269287	1245.982422	9394.910156	1401.869263	1.912974
396.631409	1254.304199	9262.725586	1393.696167	1.740567
396.993469	1250.663452	9133.661133	1403.281250	1.936038
397.355530	1247.914185	9022.801758	1406.476196	2.039412
397.717499	1246.799683	8993.229492	1417.175781	2.199414
398.079468	1247.096802	8998.727539	1419.924927	2.229571
398.441376	1240.558228	9001.998047	1427.726929	2.411520
398.803284	1236.843140	9012.325195	1428.841309	2.469277
399.165131	1241.821411	9023.470703	1433.522461	2.463501
399.526978	1243.010254	9025.328125	1442.364380	2.561629
399.888763	1249.548828	9005.563477	1443.776245	2.504217
400.250519	1254.229980	9009.651367	1444.370605	2.451712
400.612244	1264.632324	9052.821289	1437.906250	2.224829
400.973938	1255.790161	9059.434570	1452.841187	2.525115
401.335602	1253.040894	9070.950195	1461.014282	2.660218
401.697205	1247.393921	9093.019531	1476.246460	2.916945
402.058807	1249.251587	9178.168945	1471.193726	2.799148
402.420349	1251.926514	9271.567383	1477.658203	2.814736
402.781860	1254.527222	9386.811523	1482.265015	2.800416
403.143341	1254.527100	9514.315430	1484.196777	2.780576
403.504822	1248.880127	9662.920898	1489.992554	2.865596
403.866241	1245.462280	9802.832031	1497.497070	2.945236
404.227631	1239.666626	9941.035156	1505.596069	3.056180
404.588959	1241.672729	10093.579102	1511.391602	3.047014
404.950287	1243.901855	10219.374023	1504.481445	2.903241
405.311554	1247.319824	10309.280273	1501.212280	2.801739
405.672821	1243.307495	10353.565430	1494.970703	2.762416
406.034027	1245.387939	10343.086914	1500.394897	2.802983
406.395203	1249.177368	10301.998047	1510.648560	2.888284
406.756348	1253.635620	10244.785156	1512.208984	2.875865
407.117493	1257.870850	10200.872070	1519.787720	2.928736
407.478516	1259.579834	10179.621094	1524.766235	2.972928
407.839600	1259.505493	10161.937500	1526.772461	3.002179
408.200592	1253.189697	10170.259766	1522.537109	3.020582
408.561554	1252.743774	10139.720703	1516.815552	2.971447
408.922485	1252.966797	10138.829102	1512.283203	2.918303
409.283417	1245.239258	10117.579102	1512.506226	3.012362
409.644257	1239.963745	10197.082031	1514.809570	3.068463
410.005096	1234.688354	10313.737305	1527.589478	3.226121
410.365906	1240.112427	10458.405273	1535.837280	3.208022
410.726715	1243.456055	10559.903320	1542.895874	3.214099
411.087433	1247.022461	10623.952148	1548.765991	3.217935
411.448120	1245.536499	10687.332031	1552.035156	3.246190
411.808807	1244.942017	10695.430664	1561.323120	3.347775
412.169434	1253.041138	10645.424805	1562.214722	3.291748
412.530029	1256.607544	10589.549805	1565.558228	3.310325
412.890564	1262.031860	10573.648438	1552.332397	3.117617
413.251099	1253.561157	10603.889648	1547.354126	3.142061
413.611572	1253.486938	10631.456055	1545.348022	3.112199
413.972076	1248.285645	10669.945313	1550.995117	3.212910
414.332489	1244.570679	10710.663086	1559.762695	3.329695
414.692871	1246.651001	10818.030273	1569.645020	3.374582
415.053223	1249.474487	10958.760742	1572.765625	3.329711
415.413574	1258.168091	11153.804688	1576.332153	3.215195
415.773834	1255.195923	11317.270508	1581.458984	3.242503
416.134094	1250.663452	11452.128906	1599.440430	3.418891
416.494263	1249.177368	11586.246094	1603.006836	3.422919
416.854462	1247.245483	11848.906250	1619.427734	3.510603
417.214630	1250.366211	12120.780273	1630.498901	3.496948
417.574738	1248.657227	12428.245117	1650.709351	3.596305
417.934784	1250.514771	12700.860352	1654.127319	3.524894
418.294861	1251.703613	13058.925781	1661.037476	3.466809
418.654846	1256.607666	13451.690430	1676.566528	3.443674
419.014832	1248.583008	13847.500000	1691.427124	3.514938
419.374756	1242.415894	14306.468750	1701.234985	3.512073
419.734680	1238.106323	14784.383789	1712.231812	3.500043
420.094543	1250.663452	15287.116211	1730.213257	3.416460
420.454376	1250.886230	15724.312500	1750.349121	3.450896
420.814148	1250.514771	16157.497070	1766.250000	3.459689
421.173920	1245.610840	16589.419922	1761.197266	3.360224
421.533691	1248.359985	17056.857422	1769.147827	3.294354
421.893341	1247.542603	17389.289063	1776.429321	3.276515
422.253021	1249.623169	17652.767578	1792.330200	3.308555
422.612640	1249.326050	17733.312500	1792.627441	3.295934
422.972260	1249.994629	17754.634766	1791.067017	3.278305
423.331757	1238.106079	17713.693359	1792.553101	3.365264
423.691315	1231.344604	17676.691406	1790.472656	3.399916
424.050781	1229.858521	17748.466797	1794.707886	3.419473
424.410248	1242.044189	17767.117188	1797.308594	3.360133
424.769653	1258.167969	17877.755859	1803.475586	3.281114
425.128998	1255.047241	17886.298828	1799.537720	3.273900
425.488373	1257.202026	17846.099609	1793.221802	3.231196
425.847656	1251.703613	17637.904297	1780.887695	3.229450
426.206940	1258.093628	17466.562500	1769.222046	3.153465
426.566193	1249.994751	17163.779297	1763.872437	3.229136
426.925385	1243.233276	16873.703125	1760.231445	3.307630
427.284576	1236.620239	16378.549805	1747.005493	3.370675
427.643677	1240.781128	16017.512695	1732.070801	3.324752
428.002777	1239.443848	15675.348633	1727.241089	3.379056
428.361847	1247.839966	15337.196289	1726.200806	3.395193
428.720856	1246.651001	15033.520508	1716.615845	3.408786
429.079865	1249.846191	14812.024414	1699.674805	3.316787
429.438812	1244.942139	14700.125000	1689.941284	3.307270
429.797760	1242.118530	14597.512695	1688.678101	3.343664
430.156616	1248.211426	14412.202148	1688.752319	3.346560
430.515503	1255.493042	14285.590820	1686.226074	3.305678
430.874268	1254.601440	14228.971680	1677.309692	3.258025
431.233093	1245.982300	14232.834961	1676.789551	3.317257
431.591827	1239.592285	14284.176758	1680.430298	3.379472
431.950562	1241.301270	14301.788086	1684.071289	3.390150
432.309204	1245.462280	14346.592773	1693.359009	3.418764
432.667877	1249.103027	14433.155273	1695.067993	3.382609
433.026459	1246.353882	14524.546875	1705.619019	3.458792
433.385010	1243.158813	14655.765625	1710.820313	3.486731
433.743561	1238.329224	14807.268555	1724.268921	3.581265
434.102051	1241.524048	14964.344727	1727.761108	3.543273
434.460510	1238.032104	15144.528320	1740.392578	3.612416
434.818939	1234.093872	15214.820313	1752.875366	3.710690
435.177338	1238.700684	15275.971680	1762.460449	3.731208
435.535675	1250.068970	15224.776367	1752.058105	3.592126
435.894012	1253.412598	15179.971680	1742.918945	3.514913
436.252289	1249.771851	15190.819336	1739.129517	3.510193
436.610535	1244.942017	15161.692383	1731.104858	3.493365
436.968719	1252.669556	15259.476563	1733.854004	3.435362
437.326935	1250.514771	15346.781250	1728.281250	3.389312
437.685028	1250.068970	15497.319336	1737.346313	3.420150
438.043152	1248.211426	15600.598633	1731.030396	3.364033
438.401215	1249.920288	15773.204102	1736.900391	3.353099
438.759277	1254.973022	15988.608398	1739.426636	3.288079
439.117249	1248.731445	16362.796875	1757.259277	3.364600
439.475250	1247.765503	16671.302734	1773.531616	3.408856
439.833130	1246.874023	17026.320313	1788.317871	3.431324
440.191071	1248.359985	17250.417969	1790.398438	3.387305
440.548889	1252.297974	17511.740234	1794.410767	3.334141
440.906708	1249.028687	17779.673828	1802.583984	3.348661
441.264496	1246.651001	17987.500000	1808.379761	3.355438
441.622223	1245.462280	18110.173828	1821.605591	3.416265
441.979950	1248.657227	18157.802734	1818.410645	3.369499
442.337616	1246.428223	18224.451172	1804.515991	3.287119
442.695251	1253.412598	18169.095703	1796.565430	3.210942
443.052887	1246.576782	18076.216797	1795.376587	3.260912
443.410461	1244.273315	17909.333984	1803.847168	3.357767
443.768005	1233.499390	17798.548828	1795.971069	3.395533
444.125458	1235.654175	17650.462891	1794.484985	3.404431
444.482941	1242.118530	17632.406250	1792.107300	3.355577
444.840393	1245.164917	17682.486328	1795.673828	3.349140
445.197754	1250.663452	17920.552734	1806.670532	3.335398
445.555084	1249.697388	18137.070313	1817.518921	3.362403
445.912415	1245.016357	18469.351563	1823.537231	3.358741
446.269714	1242.713013	18712.693359	1820.639648	3.308113
446.626953	1249.920410	19023.501953	1836.540405	3.300516
446.984161	1252.669556	19312.539063	1842.335938	3.265064
447.341309	1252.223755	19557.443359	1849.617554	3.263516
447.698456	1245.610718	19707.683594	1848.354492	3.264768
448.055542	1252.446655	19799.744141	1845.085327	3.195283
448.412598	1249.474487	19768.164063	1845.531128	3.218676
448.769653	1254.304199	19672.908203	1835.351563	3.154676
449.126617	1257.796509	19370.421875	1833.642700	3.179253
449.483582	1258.316650	19132.207031	1826.583984	3.179315
449.840515	1254.378540	18808.841797	1815.958618	3.199073
450.197388	1249.846069	18603.318359	1807.339355	3.212575
450.554230	1245.239258	18421.576172	1791.884399	3.182548
450.911041	1237.808960	18236.859375	1792.404663	3.262510
451.267822	1231.196167	18040.031250	1789.729614	3.322856
451.624573	1235.505737	17851.822266	1790.249634	3.338549
451.981262	1248.285645	17753.816406	1780.070313	3.221857
452.337921	1254.304199	17645.259766	1776.206543	3.184088
452.694580	1256.533325	17497.771484	1775.314941	3.194225
453.051147	1251.926636	17466.044922	1769.965210	3.194985
453.407715	1247.319824	17354.960938	1762.757690	3.199959
453.764221	1243.307495	17408.310547	1755.847656	3.170678
454.120728	1248.805786	17188.894531	1745.222290	3.114264
454.477142	1253.041016	17163.556641	1744.479492	3.088765
454.833557	1259.653931	16988.126953	1751.315063	3.125931
455.189911	1259.133789	16859.212891	1751.240845	3.154516
455.546265	1254.229858	16671.228516	1748.640259	3.206917
455.902557	1244.942017	16532.283203	1739.649536	3.236060
456.258820	1238.700684	16511.775391	1740.095337	3.282867
456.615051	1239.146484	16564.009766	1742.250122	3.282924
456.971252	1245.090698	16565.939453	1740.021118	3.230437
457.327393	1246.725342	16754.296875	1748.120117	3.233226
457.683502	1248.731567	16978.617188	1762.534790	3.266414
458.039612	1249.103027	17394.712891	1781.779297	3.299202
458.395630	1247.542725	17769.718750	1799.611938	3.341383
458.751648	1247.542603	18155.201172	1817.370117	3.370233
459.107605	1247.394165	18712.250000	1840.404175	3.395447
459.463562	1241.301270	19246.857422	1868.267578	3.482071
459.819458	1245.165039	19820.845703	1865.443970	3.339199
460.175323	1243.901855	20267.923828	1869.530640	3.288625
460.531158	1253.932739	20748.587891	1866.707153	3.143295
460.886932	1252.372437	21057.244141	1889.072388	3.214865
461.242676	1257.350708	21277.775391	1884.019897	3.130149
461.598419	1251.777954	21232.152344	1874.063354	3.114483
461.954102	1253.709839	20936.427734	1850.435059	3.031722
462.309723	1247.542847	20401.892578	1831.859375	3.050568
462.665344	1244.867798	19808.140625	1816.701660	3.080458
463.020905	1238.923462	19317.222656	1802.063843	3.115008
463.376373	1244.496338	18916.580078	1799.983398	3.143302
463.731873	1258.019409	18544.771484	1792.478882	3.091729
464.087341	1260.694336	18246.148438	1787.574829	3.101951
464.442749	1262.403320	18033.048828	1777.246704	3.069908
464.798126	1250.589111	17893.431641	1775.389160	3.153308
465.153503	1249.548950	17944.998047	1781.110718	3.183872
465.508820	1244.793579	17964.392578	1786.609009	3.240601
465.864105	1253.041138	18090.333984	1793.519165	3.210006
466.219330	1253.041138	18295.410156	1803.549927	3.230236
466.574524	1257.945068	18493.722656	1811.500366	3.211664
466.929657	1254.081421	18663.728516	1816.627319	3.231231
467.284790	1254.601440	18808.992188	1810.311523	3.165647
467.639893	1257.127808	18943.257813	1809.345337	3.122320
467.994934	1261.734497	19149.150391	1806.299194	3.044401
468.349945	1261.957397	19241.878906	1804.218750	3.015927
468.704926	1255.195801	19272.193359	1806.150513	3.057972
469.059875	1251.777954	19121.210938	1805.853149	3.100687
469.414764	1244.793457	18904.320313	1803.401367	3.163210
469.769653	1250.663330	18745.015625	1797.531616	3.125971
470.124451	1249.548950	18574.937500	1795.599609	3.151737
470.479248	1256.533325	18413.773438	1782.373901	3.064832
470.834015	1245.685181	18289.093750	1784.602905	3.162030
471.188721	1247.319824	18365.107422	1782.670898	3.127455
471.543365	1252.446655	18446.841797	1800.354980	3.186552
471.898010	1256.458984	18550.044922	1804.961548	3.171711
472.252625	1256.830566	18672.347656	1814.546753	3.202410
472.607178	1254.898560	18913.832031	1817.147339	3.183934
472.961700	1253.932617	19107.687500	1819.822266	3.169584
473.316193	1255.047241	19347.611328	1820.862427	3.127336
473.670654	1248.211304	19475.634766	1811.351929	3.089524
474.025055	1254.155640	19718.902344	1809.048340	3.005147
474.379456	1245.536499	19921.005859	1812.466187	3.035692
474.733795	1246.948364	20101.931641	1832.676392	3.106489
475.088104	1241.598511	20266.660156	1842.112915	3.156439
475.442383	1244.867798	20286.277344	1849.246094	3.174021
475.796570	1240.706909	20351.515625	1846.496704	3.169880
476.150787	1246.279541	20452.494141	1861.060181	3.200946
476.504944	1245.388062	20654.373047	1862.472046	3.179373
476.859070	1249.697510	20895.931641	1875.772095	3.186741
477.213135	1249.028809	21118.914063	1879.784546	3.174431
477.567200	1250.589111	21490.279297	1898.062988	3.199031
477.921173	1256.458984	21875.687500	1905.493164	3.147713
478.275146	1249.697388	22353.380859	1907.648071	3.117705
478.629089	1252.892456	22651.037109	1913.294922	3.086260
478.983002	1250.366089	23037.853516	1927.635376	3.108524
479.336823	1253.932739	23373.185547	1946.879883	3.132778
479.690643	1258.316650	23836.537109	1964.712524	3.128660
480.044403	1259.282593	24353.906250	1984.328491	3.139458
480.398163	1257.350708	25010.296875	2007.733765	3.159116
480.751862	1245.685181	25858.685547	2040.872681	3.230762
481.105499	1240.484009	26884.359375	2083.671143	3.288064
481.459137	1240.261108	28241.943359	2140.438477	3.333783
481.812744	1239.740845	29871.328125	2213.255127	3.400141
482.166290	1240.335327	31862.568359	2310.294434	3.494060
482.519806	1245.982300	34209.863281	2424.423584	3.574947
482.873291	1252.075195	36934.171875	2526.515381	3.571651
483.226715	1258.019409	39970.406250	2614.712891	3.504546
483.580139	1263.889282	42924.535156	2703.727295	3.456111
483.933502	1265.375366	45865.808594	2773.348877	3.381074
484.286804	1265.078247	48557.050781	2839.330078	3.328793
484.640106	1250.589111	51016.468750	2846.388916	3.206614
484.993347	1247.765503	52700.988281	2846.686279	3.107523
485.346558	1237.065918	53596.707031	2824.543701	3.031873
485.699738	1241.821289	53609.343750	2797.497803	2.970690
486.052887	1245.313599	52953.843750	2774.983643	2.958255
486.405975	1245.833618	51785.730469	2743.330811	2.963000
486.759064	1248.062866	50169.269531	2720.222656	3.009247
487.112061	1236.843140	48534.238281	2680.470703	3.052235
487.464996	1248.583008	47176.281250	2660.260498	3.073695
487.817963	1242.564331	46427.386719	2636.929443	3.085915
488.170868	1247.914185	46038.113281	2628.236084	3.081750
488.523743	1244.942017	45920.496094	2603.121338	3.040095
488.876587	1247.096924	45867.886719	2585.511719	2.999532
489.229401	1254.081299	45797.968750	2555.419189	2.921474
489.582153	1250.589111	45386.183594	2549.103516	2.942102
489.934845	1254.452881	44720.730469	2528.075684	2.930140
490.287537	1245.833740	43803.906250	2524.806396	3.005241
490.640198	1247.245483	42968.296875	2509.946045	3.026531
490.992798	1243.604614	42105.050781	2505.041748	3.087108
491.345337	1244.793579	41617.328125	2493.970947	3.094127
491.697876	1246.799683	41264.761719	2483.419922	3.090163
492.050354	1244.867798	41357.117188	2480.967773	3.081602
492.402832	1241.078369	41426.964844	2457.414063	3.026773
492.755219	1242.044312	41455.421875	2429.922119	2.953937
493.107605	1240.632446	41075.437500	2389.872803	2.885016
493.459930	1252.520996	40328.769531	2345.291260	2.796508
493.812225	1250.143311	39148.765625	2280.127686	2.717736
494.164490	1261.214355	37654.093750	2228.189941	2.657046
494.516724	1259.802612	35876.105469	2196.536865	2.706049
494.868896	1264.186401	34045.507813	2158.568359	2.728328
495.221039	1255.121582	32429.275391	2136.203125	2.826321
495.573120	1253.486938	31109.585938	2118.221924	2.896343
495.925201	1251.777954	30311.796875	2129.070068	3.018897
496.277222	1252.669556	29735.726563	2127.881104	3.072744
496.629211	1249.103027	29485.474609	2122.754395	3.094064
496.981140	1249.548828	29292.212891	2114.358398	3.083907
497.333069	1255.195801	29326.837891	2106.185059	3.031491
497.684967	1256.236084	29395.046875	2102.543945	3.007618
498.036804	1248.211426	29465.708984	2111.683350	3.060058
498.388580	1248.137085	29412.212891	2097.714600	3.016529
498.740326	1255.641724	29327.283203	2083.002686	2.947320
499.092072	1256.979126	29143.904297	2058.705322	2.874918
499.443756	1252.297974	28934.593750	2054.990479	2.899660
499.795410	1244.421997	28655.513672	2057.516602	2.966298
500.147003	1251.257813	28331.181641	2039.758301	2.911753
500.498566	1252.149414	27953.353516	2031.956421	2.920494
500.850098	1250.960571	27559.623047	2016.130005	2.908432
501.201599	1247.542603	27232.169922	2015.238403	2.954423
501.553009	1245.685181	26913.408203	2011.374634	2.983083
501.904449	1248.285767	26687.306641	1998.148926	2.947689
502.255859	1254.006958	26453.921875	1992.353149	2.929955
502.607178	1257.647827	26378.728516	1978.532837	2.869642
502.958405	1256.458984	26271.734375	1971.845703	2.859799
503.309692	1249.920410	26215.929688	1978.532837	2.918418
503.660919	1246.205200	26185.244141	1980.762085	2.945410
504.012115	1250.737671	26198.693359	1991.610229	2.969672
504.363251	1258.093750	26270.841797	1988.786621	2.921282
504.714294	1259.876953	26275.744141	1990.718384	2.921511
505.065369	1257.350708	26340.984375	1996.365601	2.946204
505.416443	1250.886353	26320.031250	1982.545288	2.918564
505.767395	1257.647827	26375.164063	1976.824097	2.863246
506.118317	1260.619995	26284.140625	1974.743530	2.853809
506.469238	1260.843018	26316.687500	1993.913696	2.925747
506.820160	1257.202148	26304.578125	1992.799194	2.936823
507.170929	1253.263916	26386.904297	1995.845337	2.954532
507.521729	1254.229858	26438.171875	1980.687622	2.884607
507.872498	1246.353882	26546.134766	1989.455444	2.937186
508.223236	1246.948242	26704.771484	1987.672241	2.909612
508.573883	1241.821411	26892.085938	2002.829712	2.966863
508.924500	1245.759399	27023.599609	2012.786499	2.975529
509.275116	1241.078247	27153.927734	2023.114624	3.017948
509.625702	1242.118530	27268.654297	2037.083374	3.054440
509.976196	1240.632568	27474.843750	2041.095703	3.051219
510.326660	1240.483887	27717.666016	2041.392944	3.024903
510.677124	1236.917480	28019.333984	2032.922485	2.972118
511.027557	1234.093872	28256.435547	2032.848145	2.955903
511.377869	1237.214600	28492.568359	2038.792358	2.940992
511.728180	1244.644897	28605.359375	2049.046143	2.939986
512.078430	1254.081299	28704.255859	2048.451904	2.893864
512.428650	1253.635376	28765.779297	2052.389893	2.903280
512.778931	1252.149414	28867.126953	2051.720947	2.895427
513.129028	1244.867798	28949.306641	2050.829346	2.909142
513.479126	1244.496216	29050.210938	2047.783081	2.888927
513.829285	1244.496216	29047.240234	2039.535522	2.859571
514.179382	1244.050415	29016.697266	2036.637695	2.853841
514.529297	1245.982422	28926.421875	2035.448853	2.852073
514.879272	1247.616943	28935.634766	2038.346680	2.855855
515.229187	1252.669556	28911.115234	2044.959473	2.864550
515.579163	1254.155640	28921.664063	2045.331055	2.859583
515.928955	1248.508667	28926.570313	2054.321533	2.911377
516.278748	1245.387817	29061.875000	2068.216064	2.958060
516.628540	1244.644897	29253.281250	2078.024170	2.975437
516.978333	1250.366211	29613.130859	2092.958984	2.970771
517.327942	1253.486938	30027.958984	2096.971436	2.931364
517.677612	1248.508667	30532.845703	2112.723633	2.951117
518.027222	1247.765625	31013.806641	2120.079590	2.930568
518.376831	1245.239258	31600.648438	2144.970947	2.963991
518.726379	1249.697388	32175.380859	2155.670654	2.929517
519.075867	1248.880249	32661.396484	2161.317627	2.904694
519.425293	1254.155640	33060.773438	2162.431885	2.855620
519.774658	1252.743774	33310.503906	2163.175049	2.839972
520.124084	1256.607544	33521.746094	2162.655029	2.808131
520.473389	1251.629272	33452.199219	2158.419678	2.816069
520.822693	1251.555054	33271.792969	2140.735596	2.776933
521.171997	1248.062866	32959.054688	2119.633789	2.748482
521.521240	1247.914185	32598.759766	2099.051758	2.714879
521.870361	1245.759399	32217.953125	2090.581299	2.727679
522.219482	1244.496216	31853.947266	2092.364502	2.769956
522.568604	1240.409546	31576.501953	2084.191162	2.781445
522.917664	1239.443726	31431.015625	2092.587646	2.825768
523.266724	1242.935913	31401.517578	2102.098389	2.848816
523.615662	1248.062866	31563.720703	2121.714111	2.881848
523.964600	1253.264038	31869.849609	2139.026611	2.893081
524.313538	1249.177368	32311.429688	2153.144287	2.910178
524.662354	1243.158813	32857.925781	2178.555664	2.958734
525.011169	1243.233032	33552.953125	2209.391357	2.990302
525.359985	1244.050415	34472.152344	2246.988525	3.018343
525.708740	1249.846069	35561.503906	2277.229736	2.994270
526.057434	1247.245361	36756.589844	2312.895264	3.001041
526.406067	1254.378418	38085.269531	2359.705811	3.001088
526.754700	1255.567383	39595.105469	2420.856689	3.039393
527.103333	1259.802612	41355.035156	2493.822266	3.077722
527.451782	1255.641846	43322.644531	2579.567627	3.147183
527.800293	1250.440552	45330.828125	2657.659668	3.192393
528.148743	1252.892456	47232.828125	2721.262695	3.193502
528.497131	1251.183472	48956.281250	2756.482178	3.155425
528.845642	1253.932617	50523.105469	2775.578125	3.088433
529.193909	1253.486816	51942.800781	2770.302734	2.992378
529.542175	1255.493042	52999.906250	2756.333252	2.900487
529.890503	1259.059448	53662.167969	2734.711670	2.815963
530.238770	1249.846069	53851.714844	2704.173096	2.764782
530.586914	1248.880005	53627.324219	2656.322021	2.687063
530.934998	1243.753174	52895.589844	2619.319336	2.663151
531.283142	1245.982300	51816.562500	2568.125000	2.614450
531.631226	1242.787231	50270.917969	2534.317139	2.634263
531.979248	1243.901855	48485.050781	2489.586914	2.636864
532.327148	1243.381714	46590.550781	2477.698486	2.721927
532.675110	1244.867798	44991.859375	2471.382568	2.803655
533.023071	1245.610840	43867.656250	2468.856445	2.869983
533.370850	1247.096924	43247.234375	2470.268311	2.912303
533.718689	1244.273438	43077.300781	2460.088867	2.906353
534.066467	1242.787354	43138.746094	2445.079834	2.869710
534.414246	1245.833740	43229.843750	2426.429443	2.812013
534.761963	1254.304321	43293.371094	2408.076660	2.744524
535.109619	1258.762329	43233.855469	2401.092529	2.721448
535.457153	1260.694336	42942.292969	2379.544678	2.684279
535.804749	1255.715942	42382.496094	2357.253906	2.678396
536.152344	1246.948242	41665.917969	2333.179688	2.687430
536.499817	1241.449829	40752.738281	2314.083984	2.714754
536.847229	1243.679077	39753.593750	2308.734131	2.765665
537.194641	1255.418823	38774.281250	2297.960205	2.778713
537.542114	1261.585938	38041.730469	2289.712646	2.795331
537.889404	1254.750000	37556.386719	2262.963623	2.777323
538.236694	1254.973022	37186.800781	2253.081299	2.777783
538.583984	1252.595215	36930.011719	2248.549072	2.791553
538.931213	1253.041138	36756.070313	2269.205322	2.862190
539.278381	1244.942261	36667.207031	2286.963623	2.941713
539.625488	1238.700806	36663.488281	2321.588623	3.056865
539.972595	1244.124878	36829.777344	2362.083496	3.141599
540.319641	1249.697510	37172.609375	2400.349365	3.203114
540.666687	1257.424927	37760.714844	2452.881592	3.274929
541.013611	1253.486938	38645.738281	2503.555908	3.343123
541.360596	1247.245483	39663.832031	2539.369873	3.363455
541.707458	1241.524170	40841.605469	2552.447021	3.310404
542.054260	1242.044312	41896.183594	2551.629883	3.221285
542.401062	1242.341553	42956.035156	2560.249023	3.159412
542.747864	1244.421997	43638.062500	2545.016846	3.067901
543.094666	1248.583130	43995.312500	2531.716553	3.001711
543.441284	1251.035034	43826.421875	2493.153564	2.917457
543.787903	1251.555054	43308.527344	2473.537354	2.905540
544.134460	1243.530396	42398.542969	2445.005615	2.919390
544.481079	1240.038086	41254.953125	2419.073486	2.946490
544.827637	1238.923462	39883.398438	2388.535156	2.974841
545.174072	1243.158813	38380.480469	2357.253906	2.999934
545.520508	1246.428101	36960.406250	2344.770996	3.075387
545.866943	1249.028687	35696.964844	2318.244873	3.103861
546.213318	1245.536499	34708.957031	2295.062256	3.136337
546.559631	1244.793579	33876.617188	2269.353760	3.139758
546.905823	1243.604614	33199.644531	2257.390869	3.172440
547.252136	1246.873901	32585.603516	2225.069092	3.121362
547.598389	1251.703613	32065.187500	2191.930420	3.051348
547.944458	1249.623169	31653.554688	2154.481689	2.976123
548.290588	1253.561157	31188.716797	2129.590088	2.926422
548.636658	1250.291870	30675.431641	2105.218994	2.905431
548.982727	1253.561157	30080.044922	2076.166748	2.853645
549.328735	1252.149414	29527.380859	2054.916016	2.839116
549.674622	1248.657227	28936.083984	2025.120605	2.804390
550.020569	1240.706909	28326.578125	2004.984497	2.821684
550.366455	1246.799683	27579.384766	1982.916626	2.795460
550.712280	1252.743896	26916.458984	1969.839478	2.794200
551.058044	1256.756348	26340.906250	1958.248413	2.796555
551.403748	1249.623169	25926.595703	1943.833496	2.813191
551.749512	1243.233154	25592.904297	1935.734741	2.843987
552.095154	1243.381714	25331.580078	1937.369141	2.881027
552.440735	1243.381714	25246.654297	1939.449585	2.899887
552.786316	1242.861450	25150.876953	1933.208130	2.887511
553.131897	1240.261108	25178.218750	1910.545776	2.800091
553.477417	1237.363159	25132.078125	1905.195923	2.794897
553.822815	1243.233032	25176.585938	1905.493286	2.767102
554.168213	1249.548828	25120.931641	1905.344727	2.747205
554.513672	1251.183472	25067.583984	1892.713379	2.693648
554.859009	1250.291870	24951.375000	1881.122070	2.661609
555.204285	1246.428223	24761.009766	1873.097290	2.665023
555.549500	1250.068970	24572.281250	1874.806274	2.678722
555.894714	1249.920288	24344.990234	1871.685547	2.692199
556.239990	1255.195923	24108.484375	1869.753784	2.689144
556.585022	1256.087524	23870.046875	1858.831177	2.665361
556.930115	1250.440552	23559.609375	1850.955078	2.691784
557.275146	1243.976196	23298.435547	1844.044922	2.720850
557.620178	1232.310669	23029.681641	1835.797241	2.768621
557.965149	1232.533569	22889.322266	1834.682739	2.780418
558.310059	1244.124634	22744.583984	1833.493774	2.741193
558.654968	1257.202026	22648.361328	1832.602173	2.689897
558.999756	1260.991455	22518.107422	1829.035767	2.672255
559.344604	1246.948364	22430.578125	1827.549805	2.740803
559.689331	1239.815308	22321.802734	1822.051270	2.761770
560.033997	1238.180542	22225.802734	1819.376465	2.769232
560.378723	1248.805786	22166.134766	1826.137817	2.760066
560.723389	1253.635376	22123.859375	1824.503296	2.735322
561.067932	1256.979126	22165.318359	1819.153442	2.688756
561.412476	1253.412598	22154.619141	1806.744995	2.647371
561.757019	1251.183594	22163.833984	1805.704712	2.651606
562.101501	1250.588989	22143.101563	1801.172363	2.635314
562.445862	1253.041138	22149.568359	1803.549927	2.634451
562.790222	1254.452759	22159.896484	1804.218628	2.629774
563.134644	1252.892456	22176.837891	1807.339355	2.649820
563.478943	1249.028687	22243.412109	1805.184570	2.649070
563.823181	1246.651001	22248.611328	1808.082397	2.673233
564.167358	1254.973022	22247.201172	1814.695313	2.666331
564.511536	1249.400269	22253.515625	1809.865845	2.668361
564.855774	1243.901855	22285.392578	1807.562500	2.678806
565.199768	1231.047485	22371.361328	1815.661499	2.765399
565.543823	1241.524292	22457.255859	1825.989380	2.754866
565.887817	1250.068970	22623.171875	1830.596191	2.716158
566.231812	1263.889282	22795.257813	1823.463013	2.598877
566.575745	1255.715942	22921.572266	1823.240112	2.619440
566.919617	1250.514771	23052.046875	1831.338989	2.664144
567.263428	1242.861694	23156.664063	1837.357544	2.712883
567.607239	1250.143311	23278.150391	1840.181152	2.678580
567.950989	1252.520874	23348.439453	1834.385376	2.633358
568.294678	1253.041138	23420.587891	1825.394897	2.581944
568.638367	1249.251587	23420.884766	1832.899414	2.632408
568.981995	1245.685059	23372.736328	1833.791016	2.657860
569.325623	1244.570557	23222.718750	1844.193481	2.728269
569.669128	1244.421875	23053.384766	1836.688965	2.715705
570.012573	1251.257813	22916.521484	1831.933594	2.680216
570.356140	1253.561157	22840.656250	1824.651978	2.645519
570.699524	1250.217529	22792.359375	1823.909180	2.663113
571.042908	1243.604492	22778.912109	1830.224731	2.723993
571.386230	1241.152588	22808.187500	1829.407227	2.727564
571.729492	1251.629272	22895.119141	1834.682739	2.693898
572.072815	1257.053345	23034.585938	1831.636230	2.638420
572.416016	1259.653931	23116.248047	1832.750977	2.622078
572.759094	1248.731445	23240.775391	1823.760376	2.614714
573.102234	1250.291870	23286.322266	1827.326782	2.618597
573.445374	1255.641724	23394.509766	1829.556030	2.592338
573.788391	1256.013306	23440.056641	1830.447632	2.589403
574.131409	1254.750122	23522.162109	1823.611694	2.554682
574.474365	1251.926636	23513.615234	1823.611694	2.568022
574.817261	1252.966919	23467.326172	1818.484741	2.545731
575.160156	1256.533325	23306.906250	1821.011108	2.559947
575.502930	1246.948242	23087.265625	1814.398071	2.598176
575.845703	1250.143433	22844.742188	1816.849976	2.624298
576.188477	1248.137085	22602.664063	1818.856323	2.672591
576.531250	1258.167969	22378.119141	1811.203125	2.618544
576.873901	1256.607544	22176.615234	1801.840942	2.606277
577.216431	1248.582886	21942.337891	1786.460327	2.599226
577.559082	1245.685059	21691.417969	1779.773071	2.612222
577.901611	1244.347656	21391.085938	1773.903198	2.628493
578.244080	1256.458984	21067.197266	1767.884644	2.581558
578.586487	1250.886230	20776.750000	1758.596680	2.600195
578.928955	1303.269653	20502.126953	1801.543823	2.595332
579.271301	1303.269653	20200.753906	1796.639771	2.610771
579.613647	1300.594849	19866.466797	1795.376587	2.665007
579.955872	1248.582886	19501.341797	1737.346313	2.677751
580.298157	1242.118530	19241.357422	1731.253418	2.717531
580.640320	1253.858521	18965.173828	1721.668335	2.641305
580.982483	1255.567383	18751.927734	1718.176147	2.644029
581.324524	1251.035034	18575.607422	1705.916138	2.625641
581.666626	1251.480713	18457.761719	1702.572632	2.621670
582.008728	1260.025513	18354.035156	1702.349731	2.587598
582.350647	1257.573608	18216.425781	1709.928711	2.667369
582.692566	1257.053345	18091.894531	1708.665405	2.682604
583.034424	1243.456055	17984.082031	1698.411621	2.717674
583.376343	1244.050537	17902.052734	1688.083496	2.665584
583.718201	1237.660522	17858.212891	1686.968872	2.703330
584.059937	1241.524292	17791.564453	1689.866821	2.709012
584.401611	1243.530273	17717.111328	1688.677856	2.702191
584.743347	1247.914185	17643.998047	1691.872925	2.707712
585.085022	1254.304321	17558.326172	1693.136108	2.691556
585.426514	1253.635620	17496.654297	1700.863647	2.753356
585.768127	1243.753296	17433.869141	1696.628418	2.797232
586.109619	1240.929810	17399.466797	1694.176392	2.804998
586.451172	1247.691284	17350.353516	1690.164063	2.747824
586.792542	1250.217651	17313.203125	1692.393188	2.752761
587.133850	1244.198975	17274.935547	1695.588257	2.815774
587.475220	1243.530151	17224.857422	1691.129883	2.800767
587.816589	1253.486816	17202.640625	1691.872681	2.748646
588.157776	1259.133911	17218.244141	1695.067871	2.731568
588.498962	1255.938843	17278.429688	1696.331055	2.748588
588.840210	1249.697632	17313.947266	1692.615845	2.757167
589.181335	1254.229858	17339.060547	1687.043335	2.690818
589.522400	1257.944946	17363.728516	1697.742798	2.730683
589.863403	1256.236206	17402.216797	1699.674805	2.746433
590.204407	1254.229980	17370.119141	1699.749146	2.764472
590.545410	1250.812012	17412.101563	1701.012207	2.785670
590.886353	1246.873901	17415.443359	1706.956421	2.845536
591.227112	1236.768799	17439.294922	1709.854126	2.919824
591.567932	1239.146484	17353.919922	1692.392944	2.812614
591.908752	1247.022461	17288.609375	1683.179321	2.718913
592.249512	1256.979126	17287.419922	1673.445801	2.597974
592.590149	1258.539551	17259.853516	1680.355957	2.636136
592.930786	1258.687988	17212.892578	1686.523071	2.681645
593.271423	1258.390869	17140.521484	1687.563477	2.702236
593.612000	1251.034912	17051.136719	1680.727539	2.719556
593.952576	1243.976074	17035.087891	1679.315796	2.756866
594.292969	1237.511841	16995.630859	1684.665649	2.837609
594.633484	1241.449829	17059.085938	1686.448853	2.813309
594.973877	1247.542603	17109.537109	1693.284668	2.810126
595.314209	1250.440552	17224.187500	1704.652954	2.843493
595.654480	1252.372437	17356.744141	1713.272339	2.861955
595.994812	1255.567383	17517.685547	1718.176147	2.844702
596.335022	1260.397095	17687.095703	1722.857300	2.815296
596.675171	1261.808716	17830.275391	1732.813843	2.842780
597.015320	1259.431152	17930.509766	1723.971680	2.786506
597.355408	1256.087524	17987.423828	1709.036743	2.707191
597.695496	1252.669556	18054.074219	1710.448608	2.724648
598.035461	1250.886353	18076.216797	1710.523071	2.731814
598.375366	1253.189819	18092.564453	1716.913086	2.753803
598.715271	1256.607666	18106.904297	1698.114380	2.620172
599.055176	1258.019409	17998.943359	1690.758423	2.584917
599.395081	1253.412598	17894.845703	1684.888550	2.592781
599.734802	1255.047241	17651.353516	1687.414673	2.636981
600.074524	1253.338379	17419.455078	1681.767944	2.650170
600.414246	1254.452759	17069.044922	1674.634766	2.656926
600.753906	1249.326050	16732.304688	1666.981445	2.697513
601.093506	1249.474609	16408.419922	1660.368530	2.710571
601.433044	1250.440552	16114.625977	1657.693726	2.739828
601.772583	1247.839844	15919.062500	1655.984741	2.781942
602.112122	1251.332153	15816.375000	1664.826782	2.838952
602.451538	1251.777954	15806.417969	1667.056030	2.853235
602.790894	1256.681885	15866.676758	1677.086792	2.877516
603.130310	1255.418823	15994.476563	1683.402466	2.903738
603.469604	1256.384644	16177.039063	1686.374512	2.881843
603.808838	1247.914185	16380.182617	1687.266235	2.903412
604.148010	1244.124878	16591.869141	1689.495117	2.901861
604.487305	1243.530273	16835.064453	1693.061890	2.883178
604.826416	1245.685181	17013.541016	1691.278442	2.825960
605.165527	1246.576782	17193.947266	1692.393188	2.795548
605.504456	1246.130981	17353.623047	1683.179688	2.713326
605.843445	1249.697632	17438.998047	1685.928711	2.694564
606.182434	1246.502563	17485.734375	1681.099121	2.676214
606.521423	1249.994751	17449.771484	1688.380859	2.706125
606.860229	1248.582886	17424.285156	1685.631470	2.701883
607.199036	1256.384644	17283.705078	1676.863770	2.623515
607.537903	1246.130859	17099.955078	1668.987671	2.667223
607.876648	1252.297974	16838.185547	1660.888672	2.621543
608.215271	1248.434326	16589.791016	1666.164185	2.722900
608.553955	1252.000854	16349.124023	1671.959961	2.781716
608.892578	1248.583008	16094.786133	1679.835815	2.904802
609.231140	1248.211426	15898.702148	1682.733765	2.965924
609.569641	1251.629272	15731.668945	1693.953491	3.054717
609.908081	1252.446655	15675.497070	1715.501099	3.210517
610.246521	1252.966675	15643.843750	1736.603149	3.360716
610.584961	1244.942017	15620.586914	1742.844604	3.463515
610.923340	1242.267090	15610.706055	1740.912720	3.470423
611.261597	1235.654175	15577.937500	1742.250366	3.532187
611.599854	1242.341553	15530.012695	1747.674438	3.536846
611.938110	1248.137085	15474.582031	1747.897095	3.512894
612.276245	1255.121582	15357.183594	1730.436157	3.370532
612.614319	1254.229858	15157.308594	1715.501343	3.317765
612.952393	1247.765503	14886.995117	1694.993652	3.278984
613.290466	1246.279419	14622.700195	1683.402466	3.267863
613.628479	1246.428101	14380.698242	1664.678223	3.184418
613.966370	1247.542725	14128.811523	1650.857788	3.131020
614.304260	1243.753296	13898.769531	1635.922852	3.098926
614.642151	1245.016479	13689.606445	1621.433960	3.024748
614.979980	1243.084595	13524.877930	1611.477417	2.999504
615.317749	1240.855347	13373.226563	1605.235962	3.003375
615.655396	1237.511719	13248.027344	1599.588867	3.014668
615.993164	1244.421875	13170.752930	1594.387695	2.934396
616.330811	1248.211426	13104.846680	1583.316772	2.826311
616.668396	1248.434204	13054.839844	1571.651245	2.737641
617.005859	1243.976074	13009.440430	1572.022827	2.788218
617.343445	1244.867676	12989.082031	1571.354004	2.779976
617.680908	1241.524048	12968.276367	1576.629517	2.857615
618.018311	1242.861694	12975.707031	1572.171265	2.806732
618.355652	1247.617065	12986.778320	1566.524292	2.716610
618.692993	1258.985352	13008.102539	1557.682251	2.542292
619.030273	1257.722168	12996.661133	1550.994995	2.498291
619.367554	1258.019409	12979.050781	1549.880371	2.490062
619.704712	1259.654053	13008.176758	1559.614136	2.553173
620.041870	1260.248535	12985.515625	1561.100220	2.565841
620.379028	1256.979126	12949.180664	1557.830933	2.573098
620.716064	1250.068970	12858.457031	1547.874390	2.565433
621.053040	1244.644897	12827.250000	1547.279907	2.612840
621.389954	1243.901978	12780.364258	1550.623535	2.658714
621.726929	1240.781250	12737.789063	1549.508911	2.685287
622.063843	1248.359985	12687.487305	1540.666992	2.555326
622.400635	1243.530273	12640.081055	1538.809204	2.590950
622.737427	1245.239258	12601.815430	1552.480957	2.705408
623.074219	1244.496216	12544.231445	1553.075317	2.730852
623.410889	1253.858398	12499.351563	1548.097168	2.616504
623.747559	1252.818237	12459.823242	1535.391235	2.521396
624.084167	1250.217529	12447.042969	1539.106445	2.580097
624.420715	1250.663452	12447.265625	1535.540039	2.544313
624.757324	1256.756348	12460.492188	1542.895996	2.553966
625.093750	1260.694336	12471.414063	1547.651367	2.559666
625.430176	1255.567505	12504.182617	1562.437500	2.728069
625.766602	1248.062866	12538.881836	1558.425293	2.748803
626.102905	1245.685181	12616.379883	1559.391235	2.758900
626.439209	1245.685181	12672.328125	1570.090820	2.839029
626.775452	1250.440552	12753.690430	1574.697632	2.818830
627.111694	1249.623169	12791.510742	1573.137085	2.802955
627.447876	1255.493042	12829.628906	1566.970093	2.691147
627.783997	1247.691284	12867.151367	1558.350952	2.673615
628.120056	1249.623169	12915.374023	1564.592285	2.699947
628.456055	1240.706909	12953.862305	1562.511841	2.747380
628.792053	1251.406372	12974.666992	1571.428223	2.729802
629.128052	1250.737671	12939.893555	1558.425171	2.632247
629.463928	1261.214355	12881.342773	1552.035156	2.502733
629.799744	1252.520874	12799.906250	1547.354126	2.553247
630.135559	1254.898560	12701.010742	1550.920776	2.586225
630.471375	1246.056641	12589.629883	1551.292358	2.690825
630.807068	1258.093628	12414.945313	1552.035278	2.634629
631.142700	1247.393921	12281.942383	1545.273804	2.699520
631.478333	1249.325806	12125.906250	1543.416016	2.703885
631.813965	1241.301270	12022.922852	1536.505859	2.738035
632.149475	1247.468384	11892.893555	1535.762817	2.708153
632.484924	1247.022583	11825.426758	1530.636108	2.681062
632.820435	1251.183594	11726.901367	1526.103516	2.624354
633.155884	1253.858398	11642.270508	1523.503052	2.595629
633.491150	1255.493042	11554.890625	1527.663940	2.642591
633.826477	1249.697388	11503.621094	1525.583496	2.690542
634.161804	1248.062744	11473.083008	1518.970337	2.649458
634.497009	1240.038086	11438.085938	1511.094360	2.657923
634.832153	1242.415894	11379.089844	1506.339233	2.603648
635.167297	1246.799683	11311.473633	1503.589844	2.551401
635.502380	1260.397095	11239.104492	1500.692017	2.408077
635.837463	1264.483765	11141.768555	1500.023438	2.384660
636.172424	1261.734497	11082.399414	1496.011108	2.385547
636.507324	1259.505493	10998.882813	1497.274048	2.441312
636.842224	1266.341309	10970.202148	1497.199829	2.379038
637.177124	1267.233032	10884.085938	1497.645630	2.395925
637.511963	1262.551880	10785.336914	1483.973999	2.325182
637.846741	1247.245605	10673.139648	1484.271118	2.514621
638.181396	1247.988525	10544.893555	1476.246460	2.455203
638.516113	1247.171265	10464.348633	1475.875000	2.481277
638.850769	1249.623169	10379.124023	1466.735718	2.378143
639.185303	1242.192871	10310.691406	1472.382813	2.538347
639.519836	1242.044312	10218.778320	1474.240234	2.586641
639.854370	1243.233032	10134.890625	1478.624146	2.647326
640.188843	1249.697388	10037.777344	1470.079468	2.507739
640.523254	1250.812012	9964.812500	1476.692261	2.592153
640.857605	1251.926636	9863.166992	1476.840820	2.611867
641.191895	1252.000977	9792.356445	1476.023560	2.623106
641.526184	1248.880249	9723.180664	1466.661499	2.569902
641.860413	1248.359985	9665.446289	1456.333374	2.470848
642.194580	1246.799683	9607.713867	1464.655273	2.605643
642.528748	1243.753296	9537.868164	1462.723267	2.640064
642.862793	1245.610962	9454.278320	1465.175293	2.674787
643.196838	1240.706909	9392.309570	1463.392090	2.731796
643.530823	1243.381836	9333.833008	1461.237305	2.692748
643.864746	1239.072266	9319.641602	1462.054688	2.759489
644.198669	1240.929688	9282.861328	1464.357910	2.778291
644.532532	1245.610840	9260.570313	1461.163086	2.689374
644.866333	1246.651123	9192.805664	1453.435547	2.602321
645.200073	1245.462280	9140.572266	1449.497437	2.584323
645.533813	1244.570557	9088.114258	1450.760620	2.628787
645.867554	1245.536499	9081.948242	1458.265137	2.714618
646.201172	1248.211304	9074.516602	1448.977173	2.565270
646.534729	1252.075073	9089.081055	1454.847290	2.587368
646.868225	1256.607544	9099.780273	1455.441772	2.535125
647.201782	1256.384644	9086.851563	1465.695679	2.673034
647.535217	1253.932739	9045.911133	1459.082520	2.632833
647.868591	1246.056641	9045.835938	1458.636719	2.725463
648.201965	1246.428223	9069.092773	1455.293091	2.669997
648.535278	1249.994751	9103.643555	1456.556274	2.630134
648.868591	1255.121460	9107.433594	1451.429321	2.500001
649.201782	1252.149414	9077.563477	1451.206421	2.543725
649.534912	1251.480835	9035.656250	1456.184570	2.629742
649.868103	1255.418701	8984.016602	1462.797485	2.683265
650.201172	1256.458984	8973.019531	1464.358032	2.694193
650.534180	1250.068970	8960.684570	1465.026733	2.787816
650.867188	1246.056641	8948.351563	1465.398315	2.847744
651.200134	1248.880127	8924.871094	1462.203247	2.779095
651.533020	1252.372437	8878.729492	1463.689331	2.770876
651.865845	1252.223633	8820.772461	1464.358032	2.802841
652.198608	1248.211426	8789.342773	1465.992676	2.887912
652.531433	1248.805786	8790.829102	1459.899902	2.798906
652.864136	1245.908081	8770.247070	1451.726563	2.735370
653.196777	1458.488159	8958.975586	1669.582153	2.814404
653.529358	1463.317749	8901.762695	1680.133179	2.914795
653.861938	1463.763550	8857.850586	1677.532593	2.891081
654.194519	1261.362915	8554.249023	1459.899780	2.722336
654.526978	1258.836548	8490.942383	1447.268433	2.605491
654.859375	1255.344360	8434.622070	1449.274414	2.701247
655.191833	1252.372192	8414.708008	1449.571655	2.753284
655.524170	1249.400269	8378.002930	1441.324219	2.692308
655.856445	1249.994507	8347.019531	1437.980469	2.648799
656.188660	1255.195801	8313.805664	1446.376831	2.708480
656.520874	1252.595215	8279.180664	1449.869019	2.807534
656.853088	1258.911011	8270.487305	1450.834961	2.737244
657.185181	1244.347656	8239.428711	1435.528687	2.733078
657.517212	1245.016357	8229.249023	1439.020874	2.777750
657.849243	1241.821411	8231.923828	1443.404663	2.883838
658.181274	1245.833862	8279.775391	1454.475708	2.966215
658.513123	1248.880249	8345.978516	1457.522095	2.939819
658.844971	1248.508667	8402.820313	1456.184937	2.902813
659.176819	1247.022461	8482.696289	1454.178711	2.862985
659.508667	1247.542603	8561.829102	1452.023804	2.795641
659.840393	1246.279419	8652.849609	1457.373535	2.850093
660.172058	1250.514771	8682.570313	1456.110352	2.766335
660.503662	1249.920288	8709.765625	1457.670776	2.784917
660.835266	1249.177368	8714.817383	1452.469604	2.723038
661.166931	1251.703613	8682.867188	1450.017578	2.668680
661.498413	1250.737671	8664.886719	1448.902954	2.672799
661.829773	1254.824341	8600.985352	1447.862793	2.627746
662.161194	1253.561157	8547.859375	1452.618286	2.728941
662.492615	1256.310425	8449.037109	1454.624390	2.757146
662.823975	1257.127808	8322.871094	1455.738892	2.810902
663.155212	1253.635498	8183.775879	1447.045532	2.790853
663.486450	1249.697510	8025.882813	1435.305664	2.739125
663.817627	1249.177368	7884.039063	1432.482056	2.762751
664.148743	1250.737671	7781.501465	1428.321289	2.719186
664.479858	1252.818237	7686.617188	1430.401733	2.760165
664.810913	1254.378662	7616.623535	1426.166504	2.700114
665.141907	1252.966919	7544.326660	1430.773071	2.826196
665.472778	1247.542725	7471.138184	1426.612183	2.877267
665.803711	1246.502441	7408.873047	1424.680298	2.891385
666.134583	1245.610840	7356.861328	1420.965210	2.869370
666.465454	1256.533325	7313.171387	1426.537964	2.806914
666.796143	1252.818359	7280.998047	1425.126343	2.858375
667.126831	1256.013306	7262.273438	1416.953003	2.679533
667.457458	1244.570679	7254.621094	1413.014648	2.802705
667.788147	1247.022583	7238.050781	1406.104492	2.655336
668.118774	1248.359985	7197.333496	1411.677368	2.745304
668.449219	1249.697388	7180.243652	1404.915894	2.617272
668.779663	1260.768555	7149.036621	1413.014771	2.585586
669.110107	1259.728271	7140.640137	1415.095337	2.641887
669.440552	1260.322754	7125.928223	1417.844604	2.685517
669.770874	1245.685181	7118.349121	1409.819824	2.794893
670.101135	1241.524170	7086.993652	1402.018066	2.745612
670.431396	1242.118530	7055.191895	1403.355469	2.773695
670.761597	1244.867798	7011.799316	1397.931274	2.654158
671.091797	1247.022583	6994.783691	1392.209961	2.525981
671.421875	1246.873901	6950.201660	1389.832397	2.506580
671.751892	1252.892456	6940.320313	1396.370972	2.522731
672.081909	1252.966797	6893.509277	1398.525757	2.580585
672.411865	1247.097046	6868.469238	1395.256470	2.635645
672.741821	1237.586182	6818.017090	1394.959351	2.820090
673.071716	1246.651245	6789.856934	1400.234741	2.770662
673.401550	1256.459106	6763.999512	1404.841431	2.694167
673.731262	1263.294922	6737.101563	1407.144897	2.627970
674.060974	1253.932739	6698.018066	1400.011841	2.683263
674.390625	1247.542603	6644.445801	1398.600098	2.798966
674.720276	1239.072144	6602.687500	1401.423828	3.026908
675.049927	1240.186646	6572.967285	1406.773438	3.123826
675.379395	1241.598511	6553.425781	1407.590820	3.124957
675.708923	1243.827515	6530.168457	1405.807495	3.064123
676.038330	1243.456055	6491.457031	1404.098511	3.061022
676.367737	1247.245483	6462.701660	1403.132446	2.988942
676.697083	1249.251709	6426.145020	1394.067505	2.797349
677.026428	1250.217651	6398.132813	1391.466797	2.743813
677.355652	1243.158813	6368.486328	1385.225586	2.771858
677.684875	1239.666504	6371.161621	1391.169922	2.952423
678.013977	1238.254883	6349.539063	1386.117188	2.892860
678.343079	1245.462280	6362.393066	1390.055298	2.825776
678.672180	1247.839966	6347.532715	1387.231812	2.733338
679.001221	1245.239258	6382.975098	1390.798218	2.833134
679.330139	1242.638794	6395.903809	1390.278198	2.864968
679.659058	1245.685181	6430.751953	1388.494995	2.754252
679.987976	1252.595337	6471.618652	1396.816895	2.763382
680.316772	1252.520874	6501.785156	1398.971680	2.789930
680.645630	1251.926636	6517.314453	1403.949829	2.887218
680.974304	1244.793457	6544.360840	1404.172852	3.007404
681.302979	1251.555054	6579.580078	1399.194458	2.770997
681.631653	1251.406372	6608.781250	1396.668335	2.711439
681.960266	1249.920410	6611.679688	1397.411133	2.750790
682.288757	1245.090698	6624.087402	1402.686646	2.929839
682.617249	1242.861694	6618.960938	1404.395630	3.004668
682.945679	1240.706909	6603.654297	1389.980957	2.783433
683.274109	1244.793457	6558.775391	1382.996582	2.600745
683.602478	1249.474609	6510.924316	1383.739624	2.551863
683.930725	1253.635498	6467.754395	1385.151245	2.522300
684.259033	1252.595337	6404.894531	1392.655884	2.718409
684.587280	1245.685181	6348.943848	1385.225586	2.734339
684.915344	1253.264038	6287.867676	1391.987183	2.755394
685.243469	1251.555054	6231.174316	1386.488770	2.709720
685.571533	1259.876831	6182.878418	1389.832397	2.639763
685.899536	1249.548828	6133.095215	1384.408203	2.761505
686.227539	1252.223755	6094.085938	1381.956421	2.679396
686.555420	1242.713013	6070.755371	1375.640503	2.753238
686.883301	1249.326050	6042.892090	1376.978027	2.662986
687.211121	1242.490112	6033.232422	1378.538452	2.839818
687.538940	1245.536499	6004.699707	1381.436157	2.855537
687.866638	1245.016235	5994.148438	1377.943970	2.798990
688.194336	1245.759399	5986.941406	1378.612671	2.802113
688.521973	1245.462158	5990.953613	1379.281616	2.819928
688.849609	1244.867798	6003.957031	1377.943970	2.796253
689.177063	1245.536499	5997.344238	1381.584839	2.863086
689.504578	1258.688110	5969.109375	1373.634277	2.440252
689.832031	1261.140137	5925.790527	1371.553833	2.367030
690.159485	1264.558105	5871.104004	1364.420898	2.167845
690.486816	1254.453003	5815.376953	1365.461060	2.433894
690.814087	1253.115356	5751.104980	1369.696411	2.591848
691.141296	1250.812012	5672.121094	1369.324829	2.680492
691.468506	1248.582886	5587.044434	1363.900757	2.658036
691.795715	1251.629395	5504.717285	1358.699585	2.517469
692.122803	1251.183716	5432.569336	1356.767700	2.525095
692.449829	1253.635620	5387.690430	1360.482788	2.584561
692.776855	1245.759521	5324.161621	1355.132935	2.681771
693.103821	1247.394165	5275.121582	1345.176392	2.427727
693.430664	1247.171265	5210.775879	1347.256958	2.525118
693.757568	1255.121582	5180.236816	1347.999878	2.366256
694.084351	1252.000854	5140.633789	1348.743042	2.487820
694.411133	1254.378418	5124.361816	1344.730591	2.334692
694.737854	1251.629272	5071.012207	1347.108276	2.499854
695.064575	1254.750122	5048.424316	1350.005981	2.510913
695.391174	1244.719238	5013.650391	1356.247437	2.959146
695.717773	1247.319702	5008.895020	1361.523071	3.036052
696.044250	1246.502441	5003.916992	1363.529297	3.114558
696.370789	1253.932617	5004.733887	1352.755493	2.634714
696.697205	1254.304199	5005.031250	1352.383911	2.614952
697.023621	1252.595215	5041.216797	1351.789429	2.618214
697.349915	1250.886353	5094.194824	1363.454956	2.928950
697.676208	1243.381714	5171.915527	1353.572632	2.804887
698.002380	1247.765747	5228.607910	1350.303345	2.575776
698.328674	1246.799683	5302.316895	1353.052612	2.619960
698.654724	1245.016479	5375.281738	1363.306274	2.863976
698.980896	1245.536499	5455.231934	1373.040039	3.028807
699.306946	1249.400269	5521.286621	1373.411499	2.902962
699.632935	1254.527222	5565.868652	1376.755249	2.835035
699.958862	1250.514893	5600.270996	1375.714844	2.878321
700.284729	1249.400391	5614.536621	1363.900757	2.623065
700.610596	1255.418823	5602.127441	1363.306274	2.482049
700.936340	1253.561157	5558.066406	1359.591187	2.463234
701.262146	1253.338257	5480.123047	1362.340332	2.578841
701.587830	1242.564331	5397.498047	1352.309570	2.641324
701.913513	1248.211426	5278.019531	1342.427368	2.337976
702.239075	1250.589111	5157.500488	1342.650269	2.356367
702.564697	1255.047241	5042.257324	1347.256958	2.434767
702.890137	1251.183472	4926.492676	1350.823608	2.711068
703.215698	1249.771851	4824.475586	1344.879272	2.660568
703.541016	1250.291748	4727.584961	1329.350098	2.273560
703.866455	1249.845947	4661.381348	1322.514038	2.130070
704.191711	1247.171143	4599.041504	1323.628540	2.281037
704.517029	1241.226929	4539.970703	1333.213745	2.788541
704.842163	1237.437500	4479.265625	1339.157837	3.137746
705.167419	1244.347656	4438.844727	1340.049561	2.995836
705.492493	1247.542603	4413.358887	1338.563477	2.875115
705.817566	1254.378540	4396.937988	1333.882446	2.529909
706.142578	1250.588989	4377.990723	1328.681274	2.497034
706.467590	1249.474609	4350.424316	1327.715332	2.523121
706.792480	1243.604614	4330.214355	1335.442749	2.975372
707.117371	1245.610840	4318.623047	1335.442749	2.923253
707.442200	1254.155640	4311.267090	1329.572876	2.466944
707.766907	1258.911133	4303.762207	1319.393433	1.986380
708.091675	1252.892578	4294.474609	1318.576050	2.159517
708.416321	1240.558228	4288.381348	1321.176636	2.645114
708.741028	1243.158813	4301.979004	1331.876343	2.900384
709.065552	1245.907959	4314.610840	1330.984741	2.772402
709.390137	1253.709839	4340.839355	1332.990845	2.568114
709.714600	1257.870728	4362.907227	1332.842163	2.414510
710.039063	1252.743774	4372.269531	1340.198120	2.803450
710.363403	1250.068848	4387.426758	1349.188843	3.159346
710.687744	1233.722412	4412.838379	1350.377563	3.669421
711.012085	1237.363281	4458.980469	1344.879272	3.337330
711.336304	1243.901855	4506.162598	1341.387085	2.988272
711.660461	1254.750000	4517.011230	1336.037231	2.491745
711.984619	1259.505371	4529.419922	1341.461426	2.506367
712.308716	1254.081421	4519.165527	1332.322144	2.396285
712.632751	1255.641724	4551.487305	1336.557251	2.455076
712.956726	1253.338257	4535.437988	1336.185913	2.524227
713.280701	1253.486816	4538.707520	1340.272583	2.641703
713.604553	1252.892456	4506.312012	1331.653442	2.420868
713.928467	1253.189819	4490.262207	1327.343872	2.290775
714.252258	1250.663452	4431.265625	1327.715454	2.422560
714.575989	1247.097046	4352.727051	1330.464478	2.684397
714.899719	1253.115356	4310.375000	1330.687500	2.537310
715.223267	1262.403198	4280.431152	1332.916504	2.336403
715.546936	1263.666382	4279.687988	1334.328247	2.342883
715.870422	1252.892456	4241.050293	1335.739990	2.772529
716.193970	1243.455933	4210.512207	1328.978516	2.882405
716.517395	1244.273315	4176.555664	1323.554321	2.703730
716.840820	1244.719238	4148.320313	1310.328491	2.259582
717.164124	1249.771729	4116.667969	1305.573120	1.946404
717.487488	1247.171265	4082.860107	1307.356445	2.122418
717.810730	1251.035034	4047.640625	1315.826904	2.316804
718.133972	1246.279541	4015.616455	1318.501831	2.607927
718.457092	1245.982300	3979.505127	1322.365479	2.794313
718.780212	1243.901855	3950.526611	1324.371704	2.973070
719.103210	1244.496216	3899.109375	1329.127075	3.188067
719.426208	1247.022583	3849.326904	1316.049805	2.652542
719.749207	1251.926514	3800.955811	1310.179810	2.285313
720.072083	1254.155640	3772.720703	1308.248047	2.147747
720.394958	1253.189697	3741.290283	1309.288208	2.254672
720.717773	1248.359985	3702.653076	1310.922852	2.549120
721.040527	1249.251709	3657.253906	1313.226196	2.656745
721.363281	1249.028809	3615.273193	1317.535767	2.895177
721.685913	1255.418823	3583.100342	1318.798950	2.722886
722.008545	1262.403198	3568.462891	1313.820679	2.229668
722.331055	1262.626099	3558.283203	1313.894897	2.233295
722.653503	1257.722168	3544.537109	1307.802124	2.189944
722.976013	1254.452759	3540.896240	1303.121094	2.128561
723.298401	1248.434448	3519.125244	1302.526733	2.382195
723.620789	1249.697632	3501.292969	1307.505005	2.567396
723.943115	1247.914185	3476.550049	1310.551392	2.810563
724.265381	1255.270142	3466.742188	1310.031250	2.476229
724.587585	1251.406372	3463.250000	1310.848633	2.687453
724.909790	1253.709839	3457.231445	1308.991089	2.508768
725.231873	1255.121582	3451.361328	1304.384277	2.243047
725.553894	1265.152344	3452.624268	1300.074707	1.596471
725.875916	1311.442993	3494.159424	1372.594238	2.801612
726.197937	1310.997192	3493.490967	1379.058472	3.118510
726.519775	1303.046753	3492.302002	1380.618774	3.543306
726.841675	1248.805786	3451.361328	1313.226196	2.924803
727.163513	1242.118652	3461.243408	1314.860962	3.277973
727.485291	1246.874023	3475.955811	1317.833130	3.183333
727.806946	1248.805786	3496.983398	1320.879395	3.205868
728.128662	1252.223755	3522.320313	1317.907349	2.893427
728.450256	1248.954468	3535.769531	1314.266479	2.856025
728.771790	1253.264038	3546.543213	1308.471069	2.407340
729.093323	1256.533325	3549.292236	1305.870361	2.151863
729.414795	1248.583008	3565.341797	1309.065308	2.610643
729.736145	1247.691284	3574.035156	1310.848633	2.714876
730.057495	1246.948242	3568.165283	1310.700073	2.746483
730.378845	1257.796387	3561.106445	1312.631836	2.380724
730.700134	1260.917236	3554.270508	1312.780396	2.261455
731.021301	1259.877075	3561.255127	1315.306763	2.408543
731.342468	1258.539551	3555.459717	1310.402832	2.257949
731.663574	1250.068970	3555.979736	1304.681519	2.368372
731.984680	1249.028687	3574.258057	1304.012695	2.364670
732.305664	1243.456055	3581.391357	1302.452271	2.523432
732.626648	1247.914185	3606.282471	1306.390381	2.479519
732.947571	1248.434204	3593.428467	1308.247925	2.550698
733.268433	1249.103027	3598.480469	1310.625610	2.618676
733.589233	1246.576782	3587.186523	1307.059082	2.584040
733.909973	1246.428223	3599.000732	1309.882690	2.697237
734.230713	1252.372437	3577.007080	1312.557495	2.589011
734.551331	1252.075195	3540.301758	1315.306763	2.763344
734.871948	1250.291870	3482.271484	1307.727905	2.573323
735.192505	1242.267212	3444.971436	1300.966431	2.664871
735.513062	1232.161987	3411.609375	1300.000366	3.112641
735.833435	1228.075317	3372.823486	1297.474121	3.235755
736.153931	1226.292114	3337.826904	1301.560791	3.564643
736.474304	1243.381714	3291.164795	1304.607178	2.989841
736.794617	1255.418823	3271.177002	1309.882690	2.701905
737.114807	1262.328979	3256.688232	1313.003296	2.540882
737.434998	1263.369141	3250.818359	1304.087036	2.048752
737.755188	1249.177246	3238.781250	1306.984863	2.905483
738.075256	1249.326050	3240.193115	1302.155151	2.653573
738.395325	1239.295044	3240.044678	1304.681519	3.268099
738.715271	1246.279541	3252.750244	1296.062378	2.481115
739.035278	1238.626343	3260.403564	1296.731079	2.873944
739.355164	1242.935913	3266.198975	1299.034546	2.772681
739.675049	1239.740967	3271.400146	1298.365723	2.885561
739.994873	1241.449829	3270.062744	1297.994263	2.787345
740.314636	1239.369385	3274.000977	1300.297485	2.994552
740.634277	1244.793457	3253.716064	1307.282104	3.110555
740.953979	1246.130859	3225.258545	1304.458618	2.947145
741.273499	1247.616821	3200.218018	1301.858032	2.777895
741.593140	1254.601440	3191.153076	1302.898193	2.493956
741.912598	1261.214355	3167.079102	1299.851929	2.027299
742.232117	1253.784058	3124.578125	1299.405884	2.438634
742.551453	1249.548828	3077.916016	1291.084106	2.271714
742.870850	1246.056519	3047.897461	1299.331665	2.956706
743.190063	1251.406372	3027.538330	1299.331665	2.698296
743.509338	1246.353882	2996.554688	1303.418335	3.260452
743.828552	1247.468384	2980.950928	1299.851929	3.021868
744.147705	1246.502563	2970.771484	1293.015991	2.697574
744.466797	1245.313599	2957.397217	1287.814819	2.482427
744.785828	1246.428101	2930.647705	1283.802490	2.219092
745.104858	1246.948242	2903.675781	1287.740601	2.462225
745.423706	1243.455933	2890.301514	1284.619751	2.499555
745.742615	1245.387817	2878.115967	1277.783813	1.984164
746.061401	1250.663452	2873.137451	1275.926270	1.557055
746.380249	1259.431030	2863.180908	1281.201782	1.357491
746.698975	1257.276245	2848.023438	1285.585693	1.779632
747.017639	1262.774780	2837.620850	1282.985107	1.283321
747.336304	1260.099731	2833.534180	1287.146118	1.718940
747.654907	1262.403198	2838.958252	1293.090210	1.946460
747.973389	1254.526978	2846.908936	1296.285278	2.622380
748.291931	1257.573608	2837.992432	1296.582397	2.468256
748.610352	1249.177368	2840.518799	1299.257324	3.147028
748.928711	1256.458984	2831.676758	1306.761841	3.193391
749.247070	1254.378540	2836.580811	1304.978638	3.198080
749.565308	1259.653931	2826.326904	1298.217163	2.461473
749.883545	1256.681885	2808.197266	1288.111938	2.025765
750.201782	1253.709839	2804.704834	1286.031616	2.083938
750.519836	1252.297974	2799.875244	1285.882935	2.170164
750.837952	1245.313599	2797.646240	1288.557739	2.785752
751.155884	1257.499146	2767.405029	1286.774536	1.938888
751.473877	1259.802612	2748.977783	1286.328735	1.781263
751.791809	1256.682007	2744.222412	1276.966553	1.363630
752.109619	1251.109253	2748.680420	1286.774536	2.381542
752.427490	1251.777954	2744.222412	1290.489624	2.593843
752.745300	1256.607666	2737.683594	1298.588501	2.834482
753.062988	1247.171143	2726.166748	1292.347046	3.054499
753.380615	1240.038086	2722.377197	1293.536011	3.609021
753.698303	1239.072266	2707.591064	1288.854980	3.389995
754.015808	1240.632446	2713.535400	1284.322632	2.966264
754.333374	1245.090698	2703.727539	1286.774536	2.857726
754.650757	1241.598511	2705.362061	1287.517578	3.137055
754.968262	1247.171265	2707.071045	1290.786865	2.987575
755.285583	1248.880127	2706.030762	1285.437012	2.508792
755.602905	1246.130981	2702.909912	1284.768433	2.652252
755.920105	1237.511719	2677.944336	1290.118164	3.652128
756.237305	1238.180420	2677.498291	1295.319336	3.969861
756.554443	1242.861450	2664.421387	1302.675293	4.207620
756.871582	1251.703735	2671.034180	1297.919922	3.256196
757.188599	1248.211548	2661.077881	1290.118164	2.966071
757.505615	1247.988525	2667.022217	1292.867310	3.162630
757.822510	1247.691284	2677.424316	1293.015991	3.170152
758.139465	1250.366211	2689.015381	1292.421509	2.923249
758.456238	1252.743774	2697.634521	1292.347290	2.740935
758.773010	1248.434326	2704.098877	1289.820923	2.843141
759.089783	1245.462280	2720.593994	1294.427734	3.319395
759.406433	1247.245483	2732.111084	1294.650513	3.192547
759.723145	1250.440552	2739.392578	1293.833374	2.914320
760.039673	1256.384644	2730.996826	1288.557739	2.181800
760.356201	1255.418823	2733.374268	1281.127563	1.739480
760.672668	1253.115356	2735.305908	1286.923218	2.280939
760.989136	1255.047241	2743.850830	1288.929321	2.275792
761.305481	1251.703735	2741.399170	1289.598022	2.543761
761.621826	1254.527222	2743.999268	1283.356567	1.935541
761.938049	1252.298096	2747.714600	1292.718750	2.702970
762.254333	1257.722168	2760.494873	1293.981812	2.412849
762.570496	1255.641724	2789.027100	1304.904419	3.212675
762.886597	1253.041138	2840.072998	1300.000366	2.958934
763.202637	1255.344360	2914.969971	1306.613403	3.089193
763.518677	1260.545532	3008.888672	1302.600952	2.405444
763.834656	1260.694214	3112.541016	1307.430664	2.523775
764.150574	1259.876831	3223.623779	1301.263550	2.107538
764.466370	1263.740723	3296.663330	1301.040649	1.834793
764.782288	1258.613770	3342.285156	1292.941650	1.647471
765.097961	1254.601440	3348.823486	1294.427612	1.901717
765.413696	1244.198975	3317.022217	1290.861206	2.251144
765.729309	1249.846069	3264.861572	1298.142944	2.396849
766.044861	1252.966797	3178.521729	1299.406006	2.411731
766.360474	1249.177368	3089.804443	1303.566895	2.954946
766.675903	1243.084473	2985.334717	1297.176880	3.104744
766.991394	1243.455933	2884.282959	1297.176880	3.274016
767.306763	1245.982422	2797.645752	1290.638184	2.877928
767.622131	1248.137085	2723.194824	1292.718750	3.022367
767.937378	1247.617065	2653.796143	1287.963379	2.869216
768.252625	1250.217529	2600.000977	1287.889038	2.790930
768.567810	1247.839966	2556.831055	1287.220337	3.008452
768.882996	1244.496216	2528.075928	1284.545532	3.120127
769.197998	1246.874023	2503.481689	1284.396851	2.986042
769.513062	1250.737671	2474.726318	1284.471191	2.756032
769.828064	1253.041016	2457.562256	1291.084106	3.158358
770.142944	1249.251587	2421.599854	1283.207886	2.896435
770.457825	1247.542603	2404.584717	1272.136841	2.125613
770.772705	1242.267212	2381.253662	1266.118408	2.094072
771.087402	1244.942139	2356.585205	1269.164917	2.179007
771.402100	1242.490112	2336.003174	1279.492798	3.383836
771.716736	1246.651001	2316.833252	1287.814819	3.846431
772.031372	1251.778076	2311.037598	1294.799194	4.061433
772.345947	1257.647949	2287.186279	1289.449341	3.088898
772.660461	1255.790405	2265.787354	1282.167603	2.611612
772.974854	1251.777954	2255.087646	1276.743530	2.488322
773.289246	1251.406372	2255.979248	1278.824097	2.729292
773.603638	1252.372192	2261.254639	1274.143066	2.157920
773.917908	1251.703613	2251.000732	1268.421753	1.672990
774.232178	1256.607666	2226.481201	1261.437256	0.497961
774.546265	1255.493042	2214.741211	1261.585938	0.635174
774.860474	1254.378540	2200.995117	1264.260742	1.043950
775.174561	1248.137085	2198.914795	1274.217285	2.743039
775.488586	1255.047241	2184.277100	1276.000610	2.254918
775.802551	1251.257690	2181.304932	1281.424683	3.243598
776.116516	1254.006958	2168.004883	1277.189453	2.536384
776.430359	1242.267212	2153.664307	1282.910767	4.459478
776.744202	1243.827515	2143.410400	1276.000610	3.576446
777.057922	1241.004028	2133.453857	1273.548706	3.646667
777.371704	1247.394165	2133.156738	1270.205078	2.575285
777.685303	1249.028687	2127.064209	1269.313354	2.310233
777.998962	1255.567383	2129.961670	1267.975952	1.419105
778.312500	1253.709839	2122.085693	1266.638550	1.488838
778.626038	1256.013184	2122.457275	1278.081055	2.546947
778.939453	1247.171143	2122.903076	1274.291626	3.096893
779.252869	1250.143188	2119.856689	1268.867554	2.152935
779.566223	1247.691284	2113.169189	1262.626099	1.725615
779.879578	1253.412598	2106.259277	1267.678833	1.672778
780.192749	1253.709839	2103.658691	1272.805664	2.246703
780.505920	1248.954468	2100.315186	1268.198853	2.260427
780.819031	1244.942017	2096.525635	1261.585938	1.954467
781.132141	1255.938843	2093.033447	1271.245239	1.828515
781.445190	1259.133911	2088.500732	1275.554810	1.979932
781.758118	1262.254517	2081.962158	1285.882935	2.882542
782.071045	1251.257813	2066.209961	1277.115234	3.172876
782.383911	1254.601563	2059.299805	1279.195679	3.056315
782.696838	1249.771851	2051.052246	1274.291870	3.060105
783.009583	1257.350708	2050.978027	1274.663208	2.181440
783.322266	1258.390869	2038.718140	1265.969849	0.971256
783.634888	1261.808716	2024.674805	1269.907837	1.061670
783.947510	1250.366089	2007.510864	1266.118408	2.080490
784.260132	1243.158691	2000.823730	1269.239136	3.442213
784.572571	1241.375488	1997.108765	1266.266968	3.293686
784.885010	1243.901733	1995.845337	1263.740723	2.638361
785.197449	1248.954468	1975.709351	1267.084351	2.494635
785.509766	1247.319824	1967.833374	1268.718994	2.969989
785.822083	1245.685181	1970.656860	1267.604492	3.023471
786.134277	1244.942139	1983.957031	1269.016235	3.257593
786.446533	1247.171265	1982.916626	1273.102905	3.524540
786.758606	1247.245605	1968.130493	1275.554810	3.927008
787.070740	1248.434448	1968.278931	1271.691040	3.230780
787.382690	1245.759399	1971.845703	1267.084351	2.936972
787.694641	1247.319702	1993.764771	1264.557983	2.309384
788.006653	1246.799683	2007.956665	1263.443481	2.186645
788.318481	1252.520874	2029.801758	1264.037964	1.481715
788.630310	1256.533325	2035.151733	1264.632324	1.040176
788.942017	1254.601440	2046.222656	1264.929565	1.304680
789.253784	1250.291870	2047.931641	1263.071899	1.602231
789.565430	1254.155640	2061.083008	1261.660278	0.930027
789.877014	1258.167969	2068.290283	1254.750000	-0.421908
790.188538	1261.288696	2059.522705	1256.607544	-0.586439
790.500061	1256.161743	2036.563110	1261.288696	0.656964
790.811462	1254.750122	2019.919434	1266.118286	1.485706
791.122925	1255.270142	1999.783569	1270.725098	2.075846
791.434204	1249.474487	1987.820679	1273.474243	3.250475
791.745483	1252.818237	1958.842407	1279.046997	3.714995
792.056702	1248.211304	1950.817871	1268.421753	2.876496
792.367920	1255.121460	1935.288696	1268.273193	1.933603
792.678955	1251.034912	1928.304199	1271.393921	3.006043
792.990112	1249.251587	1915.152710	1273.771606	3.682231
793.301086	1242.415894	1906.087524	1266.118286	3.571404
793.612122	1245.685059	1894.347656	1260.694214	2.313862
793.922974	1243.604614	1892.787476	1260.397095	2.586710
794.233826	1245.090698	1897.617188	1268.495972	3.586869
794.544556	1231.196045	1898.137329	1271.616699	6.060602
794.855286	1236.694458	1901.035156	1274.068848	5.625787
795.166016	1240.038086	1888.849487	1273.400024	5.142009
795.476624	1256.161743	1891.152954	1269.090454	2.036046
795.787292	1260.619995	1897.097168	1275.183228	2.288100
796.097778	1260.991577	1921.394043	1275.926270	2.261453
796.408264	1255.715942	1933.951172	1275.629028	2.936015
796.718689	1247.988647	1939.969727	1263.294800	2.211932
797.029053	1248.508667	1938.557983	1269.610718	3.058050
797.339355	1246.576782	1939.895508	1265.003906	2.657814
797.649658	1255.418823	1936.626099	1268.793335	1.963354
797.959839	1255.418823	1936.106079	1257.870728	0.360210
798.270020	1256.830566	1930.533325	1258.093628	0.187481
798.580078	1253.189575	1930.013306	1259.579712	0.944136
798.890137	1251.332153	1914.855469	1262.997681	1.758119
799.200195	1251.109131	1898.880371	1263.369141	1.892645
799.510071	1250.143188	1884.614136	1260.396973	1.616116
799.820007	1249.325806	1877.778320	1257.202026	1.253272
800.129883	1249.177368	1873.171509	1261.140015	1.917109
800.439575	1256.756226	1867.152954	1269.016235	2.008531
800.749329	1260.619995	1864.775391	1269.833618	1.525042
801.058960	1261.065796	1866.187134	1272.582886	1.903270
801.368591	1250.663452	1857.493652	1268.867554	2.999867
801.678162	1246.428101	1843.896362	1276.892212	5.098867
801.987671	1249.103027	1829.333008	1270.502319	3.688071
802.297119	1256.236206	1825.543579	1260.619995	0.770021
802.606506	1248.508667	1825.543579	1251.332153	0.489309
802.915894	1248.137207	1828.144165	1255.864502	1.332276
803.225159	1242.341553	1823.834839	1261.065796	3.220027
803.534424	1251.257813	1819.525024	1260.471313	1.621333
803.843628	1246.279541	1818.336304	1261.957520	2.740633
804.152771	1250.737671	1809.271118	1266.861450	2.886806
804.461792	1249.177368	1800.057617	1265.672485	2.994320
804.770874	1252.000732	1801.395142	1254.824341	0.513949
805.079773	1251.109253	1815.884277	1247.319824	-0.670963
805.388733	1253.189697	1834.757202	1247.394043	-0.996557
805.697571	1257.276489	1840.255493	1258.390991	0.191174
806.006470	1250.068970	1843.747681	1261.214355	1.877343
806.315125	1250.886353	1840.255493	1267.604492	2.836616
806.623901	1242.861572	1834.905762	1264.557983	3.664661
806.932495	1243.901978	1830.076050	1264.780884	3.561895
807.241150	1242.564453	1823.091675	1259.728394	2.956613
807.549622	1240.112427	1815.884277	1262.923340	3.961797
807.858154	1247.468384	1809.345337	1265.152466	3.147323
808.166565	1245.982300	1812.689087	1263.963745	3.172971
808.474915	1260.545654	1814.695313	1263.740723	0.576571
808.783264	1251.926514	1810.980103	1261.585938	1.727817
809.091492	1256.384644	1796.268188	1261.660156	0.977158
809.399719	1242.787231	1783.562622	1259.282593	3.050317
809.707825	1252.966797	1775.909302	1260.842896	1.506112
810.015930	1254.081421	1776.132324	1258.911133	0.925142
810.323975	1256.756226	1770.559570	1262.403198	1.099053
810.632080	1250.366211	1765.581421	1268.421753	3.504466
810.939880	1242.861572	1756.962280	1278.526978	6.937436
811.247864	1243.084473	1761.420410	1269.684937	5.131896
811.555664	1247.096802	1754.881714	1269.759277	4.463007
811.863464	1250.440430	1745.742310	1262.477539	2.430257
812.171143	1253.115356	1744.627808	1265.969727	2.615268
812.478882	1255.641602	1736.083008	1258.242188	0.541291
812.786438	1259.208130	1734.671387	1261.585938	0.500103
813.094055	1258.613770	1722.114258	1267.678711	1.955757
813.401489	1250.737671	1722.337036	1269.313354	3.938869
813.708984	1246.502441	1724.194702	1265.449585	3.966391
814.016357	1252.297974	1714.238159	1260.545654	1.785443
814.323730	1250.663452	1721.594116	1258.985229	1.767092
814.630981	1253.635376	1724.789063	1257.573608	0.835870
814.938232	1249.697510	1728.578491	1256.087524	1.334364
815.245361	1253.264038	1727.686890	1259.876953	1.393886
815.552490	1253.932617	1724.640259	1264.260864	2.194196
815.859619	1253.189697	1728.132690	1264.260742	2.331026
816.166565	1260.545776	1721.073853	1254.973022	-1.210079
816.473572	1260.471436	1715.872925	1253.041138	-1.631593
816.780457	1256.384766	1716.838867	1256.458984	0.016119
817.087341	1249.623169	1714.238159	1262.923340	2.862622
817.394043	1249.177368	1722.857056	1265.895508	3.529419
817.700806	1251.035034	1730.213013	1266.118408	3.147760
818.007507	1249.846191	1747.302734	1266.638550	3.375643
818.314209	1245.759399	1753.841431	1264.037842	3.597538
818.620667	1246.056641	1756.813599	1265.523926	3.811458
818.927246	1245.016479	1757.185059	1264.037842	3.713887
819.233704	1243.307495	1775.463501	1264.632324	4.007251
819.540161	1244.199097	1806.224976	1261.065796	3.001054
819.846497	1245.759399	1844.565063	1261.065796	2.556154
820.152832	1253.784180	1871.239746	1268.347534	2.358608
820.458984	1254.601440	1910.694336	1259.431152	0.736132
820.765259	1255.715942	1963.300781	1258.687988	0.420027
821.071350	1246.502441	2046.073853	1247.765503	0.157967
821.377502	1240.632568	2175.955078	1264.706665	2.573882
821.683472	1238.775024	2388.014893	1278.824097	3.484831
821.989441	1239.666626	2734.117188	1299.405884	3.997406
822.295349	1244.124634	3183.351563	1317.610229	3.789427
822.601196	1243.530273	3715.061768	1341.164185	3.950341
822.907043	1244.421997	4212.519043	1363.157715	4.000399
823.212769	1248.582886	4589.679199	1367.244507	3.551578
823.518494	1249.177246	4752.030273	1363.900879	3.275148
823.824097	1253.041016	4707.745605	1353.646973	2.912143
824.129700	1244.347656	4516.193359	1346.513794	3.122584
824.435242	1247.839966	4263.192871	1333.213745	2.831303
824.740723	1244.719116	3975.046875	1316.792725	2.639742
825.046082	1251.257813	3684.746338	1313.969360	2.577023
825.351501	1249.251587	3358.631592	1304.161255	2.603119
825.656799	1251.555054	3056.516846	1303.641235	2.885722
825.962036	1255.195801	2796.085693	1287.740356	2.112062
826.267212	1258.613892	2628.458740	1288.409180	2.175085
826.572449	1262.551880	2552.298584	1285.214233	1.757117
826.877502	1257.127686	2555.344971	1292.718750	2.741534
827.182495	1260.694214	2630.464844	1297.028320	2.652569
827.487488	1252.075195	2733.299805	1300.594849	3.275645
827.792419	1253.412598	2821.274170	1293.461792	2.554383
828.097290	1250.886353	2862.809570	1289.226440	2.378531
828.402100	1254.081299	2853.521729	1289.078003	2.188059
828.706848	1254.006958	2794.896729	1294.502075	2.628035
829.011597	1246.502441	2682.031006	1292.421631	3.198765
829.316223	1244.942139	2548.508789	1287.517578	3.266073
829.620789	1252.372437	2417.438965	1283.133667	2.640298
829.925354	1256.458984	2306.727783	1280.235840	2.263883
830.229797	1253.115356	2193.044678	1275.257690	2.355745
830.534302	1243.530396	2086.048584	1275.109009	3.748122
830.838562	1244.496338	1987.374878	1278.229736	4.540904
831.142944	1248.880127	1916.787476	1274.068726	3.771271
831.447144	1252.818237	1853.630005	1271.765259	3.153570
831.751404	1251.257813	1823.166016	1266.118408	2.598423
832.055542	1252.075195	1796.491211	1268.496094	3.016241
832.359619	1248.731567	1792.033081	1269.090454	3.747254
832.663635	1248.954468	1794.930786	1269.090454	3.688070
832.967651	1243.901855	1817.890259	1270.799438	4.686085
833.271545	1245.982422	1860.094238	1270.799438	4.041123
833.575439	1246.130981	1928.527222	1264.780762	2.732984
833.879211	1248.583008	2017.393188	1267.084229	2.406474
834.183044	1246.353882	2106.407959	1268.273071	2.548583
834.486694	1244.570557	2175.137939	1276.743652	3.457363
834.790344	1252.892456	2224.994873	1279.715698	2.759302
835.093933	1260.025513	2238.443604	1278.229614	1.860565
835.397522	1262.105957	2214.889648	1275.926392	1.450532
835.700928	1255.270142	2152.401123	1267.232910	1.333447
836.004395	1253.858521	2099.423584	1269.982056	1.906836
836.307739	1246.948242	2043.250610	1272.508423	3.209859
836.611023	1244.273315	1986.631836	1276.075073	4.283881
836.914307	1238.329102	1922.211426	1276.149292	5.530219
837.217529	1245.536499	1853.778687	1275.926270	4.996327
837.520691	1254.081299	1792.404663	1271.319580	3.202217
837.823730	1255.121582	1734.374023	1268.273071	2.744167
838.126831	1250.663452	1701.681030	1262.031738	2.520586
838.429749	1246.205200	1680.876099	1262.031616	3.641011
838.732727	1245.313599	1660.368652	1254.750000	2.273530
839.035522	1247.691284	1629.310059	1252.818237	1.343475
839.338379	1254.006958	1612.294800	1254.304199	0.082962
839.641113	1251.332153	1618.090332	1259.208252	2.147491
839.943848	1255.270264	1641.718628	1260.248413	1.288180
840.246460	1246.948242	1659.105469	1252.446655	1.334057
840.549072	1253.338379	1675.377808	1246.799683	-1.549309
840.851563	1251.480713	1686.523071	1244.644897	-1.571299
841.154053	1254.229980	1690.163940	1252.520874	-0.392056
841.456482	1247.022583	1677.903931	1255.418701	1.948592
841.758850	1247.616943	1670.771118	1260.397095	3.020211
842.061157	1241.524048	1656.653442	1259.579712	4.349406
842.363403	1241.152710	1649.446167	1256.458984	3.748842
842.665588	1231.196045	1625.892212	1254.973022	6.024122
842.967712	1240.409546	1608.208130	1256.533325	4.383861
843.269775	1248.359985	1583.242310	1264.260864	4.748199
843.571777	1255.715942	1570.165039	1261.734497	1.914000
843.873840	1250.886353	1555.081665	1260.694214	3.224199
844.175659	1252.446655	1537.249023	1253.338257	0.313060
844.477600	1254.452881	1526.252319	1258.539429	1.503516
844.779297	1259.579712	1515.998413	1256.607544	-1.159107
845.081116	1252.297974	1515.032593	1260.619995	3.167463
845.382751	1254.452759	1505.224609	1256.979248	1.007485
845.684387	1250.217651	1501.435059	1255.195923	1.981659
845.985962	1252.595215	1491.775757	1247.245483	-2.236692
846.287537	1253.115356	1493.336304	1248.880127	-1.763056
846.588989	1254.155640	1486.203125	1253.264038	-0.384232
846.890381	1251.257935	1481.521973	1260.619995	4.065794
847.191711	1249.623169	1471.045288	1258.316528	3.926148
847.493042	1249.177368	1474.091675	1259.133911	4.426816
847.794250	1249.920288	1478.549805	1257.276367	3.217467
848.095459	1254.229980	1478.252563	1257.499146	1.459302
848.396606	1254.378540	1469.484985	1257.202148	1.312656
848.697693	1263.443481	1468.518921	1256.087524	-3.586952
848.998657	1259.876953	1469.262085	1251.332153	-4.080901
849.299622	1266.712769	1465.695435	1256.830566	-4.966363
849.600464	1256.756226	1455.590210	1259.505371	1.382634
849.901367	1256.979248	1449.571777	1258.316528	0.694357
850.202087	1248.360107	1449.869019	1246.725464	-0.811202
850.502808	1250.143188	1450.017578	1245.388062	-2.379058
850.803467	1246.651001	1453.138306	1245.833618	-0.395851
851.104065	1249.028687	1459.602661	1251.926514	1.376156
851.404663	1251.703613	1464.878052	1246.576782	-2.404993
851.705139	1250.217651	1456.036133	1253.709839	1.696732
852.005615	1244.124878	1449.943237	1249.103149	2.418769
852.306030	1241.449829	1441.175659	1254.155640	6.361626
852.606384	1239.666626	1443.627563	1250.291870	5.209451
852.906616	1240.261108	1442.067383	1253.264038	6.443273
853.206909	1244.496216	1446.451172	1257.573486	6.475340
853.506958	1248.359985	1445.336548	1258.390869	5.092425
853.807129	1253.561157	1450.166138	1252.372314	-0.604686
854.107178	1254.304199	1444.147827	1240.706787	-7.162427
854.407166	1252.892456	1444.816406	1240.558228	-6.426623
854.707092	1258.167969	1446.822632	1242.415771	-8.349752
855.007019	1257.945068	1453.063965	1247.096924	-5.559761
855.306763	1264.037964	1443.776001	1254.750122	-5.167432
855.606567	1251.629272	1432.407837	1258.688110	3.904687
855.906250	1250.291870	1427.801147	1259.505371	5.190434
856.205933	1245.759399	1438.649292	1254.229858	4.391344
856.505493	1248.657349	1448.605835	1254.081421	2.712735
856.805054	1240.409668	1442.290039	1258.836792	9.127745
857.104492	1239.518066	1436.494507	1262.328979	11.580528
857.403931	1238.254883	1426.760742	1258.316528	10.642452
857.703308	1238.254883	1439.243652	1252.372437	7.024051
858.002563	1240.484009	1444.667603	1239.220825	-0.618651
858.301819	1248.137085	1446.525391	1242.935913	-2.621713
858.601013	1258.539429	1443.776001	1248.731567	-5.294776
858.900208	1256.607544	1437.980469	1256.904907	0.163951
859.199219	1257.647827	1439.169312	1259.653931	1.105160
859.498291	1244.570679	1439.317871	1254.749878	5.226879
859.797302	1247.765747	1445.187866	1254.601318	3.462414
860.096191	1242.118652	1438.352173	1245.610718	1.779546
860.395020	1249.251587	1430.030151	1249.846069	0.328846
860.693787	1247.319824	1424.160278	1250.737793	1.932798
860.992554	1247.765625	1427.875366	1257.796509	5.569318
861.291260	1246.948242	1433.819702	1253.932739	3.737594
861.589844	1248.062866	1435.900024	1252.149536	2.175645
861.888428	1246.874023	1436.643188	1248.285767	0.743927
862.186890	1252.075195	1429.658691	1245.685059	-3.598384
862.485413	1247.914185	1427.206665	1242.118530	-3.232514
862.783813	1249.474487	1420.667969	1237.437500	-7.031218
863.082153	1244.273315	1428.841309	1247.616943	1.811597
863.380371	1245.759399	1432.705078	1252.892456	3.815577
863.678589	1247.839844	1439.986694	1261.288696	6.999258
863.976746	1254.378540	1432.259277	1250.143433	-2.380869
864.274902	1252.446655	1428.618530	1247.245483	-2.952328
864.572937	1252.149414	1419.702148	1244.347656	-4.656300
864.870911	1244.867798	1425.720703	1256.310303	6.326968
865.168884	1242.267212	1416.804199	1256.384644	8.088504
865.466736	1240.038208	1431.070435	1253.189575	6.884371
865.764587	1241.226929	1427.503906	1244.347534	1.675250
866.062317	1244.570679	1441.398438	1247.988403	1.736404
866.360107	1242.192871	1433.150879	1252.372437	5.330787
866.657715	1241.895630	1424.977539	1253.932739	6.574713
866.955322	1241.895630	1413.832153	1251.480835	5.574851
867.252808	1247.394165	1412.048950	1250.737671	2.030616
867.550293	1249.920410	1420.222290	1249.548828	-0.218190
867.847717	1254.081299	1424.457520	1249.920410	-2.442177
868.145081	1248.954468	1434.414063	1248.285767	-0.360564
868.442383	1245.462158	1432.407837	1250.812012	2.861716
868.739624	1247.096802	1434.711304	1245.239258	-0.990085
869.036804	1247.245605	1421.113892	1239.889526	-4.230834
869.333984	1254.229980	1423.194336	1239.666626	-8.619187
869.631042	1246.279541	1416.581421	1240.112427	-3.621284
869.928101	1248.954346	1421.188110	1241.524170	-4.314006
870.224976	1247.022461	1418.215942	1236.174316	-6.336774
870.521851	1248.954468	1432.705078	1251.406372	1.334365
870.818726	1239.517944	1433.671021	1251.332031	6.084934
871.115479	1238.700684	1439.169556	1255.344482	8.302436
871.412231	1246.725342	1431.293335	1246.205200	-0.281816
871.708862	1257.647827	1433.002319	1249.548950	-4.618574
872.005493	1250.960571	1427.652466	1246.576782	-2.481036
872.302063	1239.443726	1430.550171	1250.291870	5.676493
872.598572	1239.517944	1431.590454	1252.520996	6.769866
872.895020	1239.963745	1440.432617	1252.892456	6.449236
873.191406	1245.239258	1437.980469	1242.415894	-1.464847
873.487671	1241.152588	1442.884644	1243.307495	1.068203
873.783997	1243.381714	1446.525391	1243.456055	0.036595
874.080200	1243.233032	1454.327148	1250.143433	3.273611
874.376343	1247.839966	1453.732788	1242.638794	-2.526155
874.672424	1246.874023	1453.286987	1241.970093	-2.375786
874.968445	1255.418823	1453.212524	1244.719238	-5.409467
875.264465	1258.316528	1452.320923	1256.161743	-1.110689
875.560364	1261.883179	1448.382935	1263.666382	0.956142
875.856201	1255.344360	1447.714355	1259.579712	2.201669
876.152039	1249.994507	1448.160156	1260.768433	5.436828
876.447754	1249.623169	1445.782349	1260.768555	5.681807
876.743469	1252.372314	1445.113647	1259.653931	3.777921
877.039063	1248.731445	1446.302612	1259.133911	5.265174
877.334595	1248.062866	1445.262329	1258.019409	5.048971
877.630127	1245.164917	1446.302368	1259.282593	7.018919
877.925537	1249.920288	1445.113647	1249.697510	-0.114132
878.221008	1247.022583	1453.212524	1239.295044	-3.747777
878.516296	1247.542603	1452.246704	1244.050415	-1.705968
878.811646	1244.719116	1463.391968	1253.041016	3.805639
879.106812	1253.189819	1472.754272	1267.455688	6.497349
879.401978	1245.833618	1486.425781	1264.037842	7.566424
879.697083	1249.400269	1500.171875	1265.152466	6.281492
879.992126	1249.920288	1517.410156	1258.167847	3.083316
880.287109	1252.892578	1547.279785	1256.533325	1.236721
880.582031	1251.555176	1596.319702	1257.053345	1.594761
880.876892	1249.548950	1696.851196	1260.545776	2.458478
881.171753	1246.502563	1865.443970	1269.164795	3.661450
881.466492	1246.279541	2104.475830	1269.016235	2.649358
881.761230	1237.511841	2368.324951	1285.808716	4.270987
882.055786	1241.895630	2630.241943	1290.192505	3.478734
882.350403	1236.545898	2832.494141	1294.873535	3.654732
882.644958	1234.093872	2941.570313	1282.464844	2.832892
882.939453	1238.923584	2960.443359	1282.762085	2.546500
883.233826	1243.010254	2910.957764	1281.276123	2.294189
883.528137	1249.623047	2845.199463	1285.734253	2.263208
883.822449	1248.805786	2756.333740	1279.790161	2.055310
884.116577	1253.263916	2648.520508	1273.177124	1.427208
884.410828	1256.904785	2509.722900	1263.666382	0.539711
884.704956	1248.657104	2343.804932	1255.567505	0.631002
884.999023	1246.651001	2170.382324	1255.270264	0.933092
885.292969	1248.359985	2013.603882	1255.195923	0.893302
885.586914	1256.310303	1884.762817	1260.471313	0.662104
885.880798	1256.235962	1794.187866	1257.202026	0.179582
886.174622	1251.480713	1726.052246	1262.031616	2.223248
886.468384	1249.846069	1678.498413	1253.486938	0.849376
886.762085	1245.387939	1639.638062	1251.777954	1.620802
887.055664	1241.375610	1606.424805	1244.050415	0.732724
887.349304	1236.025757	1582.425171	1247.988403	3.453426
887.642822	1238.477783	1552.555298	1255.418823	5.393904
887.936340	1240.558228	1536.877563	1257.127808	5.591798
888.229736	1253.412598	1520.679565	1254.972900	0.583799
888.523071	1255.047241	1512.952026	1256.904785	0.720244
888.816284	1263.963745	1508.419556	1261.140015	-1.155109
889.109619	1254.081421	1496.531128	1269.907715	6.527660
889.402710	1255.715942	1490.438354	1264.557861	3.766968
889.695862	1248.731567	1474.166016	1262.403198	6.064570
889.988892	1245.090698	1469.856445	1248.582886	1.553701
890.281921	1234.242554	1466.289917	1229.561401	-2.017326
>>>>>End Processed Spectral Data<<<<<
