Jaz Data File
++++++++++++++++++++++++++++++++++++
Date: Fri Jun 04 16:41:02 2021
User: jaz
Dark Spectrum Present: Yes
Reference Spectrum Present: Yes
Processed Spectrum Present: Yes
Spectrometers: JAZA3586
Integration Time (usec): 24400 (JAZA3586)
Spectra Averaged: 10 (JAZA3586)
Boxcar Smoothing: 1 (JAZA3586)
Correct for Electrical Dark: No (JAZA3586)
Strobe/Lamp Enabled: Yes (JAZA3586)
Correct for Detector Non-linearity: No (JAZA3586)
Correct for Stray Light: No (JAZA3586)
Number of Pixels in Processed Spectrum: 2048
>>>>>Begin Processed Spectral Data<<<<<
W	D	R	S	P
191.335022	0.000000	0.000000	0.000000	0.000000
191.713211	234.499390	230.487045	232.047409	61.110920
192.091385	471.747955	472.490997	468.181488	-479.981934
192.469528	709.665283	712.117249	707.287598	-96.970604
192.847641	718.878906	723.559875	718.358704	-11.113139
193.225739	727.126465	723.336975	728.315247	-31.370497
193.603790	728.761047	731.584534	744.364746	552.639404
193.981842	720.587830	734.779602	751.200500	215.707169
194.359863	726.383362	741.689758	747.262451	136.407608
194.737854	739.237793	743.398682	737.603210	-39.284458
195.115829	760.636902	748.971436	738.197571	192.356918
195.493774	758.259277	751.200500	752.686584	78.947006
195.871704	756.401672	756.847473	763.386230	1566.744263
196.249603	754.989929	757.219055	771.262207	729.984680
196.627457	752.909485	755.807312	761.751465	305.124481
197.005310	756.847473	745.702148	758.407898	-14.000712
197.383133	753.875427	743.695984	750.457520	33.576569
197.760910	758.036377	750.754700	757.441956	8.163248
198.138687	750.754700	751.794922	748.599915	-207.146622
198.516449	748.302673	750.828918	745.702148	-102.940323
198.894180	752.983704	749.863098	741.243958	376.200897
199.271866	760.191162	750.531799	740.055115	208.461441
199.649536	759.596741	749.417236	741.838379	174.452133
200.027191	750.234619	743.547363	739.014832	167.778656
200.404816	738.643372	742.581360	745.181946	166.038437
200.782410	736.488586	750.531799	746.519348	71.427826
201.159988	741.169617	762.494568	747.336731	28.919710
201.537537	737.677429	777.429382	745.776367	20.373686
201.915070	738.866211	781.738953	738.420410	-1.039823
202.292557	733.665039	778.618164	732.401855	-2.810002
202.670029	742.209961	774.903076	735.225403	-21.364002
203.047485	743.324463	772.599670	738.048889	-18.020620
203.424911	736.191406	769.256104	746.073669	29.887657
203.802292	728.463867	765.615234	742.135559	36.799969
204.179688	718.432922	760.711243	740.723816	52.724171
204.557037	725.937500	768.587341	730.470032	10.627312
204.934357	733.590759	771.782410	728.092285	-14.397058
205.311661	738.866272	775.720398	736.042725	-7.661415
205.688934	733.665039	769.924805	740.798157	19.672266
206.066177	727.052063	773.416992	737.528809	22.596272
206.443390	723.485657	770.221985	722.296692	-2.543984
206.820587	725.789001	765.392334	729.355530	9.005627
207.197769	721.256531	758.482178	735.076843	37.125782
207.574921	725.194580	762.345886	740.723816	41.799973
207.952042	722.222473	765.169434	729.578430	17.128004
208.329147	726.383362	765.838135	719.250305	-18.079071
208.706223	732.327637	776.463379	722.965515	-21.212109
209.083267	738.048889	783.522156	733.219238	-10.620857
209.460297	737.677429	787.237305	744.438965	13.643166
209.837280	731.213074	773.491394	732.550537	3.163473
210.214264	723.114014	766.506836	726.234863	7.192087
210.591217	722.148132	763.163269	720.587830	-3.804212
210.968124	719.918945	761.305664	727.869446	19.210270
211.345016	726.606262	768.290039	731.584534	11.942947
211.721893	729.132568	771.187927	739.683594	25.088421
212.098724	733.590759	773.417053	743.175781	24.067070
212.475555	738.717590	767.472839	746.147949	25.840010
212.852356	736.191345	760.859863	741.095398	19.879803
213.229126	734.482361	763.980530	736.340027	6.297564
213.605865	733.887939	763.906250	734.185242	0.990403
213.982590	737.603088	767.324219	732.847717	-15.999968
214.359283	740.278015	762.940369	736.637207	-16.065445
214.735931	731.436035	761.157043	732.401917	3.249827
215.112579	738.866211	756.996155	734.854004	-22.130278
215.489197	730.024231	761.454346	728.315247	-5.437410
215.865799	734.556702	765.838196	725.714661	-28.266045
216.242355	732.699158	772.674072	720.959229	-29.368240
216.618896	747.262451	774.977356	726.309082	-75.603249
216.995407	747.633972	778.172424	721.256531	-86.374519
217.371902	740.129395	773.491394	719.473328	-61.914955
217.748367	725.417419	761.157043	718.507324	-19.334549
218.124802	717.764221	758.036377	719.473206	4.243588
218.501236	719.027405	760.562683	721.405090	5.724496
218.877609	725.343201	771.782410	722.296692	-6.560208
219.253983	732.253357	769.479004	723.931458	-22.355286
219.630295	735.596924	766.729736	728.389648	-23.150095
220.006592	733.293518	766.283997	730.321472	-9.008799
220.382889	732.104675	764.352051	730.693054	-4.377476
220.759140	724.971619	766.729797	731.138855	14.768930
221.135391	724.005676	766.804016	727.943787	9.201550
221.511581	723.634094	768.513000	728.909668	11.755130
221.887772	725.937561	770.816406	729.875671	8.774981
222.263931	727.646545	772.228210	738.049011	23.333508
222.640060	727.795166	778.395325	743.324463	30.690214
223.016159	729.281189	776.909241	738.791992	19.968910
223.392212	730.767273	778.692566	724.600098	-12.868310
223.768265	733.665039	779.584167	717.615723	-34.951263
224.144302	734.556824	776.983582	713.677673	-49.212223
224.520294	735.745605	769.404724	721.033691	-43.708553
224.896286	734.853943	759.893860	725.120300	-38.872505
225.272217	743.250061	763.014648	725.343262	-90.600418
225.648148	744.216064	760.859863	729.281250	-89.732002
226.024048	745.702148	766.729736	728.538269	-81.625526
226.399902	734.036560	765.392334	738.123230	13.033229
226.775772	729.132568	763.683350	736.785828	22.150757
227.151581	726.680603	758.630798	746.593750	62.325588
227.527374	734.333740	762.717468	742.655701	29.319477
227.903137	738.569031	770.816345	736.637207	-5.990650
228.278870	743.695984	773.119812	729.206970	-49.242451
228.654572	737.082947	774.085693	728.315247	-23.694729
229.030273	736.637207	775.348877	736.191406	-1.151593
229.405930	729.132629	775.423157	734.185242	10.915003
229.781555	729.578430	777.206482	732.624817	6.396203
230.157181	725.640381	776.686340	726.829285	2.329085
230.532761	727.795166	776.463562	727.349304	-0.916122
230.908325	735.374023	771.187988	730.618652	-13.277980
231.283859	740.278015	769.404724	733.590759	-22.959188
231.659332	741.021057	776.017578	736.042725	-14.225222
232.034821	731.361633	777.577942	728.835388	-5.466134
232.410263	717.987122	777.949463	727.720886	16.233130
232.785690	713.528992	770.147766	725.714661	21.522312
233.161087	716.649719	770.296387	729.949890	24.792166
233.536469	722.593994	765.763855	728.835388	14.457758
233.911804	720.810730	768.141602	726.606262	12.244719
234.287140	720.141907	763.609070	723.782776	8.376137
234.662430	724.154297	770.370605	726.532043	5.144822
235.037704	727.497864	767.472839	728.538147	2.602336
235.412933	727.795166	770.519226	729.578430	4.173911
235.788162	722.222412	771.782410	721.479431	-1.499155
236.163345	726.532043	773.045471	727.497986	2.076696
236.538513	732.253357	775.943359	732.624817	0.850217
236.913635	730.767273	777.726563	740.872498	21.519117
237.288742	730.024231	781.813232	733.590820	6.886770
237.663834	727.423645	790.135071	732.179016	7.582942
238.038879	732.476257	792.810059	730.098450	-3.941087
238.413910	728.612488	794.890442	728.984070	0.560642
238.788910	725.714661	793.404480	726.234863	0.768509
239.163879	725.194519	788.351868	728.166687	4.705973
239.538834	723.708496	781.813232	724.971680	2.173977
239.913757	726.680603	776.983582	730.024231	6.646978
240.288651	728.389587	774.011414	731.064453	5.863127
240.663528	729.281250	775.200256	734.556641	11.488468
241.038361	726.234863	768.736023	735.151123	20.978863
241.413177	728.463867	777.577942	733.367859	9.984900
241.787979	729.801331	781.441711	733.144958	6.474832
242.162735	725.714661	789.615051	731.213074	8.604663
242.537476	726.531982	785.008240	725.491760	-1.778880
242.912170	727.720886	793.553040	726.011902	-2.595972
243.286865	731.658936	796.525146	727.720886	-6.071033
243.661514	725.714661	806.927490	729.281250	4.391657
244.036148	725.789001	797.342468	727.275085	2.076886
244.410751	726.606262	796.153625	719.324707	-10.469923
244.785339	726.011902	791.175476	726.160461	0.227979
245.159882	720.885010	795.856445	737.454590	22.101191
245.534378	719.621887	795.707825	745.627869	34.179749
245.908890	722.816895	797.788330	741.020996	24.281384
246.283356	721.033630	808.042053	733.144958	13.919719
246.657791	726.160461	812.425964	729.727051	4.134433
247.032196	726.680603	819.856262	730.692932	4.306199
247.406586	728.835388	828.252441	736.414246	7.623297
247.780960	725.640381	836.722961	740.575195	13.444785
248.155289	723.039795	834.791016	743.473083	18.284622
248.529602	731.658875	821.193665	734.110840	2.738562
248.903870	733.665039	815.249451	730.841553	-3.460816
249.278122	736.934387	814.877930	729.875671	-9.056190
249.652344	732.922058	817.552734	735.299744	2.809484
250.026550	735.745544	813.317566	729.726990	-7.758667
250.400711	736.711426	805.738708	726.606262	-14.639377
250.774857	736.934387	804.401184	721.479309	-22.907681
251.148987	719.547546	800.537415	724.228577	5.779773
251.523071	713.008972	803.361023	728.315247	16.940704
251.897125	714.197754	804.772766	730.841614	18.375774
252.271164	728.984070	816.512512	727.275085	-1.952490
252.645187	735.448303	829.887024	721.850891	-14.398132
253.019165	732.996338	824.908875	719.547607	-14.632096
253.393112	729.875671	822.754089	729.132629	-0.800016
253.767044	727.572266	820.673523	730.692932	3.351906
254.140930	724.080017	825.057434	733.665100	9.492304
254.514801	730.470032	827.212219	732.401855	1.996878
254.888657	732.847717	817.998718	734.705322	2.181542
255.262466	735.522644	818.518799	733.442200	-2.506675
255.636276	730.470032	811.831543	727.052185	-4.200815
256.010010	729.429871	818.295898	727.720886	-1.923102
256.383759	731.881836	818.890320	731.138855	-0.853918
256.757446	730.024231	831.075989	731.807556	1.764764
257.131134	731.213074	834.419617	726.086182	-4.967604
257.504791	726.829285	839.695068	728.315247	1.316574
257.878418	726.457703	843.038757	728.761047	1.975745
258.252014	718.061462	845.862122	732.922058	11.627949
258.625580	726.680664	856.115906	732.996338	4.879408
258.999115	732.699219	861.242859	728.909668	-2.948066
259.372650	727.943787	875.583252	727.869446	-0.050353
259.746124	723.039795	894.307556	723.559875	0.303665
260.119598	719.547546	918.084412	729.132629	4.827860
260.493042	727.572266	938.889160	727.275085	-0.140632
260.866425	732.996399	945.502136	732.104736	-0.419595
261.239838	730.395691	941.935547	728.166687	-1.053704
261.613159	735.596924	924.994629	727.497986	-4.276154
261.986511	724.674500	906.195984	729.355530	2.578775
262.359802	728.538269	900.177490	734.408142	3.419890
262.733063	729.132629	894.976257	733.367920	2.553786
263.106293	738.049011	898.394226	719.919006	-11.306857
263.479523	733.813660	890.072266	723.411316	-6.657133
263.852692	727.349304	887.025879	729.727051	1.489102
264.225861	725.343201	886.951660	734.928223	5.931015
264.598969	719.101746	889.552246	730.395752	6.625974
264.972076	714.049133	889.403625	729.058350	8.559357
265.345154	717.095520	888.660461	726.903503	5.716776
265.718201	725.640381	892.747131	728.538147	1.734081
266.091217	737.603210	907.459167	730.172852	-4.374506
266.464203	730.024231	918.901672	736.191345	3.265141
266.837158	727.349304	937.923279	736.265625	4.234294
267.210114	719.696106	945.725098	729.281250	4.240670
267.583038	723.634277	954.269836	723.039734	-0.257785
267.955902	725.045959	952.635193	726.011902	0.424424
268.328766	730.618652	946.542419	729.727051	-0.412924
268.701569	730.098572	950.034668	731.361816	0.574369
269.074371	729.578430	953.526855	721.776672	-3.483730
269.447144	723.262695	974.331543	722.593933	-0.266366
269.819885	728.538269	980.721619	721.627930	-2.740204
270.192596	727.943848	993.501648	726.457703	-0.559631
270.565277	738.271790	993.724609	726.680664	-4.537482
270.937927	733.590820	1008.362244	726.680664	-2.514874
271.310577	731.510254	1033.476563	728.835266	-0.885856
271.683136	723.857117	1066.689819	727.720764	1.126978
272.055725	724.377197	1092.844360	735.299744	2.964320
272.428284	727.349365	1101.314941	730.321472	0.794754
272.800812	741.095276	1098.565796	722.593933	-5.175628
273.173279	749.268555	1089.500854	724.748718	-7.206793
273.545776	752.240723	1071.519531	733.219238	-5.957641
273.918152	745.999329	1069.141846	739.237793	-2.092432
274.290558	734.779602	1064.757935	730.321472	-1.351037
274.662964	735.448425	1064.015015	722.296814	-4.002723
275.035278	731.956055	1059.705444	719.324646	-3.853984
275.407593	731.584656	1058.145142	720.364929	-3.435727
275.779907	728.686768	1068.844727	721.553711	-2.096984
276.152161	731.584656	1076.274902	724.377197	-2.090996
276.524384	739.832214	1099.085815	728.240967	-3.226480
276.896606	730.990234	1109.339722	727.572266	-0.903389
277.268799	735.076843	1120.039185	731.956055	-0.810674
277.640930	724.525818	1125.017456	729.578369	1.261587
278.013031	730.618652	1133.339355	731.213074	0.147601
278.385162	724.154297	1138.911987	728.018066	0.931573
278.757233	727.126465	1140.992554	732.996338	1.418303
279.129272	729.281250	1146.119507	733.739441	1.069525
279.501282	732.253235	1151.617798	731.436035	-0.194866
279.873230	734.408020	1158.230835	725.789001	-2.033637
280.245178	737.751709	1179.258423	729.281250	-1.918535
280.617126	732.476257	1204.595703	730.692932	-0.377728
280.988983	727.869446	1222.874146	726.011902	-0.375258
281.360870	725.789001	1242.861694	727.943787	0.416728
281.732697	726.754883	1269.313354	731.510254	0.876472
282.104492	730.990234	1301.486450	737.231628	1.094029
282.476288	726.680664	1324.817505	727.720886	0.173910
282.848053	729.058289	1334.848511	717.689941	-1.876614
283.219757	730.915833	1337.151733	714.049133	-2.782201
283.591461	730.024231	1331.579102	715.609436	-2.396256
283.963135	730.098633	1329.498535	716.872620	-2.206542
284.334747	729.801331	1336.334351	720.067688	-1.604800
284.706360	736.414307	1349.040161	717.615723	-3.068526
285.077942	730.767273	1372.371094	720.216309	-1.644467
285.449524	732.401855	1395.182251	718.953125	-2.029138
285.821014	731.361633	1417.101563	725.937683	-0.790963
286.192535	742.135559	1439.912476	729.727051	-1.778292
286.563995	742.432800	1468.370483	731.064453	-1.566023
286.935425	738.123230	1486.128784	724.748718	-1.788023
287.306824	728.166687	1493.261719	726.829163	-0.174818
287.678223	729.801270	1479.218750	725.640320	-0.555225
288.049561	734.631042	1464.803833	725.417480	-1.261833
288.420898	735.745544	1444.147827	718.433044	-2.443880
288.792145	731.287354	1436.940308	727.943787	-0.473826
289.163452	728.909668	1443.033203	736.785828	1.102913
289.534668	729.355469	1470.302246	742.952942	1.835148
289.905914	721.702332	1494.376343	725.789063	0.528908
290.277039	722.519714	1528.332642	727.200684	0.580900
290.648193	724.748718	1561.917603	728.538147	0.452648
291.019318	729.875671	1598.102905	733.590820	0.427901
291.390381	732.773438	1625.372070	726.086243	-0.749183
291.761475	734.110840	1621.359741	724.005676	-1.138932
292.132507	734.408020	1616.975952	731.658936	-0.311487
292.503510	733.962219	1595.205078	730.915833	-0.353720
292.874481	731.584656	1584.059570	733.962219	0.278901
293.245422	731.807556	1578.264160	724.748779	-0.833921
293.616364	731.064453	1598.697266	726.160461	-0.565215
293.987213	733.813660	1638.598022	712.860352	-2.315835
294.358093	734.110840	1685.111450	717.021301	-1.797006
294.728943	737.751770	1731.625000	715.386536	-2.250311
295.099731	735.894226	1773.308716	722.891174	-1.253409
295.470490	736.265686	1805.184692	727.720886	-0.799387
295.841248	728.166687	1834.014038	728.835449	0.060475
296.211975	726.903564	1849.320313	735.819824	0.794380
296.582642	725.566101	1885.134277	731.435974	0.506212
296.953308	725.789001	1923.177368	731.138855	0.446793
297.323883	724.525818	1980.464844	723.634216	-0.070991
297.694519	727.497864	2006.842163	727.274963	-0.017423
298.065063	731.138855	2010.260132	723.782776	-0.575088
298.435608	725.714661	1982.545288	737.008606	0.898605
298.806122	722.073792	1934.545776	737.603088	1.280796
299.176575	720.587830	1872.131348	740.649475	1.742153
299.547028	730.990173	1821.977173	726.754883	-0.388207
299.917450	738.197571	1796.862915	726.160461	-1.137008
300.287872	743.101501	1790.249878	726.606262	-1.575253
300.658234	743.993164	1794.187866	732.030457	-1.139094
301.028564	741.987000	1788.466431	731.956055	-0.958542
301.398865	732.773438	1784.379883	733.590637	0.077710
301.769135	727.126465	1780.738892	734.631042	0.712271
302.139374	720.513489	1796.119751	735.151123	1.360873
302.509583	721.628113	1804.813110	746.742371	2.318557
302.879791	721.182190	1803.847046	743.547363	2.065752
303.249939	724.600098	1795.599487	741.763977	1.602604
303.620087	729.281250	1791.290039	735.299744	0.566708
303.990173	730.544434	1784.528320	739.980774	0.895302
304.360260	730.841553	1781.407837	735.225403	0.417284
304.730286	731.436035	1792.924683	732.030334	0.055987
305.100281	731.287354	1797.085571	732.030334	0.069711
305.470276	724.228699	1808.305298	735.522644	1.041803
305.840179	721.330811	1806.967773	732.847656	1.060838
306.210144	719.993408	1822.794312	731.287354	1.024115
306.579987	721.107910	1825.023438	723.634216	0.228850
306.949890	724.377197	1833.568237	719.621826	-0.428724
307.319702	727.572266	1849.097534	723.931458	-0.324630
307.689484	732.327637	1863.214966	729.355530	-0.262812
308.059265	735.299805	1895.388062	733.145020	-0.185743
308.429016	732.922058	1931.202026	724.377258	-0.713089
308.798737	735.374023	1983.808228	723.559875	-0.946317
309.168396	735.448425	2034.928589	724.154297	-0.869127
309.538055	745.479187	2072.674316	722.296692	-1.746729
309.907684	746.593750	2098.531738	720.067688	-1.962077
310.277313	743.175781	2109.825928	715.832336	-2.000764
310.646851	737.305908	2119.336426	716.203918	-1.526883
311.016388	741.243958	2140.364014	719.547546	-1.550718
311.385895	742.952881	2152.921387	717.541321	-1.802279
311.755371	740.129395	2169.416748	716.426819	-1.658349
312.124817	735.819824	2172.908691	720.587830	-1.059920
312.494232	737.677429	2166.295654	726.829285	-0.759345
312.863617	738.643372	2155.596436	733.962341	-0.330359
313.232971	736.934326	2137.094971	730.098450	-0.488221
313.602295	735.968445	2120.005127	733.442200	-0.182527
313.971619	736.637146	2119.559326	733.219238	-0.247151
314.340820	734.928223	2130.853271	738.197571	0.234207
314.710083	734.630920	2162.952148	734.110901	-0.036408
315.079285	731.807434	2183.682617	725.343201	-0.445233
315.448486	740.946716	2216.227295	720.885010	-1.359857
315.817596	736.785828	2222.171631	716.798340	-1.345609
316.186707	740.203674	2197.651611	717.467102	-1.560026
316.555786	727.349365	2144.673828	720.810730	-0.461337
316.924866	723.485657	2101.355225	724.451477	0.070095
317.293884	723.559875	2087.386230	731.510254	0.582946
317.662872	731.213074	2094.667969	730.395752	-0.059945
318.031830	728.240967	2108.339600	724.822998	-0.247661
318.400757	717.764221	2123.720459	724.748779	0.496783
318.769684	715.609436	2125.726318	725.937683	0.732439
319.138550	726.680603	2136.723145	735.819824	0.648152
319.507416	732.179016	2155.744873	733.516541	0.093956
319.876190	729.206848	2180.784668	729.652649	0.030711
320.244995	732.030457	2195.645264	729.429871	-0.177682
320.613770	736.042786	2178.406982	732.030457	-0.278177
320.982483	738.048889	2154.035889	732.030334	-0.425043
321.351166	735.894104	2129.590088	730.321472	-0.399846
321.719818	732.699036	2111.980469	731.435974	-0.091574
322.088440	739.089172	2110.865967	726.011902	-0.953309
322.457062	736.934326	2133.974121	722.371094	-1.042435
322.825623	745.776367	2173.726318	714.792175	-2.169837
323.194183	742.878662	2219.570801	720.810730	-1.494417
323.562653	741.169617	2257.390869	721.107910	-1.323138
323.931183	725.120300	2316.015625	730.544373	0.340945
324.299591	722.742493	2378.950195	730.767273	0.484527
324.668060	721.405090	2428.733154	735.894226	0.848644
325.036407	732.179016	2472.051514	727.498047	-0.269041
325.404755	733.070618	2497.686279	728.686829	-0.248427
325.773102	739.014832	2510.243408	727.349304	-0.658612
326.141388	734.110840	2511.580811	728.389587	-0.321876
326.509674	727.200745	2518.862305	721.479431	-0.319330
326.877899	714.346375	2542.787842	719.621826	0.288522
327.246124	716.798340	2556.905273	719.696106	0.157478
327.614288	723.559875	2559.580322	723.114014	-0.024284
327.982422	726.680664	2549.549316	730.395752	0.203804
328.350525	725.714661	2538.032471	734.408020	0.479682
328.718628	725.491699	2519.308105	730.692932	0.289953
329.086700	726.086121	2525.029541	724.525879	-0.086731
329.454712	728.835388	2528.595947	722.222473	-0.367433
329.822693	730.098572	2546.205811	736.860107	0.372309
330.190674	735.522644	2549.400879	735.819885	0.016387
330.558563	737.751709	2569.388184	742.135559	0.239341
330.926483	730.098572	2591.604736	728.166687	-0.103781
331.294312	730.990234	2616.347656	721.182190	-0.520222
331.662231	719.993408	2642.873779	719.919006	-0.003869
332.029999	720.959290	2683.071533	730.024231	0.461999
332.397766	719.398926	2720.148438	736.117004	0.835591
332.765503	733.070618	2761.014893	732.624939	-0.021977
333.133240	736.934387	2814.215576	729.504089	-0.357693
333.500916	734.185242	2870.016846	731.733215	-0.114804
333.868561	722.519714	2911.552002	735.002502	0.570242
334.236176	720.959290	2927.675781	737.380188	0.744133
334.603790	724.303040	2929.533203	739.089172	0.670503
334.971344	725.491882	2922.326172	741.021057	0.706889
335.338867	728.241028	2903.527588	740.278015	0.553352
335.706360	725.045898	2914.821289	739.163513	0.644706
336.073853	730.618652	2927.452881	738.494812	0.358523
336.441284	729.652649	2955.687744	740.129395	0.470646
336.808655	735.151123	2928.567383	740.203674	0.230351
337.176086	729.652771	2896.468750	739.980774	0.476644
337.543396	732.550598	2813.175049	737.083008	0.217839
337.910706	728.761169	2760.643311	737.454529	0.427848
338.277954	729.281250	2758.934326	736.488525	0.355099
338.645264	727.795166	2842.153564	736.339905	0.404129
339.012421	724.674377	2966.833252	736.265625	0.516968
339.379669	730.024170	3088.318359	734.705261	0.198495
339.746796	724.302917	3185.506104	736.711426	0.504164
340.113953	725.045898	3246.434326	732.401917	0.291745
340.481018	721.999512	3265.381592	732.104675	0.397312
340.848114	722.148132	3265.901611	724.005676	0.073024
341.215118	725.194580	3261.889404	730.024231	0.190391
341.582153	722.742615	3272.440430	728.241028	0.215650
341.949066	726.309082	3286.929688	734.928223	0.336604
342.316010	721.479492	3309.666016	730.247070	0.338754
342.682922	720.662109	3328.836182	725.343079	0.179473
343.049835	721.182190	3350.904297	728.538269	0.279728
343.416656	730.767273	3397.789063	733.739441	0.111441
343.783478	733.144836	3471.794678	739.757874	0.241471
344.150269	736.860107	3573.589111	735.151123	-0.060245
344.516998	741.912659	3676.647217	731.807434	-0.344332
344.883728	743.175781	3771.606201	724.005798	-0.633001
345.250427	739.089172	3847.468994	721.702332	-0.559354
345.617065	728.835449	3889.673096	722.445313	-0.202166
345.983704	730.915833	3904.979492	722.519714	-0.264523
346.350281	733.367859	3885.586670	724.154297	-0.292288
346.716827	733.219238	3844.943115	722.519714	-0.343846
347.083405	727.943665	3800.806885	731.361633	0.111231
347.449860	729.949951	3745.154297	735.968445	0.199605
347.816376	730.470032	3707.185547	737.380188	0.232140
348.182770	734.036621	3664.981689	734.853943	0.027886
348.549194	726.754883	3649.526611	727.274963	0.017794
348.915558	718.730225	3655.545654	723.857117	0.174573
349.281921	722.593994	3669.588623	725.120300	0.085725
349.648193	723.039795	3713.129883	729.355530	0.211222
350.014526	729.058289	3755.036377	728.538147	-0.017189
350.380737	730.395691	3807.345703	723.411316	-0.226990
350.746948	730.767273	3866.565186	722.222351	-0.272496
351.113159	730.247131	3919.023193	721.850891	-0.263306
351.479309	721.182190	3951.641846	722.891113	0.052900
351.845428	723.039795	3969.028564	723.485596	0.013734
352.211517	723.336975	3983.666016	723.485535	0.004557
352.577576	720.513489	4022.006592	726.086182	0.168793
352.943604	721.925293	4068.296875	722.445313	0.015540
353.309601	728.612488	4138.215332	727.274963	-0.039228
353.675537	737.900391	4221.062988	729.058289	-0.253853
354.041473	733.070618	4319.514160	736.785828	0.103590
354.407379	728.018066	4432.975098	729.875671	0.050138
354.773254	727.720886	4540.639648	732.030457	0.113025
355.139038	735.968445	4626.310547	726.234802	-0.250200
355.504913	737.528809	4706.483398	728.018066	-0.239628
355.870636	731.361633	4801.962402	719.473206	-0.292056
356.236389	725.863281	4909.478516	718.135803	-0.184708
356.602081	730.098572	5044.708984	717.764343	-0.285871
356.967804	738.791992	5162.924316	719.919128	-0.426589
357.333405	739.757874	5299.121094	727.349365	-0.272154
357.699036	735.225403	5421.275391	729.206970	-0.128433
358.064606	731.658875	5574.785156	729.801331	-0.038354
358.430176	735.448242	5697.978516	726.457703	-0.181168
358.795654	734.630920	5749.470215	728.761047	-0.117050
359.161163	737.751709	5740.256348	724.897278	-0.256960
359.526581	742.358459	5718.411621	725.937683	-0.329996
359.892029	747.262512	5737.730469	724.451477	-0.457092
360.257416	740.872375	5821.767090	731.436035	-0.185722
360.622772	729.801331	5995.263672	727.200684	-0.049391
360.988098	722.148132	6238.902344	727.646484	0.099666
361.353394	720.067688	6525.413574	726.457703	0.110071
361.718658	727.720886	6799.665527	732.327637	0.075869
362.083893	733.962341	7043.154785	731.361755	-0.041219
362.449097	740.872498	7184.255859	723.634277	-0.267534
362.814209	739.163574	7190.571777	719.398926	-0.306362
363.179382	739.683594	7001.619629	722.371094	-0.276472
363.544434	738.643372	6697.721191	727.795166	-0.182045
363.909546	737.751709	6319.669434	732.922058	-0.086523
364.274536	734.853943	6016.068359	733.442139	-0.026733
364.639587	737.825928	5793.457520	735.894104	-0.038211
365.004517	735.151062	5679.997559	735.522644	0.007515
365.369507	737.157227	5614.610840	731.584656	-0.114252
365.734344	722.445313	5570.326660	734.110840	0.240631
366.099274	724.377258	5523.664063	735.299744	0.227586
366.464081	727.052063	5495.280762	736.340027	0.194789
366.828918	738.420410	5496.171875	741.689758	0.068716
367.193665	742.135559	5501.076660	736.414246	-0.120222
367.558411	734.408142	5515.416504	739.609314	0.108788
367.923126	735.745605	5509.695313	733.293518	-0.051364
368.287781	733.367859	5507.688965	734.110840	0.015562
368.652435	734.853943	5481.609375	737.231506	0.050088
369.017059	738.791931	5450.996094	737.008728	-0.037842
369.381653	738.717590	5422.761230	739.534973	0.017450
369.746185	744.736145	5397.646484	733.665039	-0.237939
370.110687	738.717590	5404.259766	738.197510	-0.011147
370.475220	738.717712	5452.259277	737.305908	-0.029952
370.839661	733.293640	5522.772949	735.448303	0.044987
371.204041	733.293640	5595.515137	726.011902	-0.149762
371.568451	740.203674	5641.730957	720.290588	-0.406263
371.932770	737.380188	5695.229004	719.324707	-0.364180
372.297150	736.637207	5733.420410	724.080017	-0.251305
372.661377	733.219238	5775.921875	728.538086	-0.092830
373.025696	743.993164	5810.101563	734.185059	-0.193602
373.389862	738.048889	5812.701660	723.039734	-0.295767
373.754059	736.117004	5810.918457	719.027344	-0.336755
374.118225	719.250305	5810.695313	720.067688	0.016054
374.482361	727.869446	5840.714355	726.160461	-0.033425
374.846436	730.470032	5899.338379	727.869446	-0.050312
375.210510	738.643311	5979.808594	729.726990	-0.170121
375.574524	738.569031	6091.187988	729.652649	-0.166580
375.938538	735.299744	6240.239746	730.544373	-0.086384
376.302460	732.476257	6377.253906	727.423645	-0.089509
376.666412	732.699158	6556.545410	732.996338	0.005103
377.030304	730.098572	6702.253906	734.110840	0.067183
377.394196	733.442200	6865.645020	729.949951	-0.056949
377.757996	728.463867	6979.477051	730.767273	0.036849
378.121796	732.327637	7059.724121	722.222473	-0.159705
378.485565	734.631042	7080.454590	722.148193	-0.196710
378.849304	733.665100	7012.914063	728.166687	-0.087565
379.212982	727.423645	6873.521973	735.225403	0.126938
379.576630	724.897278	6708.867188	737.900391	0.217299
379.940277	725.120300	6588.496094	728.835449	0.063362
380.303864	723.782898	6498.812988	729.429871	0.097783
380.667450	725.714661	6465.673828	729.355469	0.063429
381.030945	721.925293	6455.865723	735.522644	0.237138
381.394501	730.692932	6481.352051	733.813660	0.054267
381.757935	734.482422	6507.357910	736.265625	0.030889
382.121399	748.451355	6502.008301	729.429871	-0.330604
382.484741	746.816650	6533.289551	731.213074	-0.269656
382.848145	746.147949	6564.273926	724.228577	-0.376743
383.211487	745.925049	6652.991699	723.931335	-0.372329
383.574768	737.825989	6737.474121	725.640381	-0.203105
383.938019	731.807556	6834.810059	731.436035	-0.006088
384.301270	717.912903	6918.623535	734.036621	0.260030
384.664459	725.417480	7009.049316	734.928223	0.151357
385.027649	728.835449	7067.600098	729.281189	0.007032
385.390778	739.683594	7133.878418	727.720886	-0.187087
385.753876	740.946716	7169.320801	726.829163	-0.219613
386.116943	741.541199	7209.221191	733.887939	-0.118331
386.479980	733.219238	7219.400879	727.720886	-0.084770
386.842987	723.485596	7277.283203	719.844788	-0.055553
387.205994	719.696106	7321.344238	718.135742	-0.023636
387.568909	725.194519	7385.542480	736.265625	0.166224
387.931793	723.039734	7404.191895	747.485352	0.365889
388.294678	722.816895	7452.042969	750.011658	0.404129
388.657471	721.256531	7490.457031	740.352295	0.282098
389.020294	730.172852	7509.851074	733.813660	0.053702
389.383057	731.807434	7521.812988	727.126465	-0.068939
389.745819	731.584534	7523.001953	728.538269	-0.044855
390.108521	728.240967	7537.490723	725.788879	-0.036011
390.471191	718.061523	7584.747559	730.321472	0.178542
390.833801	719.250305	7693.972656	724.154297	0.070311
391.196442	717.987244	7873.116699	725.937500	0.111113
391.558960	722.148193	8064.074219	723.114075	0.013156
391.921509	723.857117	8256.370117	722.816895	-0.013810
392.284027	725.491760	8436.777344	726.457703	0.012526
392.646484	732.699219	8552.616211	729.058350	-0.046559
393.008911	735.002502	8574.459961	728.984070	-0.076771
393.371307	730.693054	8509.444336	725.937683	-0.061133
393.733673	725.714661	8463.303711	718.210144	-0.096988
394.096008	719.250305	8405.717773	722.891113	0.047366
394.458344	729.281250	8420.801758	728.538147	-0.009661
394.820587	739.312073	8436.702148	736.562927	-0.035715
395.182831	744.513245	8500.379883	735.448303	-0.116879
395.545013	735.002502	8476.379883	727.943787	-0.091182
395.907196	731.436035	8379.489258	723.559875	-0.102983
396.269287	736.934387	8235.044922	724.005676	-0.172426
396.631409	737.305847	8102.117676	726.754944	-0.143261
396.993469	727.943787	7986.131348	723.114075	-0.066542
397.355530	714.494934	7893.178223	721.925293	0.103506
397.717499	717.689941	7879.432129	717.615662	-0.001037
398.079468	729.355469	7869.921387	723.411316	-0.083245
398.441376	730.395691	7870.962402	721.553711	-0.123827
398.803284	730.395752	7843.990234	726.829285	-0.050136
399.165131	723.485596	7857.364746	727.720886	0.059369
399.526978	725.491882	7883.741699	724.823059	-0.009343
399.888763	729.058289	7907.072754	723.188416	-0.081776
400.250519	726.829163	7913.908203	721.033630	-0.080638
400.612244	732.253357	7938.428223	727.349304	-0.068053
400.973938	734.779602	7947.419434	728.018066	-0.093746
401.335602	738.049011	7986.874512	722.891174	-0.209107
401.697205	731.733215	8039.257813	722.296692	-0.129134
402.058807	731.064514	8106.204590	729.504150	-0.021157
402.420349	727.423645	8202.425781	731.287415	0.051689
402.781860	726.309082	8297.310547	730.841553	0.059866
403.143341	719.919006	8426.299805	720.736389	0.010607
403.504822	725.343079	8575.797852	724.080078	-0.016088
403.866241	729.504089	8759.844727	718.730225	-0.134164
404.227631	735.819824	8919.818359	721.999512	-0.168870
404.588959	734.482422	9088.782227	722.891113	-0.138747
404.950287	736.414246	9231.666992	736.042786	-0.004373
405.311554	730.544434	9344.831055	742.061279	0.133695
405.672821	738.049011	9375.294922	743.918884	0.067960
406.034027	740.426575	9354.563477	737.231628	-0.037090
406.395203	744.067444	9267.778320	741.095398	-0.034868
406.756348	730.618652	9186.045898	740.203674	0.113359
407.117493	726.606262	9096.064453	734.779602	0.097657
407.478516	722.519714	9084.176758	718.878845	-0.043542
407.839600	725.343201	9093.018555	718.135803	-0.086134
408.200592	728.463928	9117.538086	720.067627	-0.100086
408.561554	725.789001	9092.126953	734.631042	0.105686
408.922485	725.045959	9102.380859	744.661865	0.234154
409.283417	725.343201	9112.336914	746.965271	0.257805
409.644257	727.200745	9221.413086	731.361633	0.048985
410.005096	729.504150	9339.331055	725.343079	-0.048329
410.365906	730.692932	9469.063477	728.092346	-0.029761
410.726715	735.968445	9561.868164	735.448425	-0.005892
411.087433	736.860046	9650.584961	737.454529	0.006669
411.448120	733.590759	9754.386719	730.247131	-0.037066
411.808807	728.538147	9780.094727	730.024231	0.016418
412.169434	732.104736	9714.114258	722.371094	-0.108368
412.530029	727.795166	9637.286133	730.098633	0.025854
412.890564	729.801331	9610.387695	731.658936	0.020918
413.251099	734.259460	9630.895508	733.516418	-0.008352
413.611572	739.386414	9660.765625	733.888000	-0.061632
413.972076	736.191406	9711.959961	731.658936	-0.050497
414.332489	726.903503	9755.500977	729.132629	0.024690
414.692871	723.336975	9881.816406	730.470032	0.077885
415.053223	733.887939	10009.914063	729.578430	-0.046459
415.413574	737.305908	10238.023438	728.315247	-0.094631
415.773834	741.912659	10403.496094	719.770508	-0.229177
416.134094	744.736145	10580.929688	716.946960	-0.282520
416.494263	738.940613	10710.291992	716.278259	-0.227275
416.854462	737.900391	10954.226563	723.782776	-0.138187
417.214630	728.240967	11207.079102	728.315247	0.000709
417.574738	731.436035	11493.145508	736.340027	0.045569
417.934784	730.395813	11763.235352	738.420471	0.072734
418.294861	732.922058	12116.916992	738.049011	0.045037
418.654846	731.436035	12549.655273	738.346191	0.058470
419.014832	733.070618	12967.385742	729.875671	-0.026115
419.374756	728.463867	13464.840820	727.795166	-0.005250
419.734680	734.110840	13974.929688	733.367859	-0.005611
420.094543	729.578430	14499.581055	744.810486	0.110618
420.454376	734.630920	14956.320313	745.256348	0.074713
420.814148	732.104675	15371.300781	738.717712	0.045173
421.173920	733.888000	15842.159180	724.897400	-0.059508
421.533691	736.637207	16279.429688	729.578430	-0.045415
421.893341	734.928223	16630.806641	735.299744	0.002337
422.253021	736.042786	16851.560547	741.912659	0.036424
422.612640	735.819824	16893.986328	741.541199	0.035409
422.972260	739.906494	16863.894531	740.649597	0.004609
423.331757	736.265625	16766.039063	744.513367	0.051453
423.691315	730.990173	16782.904297	744.364685	0.083320
424.050781	724.600159	16890.791016	738.420410	0.085489
424.410248	723.262695	17014.951172	733.219238	0.061114
424.769653	719.473328	17164.968750	731.287415	0.071838
425.128998	725.566101	17213.191406	732.476257	0.041911
425.488373	725.491760	17146.541016	729.058350	0.021720
425.847656	732.030457	16947.482422	726.011902	-0.037116
426.206940	727.943787	16749.169922	723.039795	-0.030609
426.566193	727.572266	16431.822266	723.188293	-0.027916
426.925385	722.296692	16107.714844	725.640320	0.021732
427.284576	730.544373	15609.218750	725.194519	-0.035957
427.643677	735.596985	15275.450195	721.553711	-0.096585
428.002777	740.649597	14929.942383	721.850891	-0.132485
428.361847	739.237793	14609.327148	727.497986	-0.084641
428.720856	735.596985	14301.936523	735.299744	-0.002191
429.079865	739.460693	14064.687500	736.785828	-0.020074
429.438812	731.881836	13915.637695	728.538269	-0.025361
429.797760	729.504089	13796.828125	729.504150	0.000000
430.156616	721.405090	13629.051758	726.977844	0.043174
430.515503	715.832336	13550.140625	733.442200	0.137209
430.874268	715.906677	13514.401367	728.240967	0.096373
431.233093	724.748718	13564.706055	731.733215	0.054397
431.591827	732.847717	13622.438477	724.674500	-0.063409
431.950562	738.569092	13654.461914	724.823059	-0.106427
432.309204	732.179016	13711.750000	723.559998	-0.066404
432.667877	731.361633	13791.105469	733.367859	0.015362
433.026459	733.962219	13928.194336	739.089172	0.038858
433.385010	742.135559	14052.575195	736.637207	-0.041309
433.743561	740.872375	14270.208008	738.866272	-0.014828
434.102051	733.219238	14407.296875	742.209900	0.065750
434.460510	729.727051	14588.668945	750.085938	0.146901
434.818939	731.138733	14607.617188	735.968445	0.034805
435.177338	725.566101	14635.851563	731.510254	0.042732
435.535675	721.256531	14537.475586	726.383362	0.037107
435.894012	721.107910	14508.200195	731.658875	0.076528
436.252289	731.881775	14550.999023	735.968506	0.029573
436.610535	728.389587	14576.113281	732.922058	0.032731
436.968719	729.652771	14675.976563	734.333801	0.033565
437.326935	726.309082	14755.331055	727.423645	0.007945
437.685028	732.550476	14895.020508	728.761047	-0.026757
438.043152	731.213074	14995.032227	722.891174	-0.058343
438.401215	727.795166	15188.442383	726.234802	-0.010790
438.759277	724.005676	15423.015625	727.275085	0.022242
439.117249	729.949890	15819.421875	731.658875	0.011326
439.475250	736.934387	16143.828125	728.463867	-0.054979
439.833130	740.575256	16532.058594	728.240967	-0.078107
440.191071	737.231628	16801.705078	722.073914	-0.094356
440.548889	745.033386	17086.580078	726.383484	-0.114126
440.906708	740.798096	17380.968750	727.572266	-0.079481
441.264496	742.878601	17580.767578	734.408142	-0.050306
441.622223	730.172852	17761.248047	731.881836	0.010035
441.979950	732.476257	17829.308594	733.739441	0.007388
442.337616	728.761047	17830.794922	743.324463	0.085156
442.695251	722.742493	17711.763672	742.135559	0.114151
443.052887	723.708496	17502.451172	739.386414	0.093439
443.410461	723.559875	17338.912109	735.745544	0.073340
443.768005	738.569092	17182.058594	732.401917	-0.037505
444.125458	737.305847	17098.617188	730.395691	-0.042235
444.482941	732.476135	17139.185547	725.343079	-0.043476
444.840393	729.206848	17255.470703	739.312073	0.061146
445.197754	731.807434	17532.619141	739.832214	0.047764
445.555084	742.358459	17810.955078	738.271912	-0.023942
445.912415	741.392578	18180.835938	724.451477	-0.097142
446.269714	740.203796	18433.464844	731.213074	-0.050814
446.626953	733.665100	18741.375000	729.504089	-0.023107
446.984161	730.024231	19037.099609	733.813660	0.020699
447.341309	724.451599	19324.800781	733.144836	0.046737
447.698456	722.222473	19500.898438	736.265625	0.074782
448.055542	729.132629	19573.937500	737.157288	0.042583
448.412598	735.522705	19520.439453	730.098572	-0.028875
448.769653	739.609314	19381.195313	731.510254	-0.043446
449.126617	730.024231	19071.501953	733.590759	0.019445
449.483582	725.937561	18841.982422	738.717590	0.070545
449.840515	723.188293	18478.566406	735.671204	0.070305
450.197388	725.863220	18273.937500	735.596924	0.055469
450.554230	727.200745	18019.748047	730.172852	0.017187
450.911041	729.132629	17885.111328	738.048889	0.051972
451.267822	728.538147	17751.291016	737.528809	0.052816
451.624573	730.767273	17567.466797	737.380188	0.039277
451.981262	729.578430	17467.083984	732.104675	0.015093
452.337921	731.956116	17282.664063	731.138855	-0.004938
452.694580	732.847839	17233.177734	726.011902	-0.041429
453.051147	733.665039	17189.933594	726.754944	-0.041991
453.407715	727.720886	17121.128906	719.176086	-0.052123
453.764221	721.182190	17097.873047	733.367859	0.074409
454.120728	719.919128	16866.716797	734.779602	0.092034
454.477142	725.789001	16813.517578	745.330566	0.121469
454.833557	725.194519	16633.705078	746.593750	0.134514
455.189911	729.875549	16516.974609	745.404846	0.098367
455.546265	731.435852	16326.239258	740.649597	0.059082
455.902557	737.380188	16195.245117	731.138855	-0.040376
456.258820	738.494690	16178.601563	730.693054	-0.050528
456.615051	740.129395	16247.776367	727.572266	-0.080974
456.971252	739.014832	16252.604492	729.429871	-0.061784
457.327393	732.476257	16444.677734	731.138733	-0.008513
457.683502	734.556641	16679.623047	735.448303	0.005592
458.039612	737.157288	17135.916016	742.952942	0.035342
458.395630	736.711426	17543.021484	742.878601	0.036696
458.751648	729.652649	17995.822266	744.513184	0.086067
459.107605	719.176086	18619.445313	741.095276	0.122452
459.463562	716.649719	19301.990234	734.779602	0.097549
459.819458	718.210144	19972.794922	733.293518	0.078337
460.175323	720.810730	20509.855469	726.383484	0.028161
460.531158	727.572266	20996.390625	732.996399	0.026761
460.886932	729.504150	21260.164063	727.497864	-0.009772
461.242676	732.699158	21373.773438	728.315247	-0.021239
461.598419	734.705322	21127.978516	726.680603	-0.039350
461.954102	734.333801	20717.679688	726.086182	-0.041272
462.309723	731.584656	20060.992188	723.931396	-0.039594
462.665344	728.612488	19427.486328	717.095520	-0.061592
463.020905	723.782715	18872.666016	729.504089	0.031525
463.376373	726.531982	18488.892578	741.763977	0.085754
463.731873	732.104675	18137.812500	743.324402	0.064460
464.087341	734.705261	17875.376953	736.414246	0.009970
464.442749	737.083008	17713.099609	729.206848	-0.046396
464.798126	725.566101	17639.093750	740.872375	0.090497
465.153503	726.234863	17700.021484	741.763977	0.091489
465.508820	722.593933	17747.205078	741.541199	0.111293
465.864105	726.977844	17902.052734	742.135559	0.088254
466.219330	735.002625	18157.060547	736.785828	0.010235
466.574524	733.367920	18391.781250	737.900330	0.025667
466.929657	730.172852	18562.083984	731.287354	0.006250
467.284790	723.782776	18737.064453	734.259521	0.058161
467.639893	724.600098	18890.128906	729.801331	0.028632
467.994934	727.795227	19051.589844	728.092468	0.001622
468.349945	725.640442	19092.232422	726.977844	0.007282
468.704926	733.293518	19031.453125	728.612488	-0.025582
469.059875	729.429871	18827.417969	728.686829	-0.004106
469.414764	728.463867	18546.775391	729.058289	0.003336
469.769653	723.336975	18345.416016	727.943665	0.026142
470.124451	728.018005	18261.529297	728.315247	0.001695
470.479248	730.841492	18150.373047	729.058289	-0.010237
470.834015	733.665039	18090.259766	733.070618	-0.003425
471.188721	731.510254	18167.388672	741.838379	0.059235
471.543365	729.504089	18292.810547	743.547363	0.079958
471.898010	730.841553	18401.439453	741.243958	0.058868
472.252625	735.225403	18510.070313	730.990173	-0.023827
472.607178	736.042725	18762.552734	728.315247	-0.042867
472.961700	731.213074	19015.626953	730.693054	-0.002844
473.316193	727.349365	19339.513672	730.544373	0.017166
473.670654	728.538269	19464.490234	731.733215	0.017052
474.025055	733.219238	19654.111328	735.151123	0.010210
474.379456	729.727051	19745.353516	735.225403	0.028915
474.733795	726.903503	19897.080078	739.980713	0.068216
475.088104	730.470032	20032.978516	733.813660	0.017322
475.442383	735.968445	20061.214844	734.333801	-0.008459
475.796570	739.906494	20175.791016	727.869446	-0.061932
476.150787	737.157288	20340.445313	730.321472	-0.034871
476.504944	741.763977	20628.886719	732.253357	-0.047823
476.859070	741.466858	20929.218750	730.321472	-0.055209
477.213135	731.287354	21236.460938	734.779602	0.017031
477.567200	725.417480	21652.037109	733.888000	0.040477
477.921173	725.863281	22034.619141	735.225403	0.043936
478.275146	733.442139	22511.494141	729.429871	-0.018423
478.629089	737.603027	22803.728516	727.275085	-0.046805
478.983002	734.110840	23195.974609	723.336975	-0.047965
479.336823	740.723816	23491.548828	728.092285	-0.055521
479.690643	734.408020	23901.849609	737.083008	0.011546
480.044403	733.887939	24393.287109	750.308899	0.069406
480.398163	721.776611	25084.375000	753.949707	0.132059
480.751862	726.903503	25995.251953	749.714539	0.090275
481.105499	733.442200	27115.515625	747.039551	0.051540
481.459137	735.002502	28580.986328	741.169617	0.022147
481.812744	728.761047	30372.203125	747.856934	0.064419
482.166290	725.194519	32559.525391	748.451355	0.073056
482.519806	723.411316	35216.296875	753.726807	0.087889
482.873291	724.080017	38326.382813	748.971436	0.066197
483.226715	724.154358	41898.636719	738.271790	0.034287
483.580139	724.451599	45383.656250	734.631042	0.022794
483.933502	727.423645	48725.792969	735.299744	0.016409
484.286804	725.566101	51446.386719	745.107666	0.038528
484.640106	728.463867	53510.515625	740.278015	0.022383
484.993347	724.897400	54637.093750	736.637207	0.021776
485.346558	726.234863	54899.828125	738.791992	0.023179
485.699738	733.144958	54222.035156	745.181946	0.022504
486.052887	733.665039	52984.156250	745.553467	0.022753
486.405975	732.104736	51374.386719	746.296570	0.028024
486.759064	729.429749	49756.000000	742.209961	0.026068
487.112061	734.779602	48402.652344	741.987000	0.015120
487.464996	732.996338	47607.984375	746.222229	0.028215
487.817963	731.064514	47443.402344	746.073669	0.032131
488.170868	727.349304	47511.464844	748.005554	0.044152
488.523743	728.909729	47600.625000	737.231628	0.017755
488.876587	728.909668	47485.832031	746.073669	0.036709
489.229401	736.934387	47060.824219	744.959167	0.017323
489.582153	741.392578	46267.636719	751.497742	0.022196
489.934845	742.358582	45187.125000	738.494812	-0.008693
490.287537	746.965271	44062.261719	733.145020	-0.031906
490.640198	748.228333	43202.351563	730.470032	-0.041829
490.992798	750.457458	42621.675781	731.064453	-0.046316
491.345337	737.231628	42533.105469	739.460693	0.005333
491.697876	732.179016	42586.234375	742.358459	0.024321
492.050354	726.160461	42972.085938	745.702087	0.046257
492.402832	725.640320	43217.808594	738.494812	0.030251
492.755219	728.166687	43088.593750	739.757874	0.027363
493.107605	729.206848	42354.332031	740.798157	0.027847
493.459930	737.305847	41033.011719	738.346130	0.002582
493.812225	743.027161	39304.656250	732.327576	-0.027747
494.164490	742.358459	37354.207031	733.367859	-0.024557
494.516724	740.575195	35390.757813	743.473083	0.008363
494.868896	732.253235	33593.375000	749.863098	0.053589
495.221039	736.191345	32156.953125	750.457520	0.045404
495.573120	742.878601	31015.443359	747.262512	0.014481
495.925201	745.924988	30403.335938	741.615479	-0.014531
496.277222	746.890930	30035.166016	741.392578	-0.018773
496.629211	734.705261	29984.787109	737.231628	0.008637
496.981140	728.240967	29914.796875	737.083008	0.030295
497.333069	733.813660	29997.271484	739.832214	0.020567
497.684967	736.637207	30074.771484	742.135559	0.018741
498.036804	740.649475	30179.537109	739.906494	-0.002524
498.388580	737.751709	30090.220703	734.333801	-0.011644
498.740326	737.825989	29938.052734	735.671204	-0.007379
499.092072	743.695984	29614.462891	734.556641	-0.031656
499.443756	732.699158	29314.056641	732.922058	0.000780
499.795410	739.832214	28956.664063	732.030457	-0.027649
500.147003	735.968445	28661.158203	733.145020	-0.010111
500.498566	737.751709	28278.427734	733.219238	-0.016457
500.850098	725.566101	27869.314453	732.922058	0.027100
501.201599	719.398926	27479.599609	728.761047	0.034985
501.553009	721.033630	27133.349609	735.225403	0.053732
501.904449	728.092346	26945.806641	735.671204	0.028907
502.255859	735.374023	26756.333984	739.386414	0.015420
502.607178	738.420410	26726.093750	735.374023	-0.011722
502.958405	734.333801	26630.390625	733.813721	-0.002008
503.309692	732.104675	26565.750000	738.569031	0.025023
503.660919	730.841553	26566.492188	735.894226	0.019557
504.012115	731.658875	26588.337891	740.278015	0.033334
504.363251	729.801270	26711.009766	732.327637	0.009724
504.714294	728.612488	26791.927734	737.677429	0.034780
505.065369	722.891174	26865.486328	735.968445	0.050023
505.416443	723.559875	26834.875000	738.197510	0.056059
505.767395	721.405090	26776.771484	729.355469	0.030513
506.118317	728.018066	26721.634766	722.742615	-0.020295
506.469238	726.606262	26764.062500	720.587708	-0.023115
506.820160	726.309082	26732.111328	728.018066	0.006572
507.170929	722.593994	26765.326172	732.699158	0.038802
507.521729	722.668274	26869.423828	747.336731	0.094346
507.872498	725.343262	26991.130859	744.141785	0.071570
508.223236	727.423645	27131.490234	748.525635	0.079919
508.573883	728.463867	27269.541016	740.278015	0.044513
508.924500	730.098572	27503.896484	744.364563	0.053283
509.275116	734.408020	27736.687500	736.637207	0.008256
509.625702	734.333740	27997.490234	734.333801	0.000000
509.976196	728.761047	28262.302734	729.578430	0.002969
510.326660	725.343262	28537.669922	742.432800	0.061446
510.677124	724.897400	28750.771484	744.216064	0.068932
511.027557	728.538147	28945.666016	746.593750	0.063988
511.377869	727.795166	29146.951172	734.110901	0.022224
511.728180	728.612488	29343.853516	729.429871	0.002856
512.078430	731.213074	29488.076172	733.144958	0.006718
512.428650	728.984070	29612.009766	733.516418	0.015692
512.778931	731.287415	29687.130859	738.717590	0.025660
513.129028	724.228577	29741.818359	733.888000	0.033288
513.479126	728.240967	29770.201172	735.002502	0.023282
513.829285	726.903503	29718.859375	725.789001	-0.003844
514.179382	732.624817	29631.775391	721.776611	-0.037538
514.529297	729.058289	29501.599609	730.172852	0.003874
514.879272	732.847717	29476.929688	739.832214	0.024299
515.229187	729.206848	29419.640625	741.169678	0.041696
515.579163	725.566101	29464.669922	729.132629	0.012410
515.928955	719.398926	29473.509766	732.030334	0.043929
516.278748	725.640320	29679.775391	728.909668	0.011291
516.628540	733.293518	29936.119141	735.596985	0.007888
516.978333	738.717590	30419.755859	732.996399	-0.019276
517.327942	735.374023	30963.576172	745.256348	0.032692
517.677612	731.807434	31612.759766	749.268738	0.056544
518.027222	727.200684	32220.109375	746.742371	0.062051
518.376831	727.200684	32940.179688	742.878601	0.048670
518.726379	726.606262	33582.972656	738.717590	0.036861
519.075867	725.714661	34108.886719	735.894226	0.030493
519.425293	723.857178	34482.183594	734.408142	0.031254
519.774658	719.770508	34644.535156	734.036621	0.042052
520.124084	725.863281	34682.425781	732.847717	0.020569
520.473389	734.779602	34437.902344	739.163513	0.013007
520.822693	742.952881	34068.839844	732.104675	-0.032552
521.171997	737.231628	33614.402344	743.472961	0.018984
521.521240	733.144958	33181.816406	735.299744	0.006641
521.870361	730.915833	32823.750000	741.541199	0.033108
522.219482	733.888000	32516.580078	737.305908	0.010754
522.568604	734.333801	32276.287109	743.398682	0.028739
522.917664	732.996338	32128.570313	751.572021	0.059167
523.266724	729.355469	32162.826172	752.017822	0.072096
523.615662	733.516418	32451.562500	744.513245	0.034671
523.964600	737.231628	32914.988281	735.076843	-0.006697
524.313538	742.581360	33513.496094	732.030457	-0.032196
524.662354	735.374023	34154.359375	729.206970	-0.018454
525.011169	733.888000	35010.847656	732.773438	-0.003252
525.359985	731.213074	36017.871094	735.076843	0.010950
525.708740	735.448425	37223.359375	740.203674	0.013032
526.057434	735.225403	38586.890625	743.398743	0.021593
526.406067	736.637207	40109.355469	738.791992	0.005473
526.754700	727.497986	41800.855469	742.952942	0.037628
527.103333	730.692932	43698.324219	744.736145	0.032683
527.451782	733.219238	45820.925781	748.377014	0.033618
527.800293	732.699036	48010.925781	746.147949	0.028446
528.148743	726.383362	50109.675781	736.117004	0.019710
528.497131	717.467041	51969.402344	741.020996	0.045957
528.845642	721.925232	53491.500000	744.364563	0.042523
529.193909	720.662109	54667.562500	746.222168	0.047380
529.542175	723.262695	55447.957031	744.884766	0.039511
529.890503	724.228699	55786.035156	743.027161	0.034141
530.238770	732.030457	55511.488281	746.742371	0.026857
530.586914	736.339905	54707.535156	748.822815	0.023129
530.934998	738.346191	53440.300781	745.776367	0.014098
531.283142	737.825989	51960.933594	743.695984	0.011460
531.631226	736.414307	50174.250000	736.191406	-0.000451
531.979248	738.197510	48381.996094	735.671326	-0.005302
532.327148	735.968445	46744.878906	736.488586	0.001131
532.675110	733.813721	45635.097656	737.305908	0.007777
533.023071	727.349304	45070.988281	732.922058	0.012567
533.370850	731.510254	44967.410156	733.813660	0.005207
533.718689	729.504150	45187.574219	735.745544	0.014039
534.066467	735.151123	45402.531250	738.791992	0.008151
534.414246	726.086243	45507.667969	738.866272	0.028539
534.761963	728.240906	45303.925781	737.974609	0.021836
535.109619	728.315247	44947.574219	744.067444	0.035623
535.457153	730.172852	44288.214844	749.565857	0.044522
535.804749	731.510254	43521.484375	747.634033	0.037681
536.152344	722.891174	42571.152344	744.364746	0.051313
536.499817	725.863281	41648.234375	744.067444	0.044485
536.847229	727.200745	40711.500000	746.965271	0.049431
537.194641	730.767273	39908.878906	748.377014	0.044948
537.542114	735.596863	39305.246094	741.541077	0.015412
537.889404	730.470032	38823.097656	740.798096	0.027113
538.236694	726.829285	38426.765625	739.757813	0.034293
538.583984	720.364929	38014.308594	739.460632	0.051203
538.931213	724.823059	37731.218750	734.928223	0.027307
539.278381	727.720886	37543.750000	736.265625	0.023209
539.625488	725.863281	37612.781250	741.912659	0.043510
539.972595	728.612549	37967.207031	752.463684	0.064050
540.319641	726.532043	38678.433594	750.234558	0.062454
540.666687	730.172852	39658.187500	746.965332	0.043137
541.013611	726.977844	40930.917969	740.872498	0.034560
541.360596	734.259460	42329.441406	741.318298	0.016970
541.707458	737.825989	43709.613281	743.695984	0.013660
542.054260	739.683594	44887.238281	741.987000	0.005218
542.401062	733.070740	45863.425781	744.513245	0.025354
542.747864	727.423645	46392.019531	745.181946	0.038889
543.094666	725.268860	46350.781250	756.030212	0.067421
543.441284	724.823059	45664.371094	756.698914	0.070931
543.787903	730.247131	44623.464844	753.875427	0.053831
544.134460	728.092346	43323.613281	744.513184	0.038551
544.481079	732.253357	41945.222656	741.763977	0.023077
544.827637	724.005676	40409.535156	744.884766	0.052611
545.174072	720.587830	38848.878906	746.073547	0.066842
545.520508	719.919128	37439.656250	742.209900	0.060705
545.866943	720.216309	36273.769531	736.785828	0.046604
546.213318	727.052063	35412.007813	734.556641	0.021636
546.559631	729.875671	34725.894531	735.894104	0.017703
546.905823	735.894104	34178.136719	739.014832	0.009332
547.252136	737.454590	33774.675781	743.472961	0.018217
547.598389	733.962341	33350.406250	741.169617	0.022097
547.944458	728.761047	32971.457031	728.463867	-0.000922
548.290588	729.281250	32352.666016	726.086243	-0.010103
548.636658	738.346130	31736.177734	733.442200	-0.015820
548.982727	740.352295	30950.500000	746.890930	0.021644
549.328735	734.928223	30268.921875	740.649597	0.019372
549.674622	725.491699	29484.732422	740.649475	0.052706
550.020569	716.798340	28780.638672	736.117004	0.068838
550.366455	718.953125	28042.070313	741.020996	0.080766
550.712280	720.736389	27380.703125	738.569031	0.066889
551.058044	723.782898	26874.849609	739.683594	0.060803
551.403748	718.135803	26476.585938	740.872498	0.088269
551.749512	717.244141	26206.939453	747.113953	0.117184
552.095154	719.250305	26036.490234	751.943542	0.129134
552.440735	726.234863	25965.306641	748.376953	0.087729
552.786316	726.977844	25973.556641	744.141785	0.067985
553.131897	734.110901	25998.968750	736.414246	0.009117
553.477417	736.934387	26064.132813	738.494812	0.006161
553.822815	738.420410	26090.806641	739.980774	0.006155
554.168213	737.380188	26067.994141	741.243896	0.015253
554.513672	736.934387	25955.875000	738.643372	0.006777
554.859009	738.569031	25749.236328	727.052063	-0.046048
555.204285	739.312012	25528.708984	726.011902	-0.053652
555.549500	739.014893	25266.716797	729.132629	-0.040290
555.894714	732.476257	25037.193359	736.042786	0.014674
556.239990	738.271790	24733.146484	740.352295	0.008671
556.585022	734.036621	24432.591797	738.048889	0.016930
556.930115	736.414307	24119.330078	735.225403	-0.005084
557.275146	738.271790	23832.447266	731.138855	-0.030886
557.620178	739.237793	23656.427734	730.841553	-0.036637
557.965149	743.547363	23502.619141	735.968445	-0.033301
558.310059	730.172852	23359.068359	731.733215	0.006895
558.654968	732.327576	23182.818359	731.287415	-0.004633
558.999756	725.566101	23049.669922	733.070618	0.033616
559.344604	732.773438	22992.009766	744.959167	0.054745
559.689331	728.166687	22954.117188	742.878601	0.066193
560.033997	730.990173	22914.515625	737.083008	0.027466
560.378723	726.086182	22889.398438	732.179016	0.027491
560.723389	729.652771	22884.791016	734.705261	0.022805
561.067932	728.538147	22913.250000	733.887939	0.024115
561.412476	726.754883	22924.765625	734.928223	0.036820
561.757019	723.411316	22907.974609	735.002502	0.052249
562.101501	722.371094	22913.173828	741.095398	0.084379
562.445862	727.423645	22878.328125	742.729980	0.069100
562.790222	730.990173	22912.728516	745.404846	0.064984
563.134644	734.185242	22876.541016	746.519348	0.055704
563.478943	734.333801	22882.115234	746.296570	0.054013
563.823181	734.408142	22818.810547	744.141785	0.044075
564.167358	729.206848	22833.150391	739.683594	0.047398
564.511536	729.875549	22865.619141	739.460693	0.043302
564.855774	732.030457	22934.130859	738.420410	0.028781
565.199768	739.237793	23083.921875	738.123230	-0.004988
565.543823	734.631042	23260.021484	739.906555	0.023420
565.887817	726.383484	23494.000000	740.129395	0.060375
566.231812	723.931396	23678.865234	740.798157	0.073478
566.575745	726.457703	23835.939453	737.825989	0.049193
566.919617	734.631042	24013.599609	739.832214	0.022343
567.263428	735.076843	24126.017578	743.473083	0.035895
567.607239	732.030457	24263.626953	740.946716	0.037891
567.950989	730.321472	24274.921875	738.643372	0.035345
568.294678	728.463867	24284.953125	735.894104	0.031542
568.638367	726.457703	24144.593750	731.584534	0.021893
568.981995	723.262695	23982.615234	732.624817	0.040251
569.325623	727.720886	23786.900391	732.624817	0.021267
569.669128	733.887939	23668.091797	740.055115	0.026891
570.012573	735.299744	23590.146484	739.163391	0.016905
570.356140	730.841492	23560.130859	736.042786	0.022783
570.699524	723.931335	23540.365234	734.482422	0.046243
571.042908	722.148132	23603.076172	739.163391	0.074364
571.386230	719.398926	23715.048828	734.853821	0.067208
571.729492	721.182190	23881.787109	731.287354	0.043631
572.072815	722.222473	24035.517578	727.423645	0.022310
572.416016	724.748718	24171.640625	732.847717	0.034542
572.759094	728.612488	24336.146484	734.036621	0.022976
573.102234	735.299744	24435.193359	732.550537	-0.011600
573.445374	729.801270	24471.304688	733.144958	0.014084
573.788391	719.696106	24429.623047	733.144958	0.056722
574.131409	717.392822	24391.429688	732.030457	0.061830
574.474365	727.869446	24327.453125	735.002441	0.030225
574.817261	739.534973	24198.537109	740.798096	0.005384
575.160156	739.163391	24027.568359	747.262451	0.034777
575.502930	742.061279	23806.146484	736.934387	-0.022229
575.845703	741.763977	23596.240234	730.693054	-0.048441
576.188477	739.906494	23350.076172	731.510315	-0.037135
576.531250	731.213074	23117.435547	741.243958	0.044808
576.873901	733.739319	22818.068359	743.547363	0.044412
577.216431	733.813721	22542.703125	745.181946	0.052127
577.559082	742.432800	22225.728516	746.519470	0.019023
577.901611	736.117004	21909.421875	750.234619	0.066676
578.244080	733.144958	21581.373047	745.404846	0.058805
578.586487	730.767273	21248.423828	739.089172	0.040560
578.928955	757.739197	20926.990234	767.547119	0.048628
579.271301	760.042542	20605.185547	769.181824	0.046053
579.613647	758.556458	20298.759766	775.200378	0.085178
579.955872	732.179016	20011.580078	737.157288	0.025822
580.298157	737.231628	19731.830078	732.922058	-0.022688
580.640320	736.488525	19518.732422	729.281250	-0.038373
580.982483	736.414307	19308.304688	734.110901	-0.012403
581.324524	735.671204	19104.046875	735.522644	-0.000809
581.666626	735.225403	18930.847656	737.157288	0.010617
582.008728	734.259460	18824.447266	733.962219	-0.001643
582.350647	733.665039	18713.363281	734.630920	0.005372
582.692566	739.014893	18645.748047	737.528809	-0.008299
583.034424	734.779602	18529.166016	739.312012	0.025471
583.376343	733.070618	18448.474609	746.073669	0.073400
583.718201	726.754883	18352.474609	744.216064	0.099066
584.059937	737.603088	18278.617188	741.392517	0.021603
584.401611	726.383362	18179.943359	738.197510	0.067689
584.743347	719.919128	18104.080078	739.906555	0.114975
585.085022	710.631165	18026.880859	745.999329	0.204248
585.426514	717.912903	17995.525391	741.318176	0.135466
585.768127	725.417480	17908.515625	735.225403	0.057079
586.109619	729.949951	17854.943359	732.476257	0.014752
586.451172	730.767273	17809.171875	732.996338	0.013052
586.792542	731.287415	17811.328125	740.798096	0.055683
587.133850	731.287415	17779.154297	739.832214	0.050122
587.475220	732.996338	17761.544922	736.785828	0.022254
587.816589	728.835449	17727.439453	732.401917	0.020981
588.157776	735.894226	17751.291016	732.847839	-0.017904
588.498962	734.333801	17796.021484	745.181946	0.063582
588.840210	729.949890	17842.164063	747.336731	0.101605
589.181335	726.234802	17913.271484	749.565857	0.135748
589.522400	731.287354	17955.251953	745.107666	0.080239
589.863403	744.438965	17990.398438	741.169617	-0.018957
590.204407	745.033386	17984.826172	742.135559	-0.016809
590.545410	740.649597	18016.626953	730.321472	-0.059783
590.886353	730.098450	18041.517578	732.699158	0.015023
591.227112	728.835449	18023.166016	733.590820	0.027497
591.567932	722.965515	17930.437500	736.042786	0.075998
591.908752	727.572266	17795.947266	736.860107	0.054416
592.249512	724.674500	17705.001953	734.779602	0.059511
592.590149	727.349365	17602.462891	740.723816	0.079255
592.930786	723.708557	17576.160156	739.757874	0.095234
593.271423	720.959290	17522.884766	737.974609	0.101270
593.612000	722.816895	17516.273438	736.117004	0.079198
593.952576	720.810730	17507.429688	732.922058	0.072149
594.292969	725.714661	17557.287109	739.534912	0.082109
594.633484	729.875671	17625.794922	738.123230	0.048814
594.973877	734.110840	17683.527344	739.757874	0.033317
595.314209	731.436035	17768.751953	733.367859	0.011339
595.654480	733.442200	17905.097656	735.448303	0.011683
595.994812	740.129395	18125.554688	737.603027	-0.014532
596.335022	741.689758	18360.500000	735.522644	-0.035003
596.675171	735.076843	18552.052734	740.649597	0.031278
597.015320	724.080017	18740.333984	739.460693	0.085371
597.355408	721.479431	18862.861328	745.404968	0.131884
597.695496	726.160461	18967.552734	741.466797	0.083910
598.035461	733.367859	18948.009766	741.318298	0.043649
598.375366	736.637207	18895.775391	739.089172	0.013503
598.715271	734.631042	18776.373047	742.135559	0.041595
599.055176	732.179016	18564.089844	739.014893	0.038335
599.395081	728.686768	18293.923828	742.061279	0.076142
599.734802	723.336975	17974.943359	737.751709	0.083556
600.074524	725.120300	17641.173828	738.866272	0.081260
600.414246	728.463867	17280.582031	735.299744	0.041299
600.753906	732.476257	16929.205078	732.476257	0.000000
601.093506	730.841553	16657.628906	729.504150	-0.008397
601.433044	733.070618	16467.193359	726.606262	-0.041085
601.772583	733.442200	16340.057617	722.296814	-0.071415
602.112122	735.299744	16329.731445	732.922058	-0.015247
602.451538	739.609314	16396.232422	742.209961	0.016611
602.790894	742.061218	16547.216797	748.897217	0.043252
603.130310	742.878601	16697.900391	734.779602	-0.050761
603.469604	728.612488	16907.435547	731.138733	0.015615
603.808838	722.222473	17206.281250	725.714661	0.021185
604.148010	722.816895	17506.464844	734.705322	0.070833
604.487305	724.005676	17809.025391	732.179016	0.047839
604.826416	720.736328	17968.775391	738.791992	0.104682
605.165527	718.358704	18147.398438	738.791992	0.117237
605.504456	723.708496	18259.076172	742.358582	0.106357
605.843445	731.287415	18349.576172	742.358582	0.062839
606.182434	730.841553	18347.943359	739.163513	0.047238
606.521423	739.832214	18218.953125	735.671204	-0.023806
606.860229	739.832214	18024.578125	738.197510	-0.009457
607.199036	736.191406	17760.281250	751.646301	0.090783
607.537903	721.776611	17482.462891	754.618469	0.195946
607.876648	724.080017	17208.435547	752.166504	0.170383
608.215271	730.618652	16934.929688	737.751709	0.044020
608.553955	736.488525	16701.468750	734.853943	-0.010239
608.892578	737.900391	16520.392578	729.355469	-0.054142
609.231140	736.860107	16416.740234	734.259521	-0.016585
609.569641	735.968506	16367.848633	737.677429	0.010932
609.908081	736.191345	16364.430664	742.581360	0.040888
610.246521	736.711426	16333.520508	746.742371	0.064314
610.584961	735.745544	16345.780273	741.541260	0.037128
610.923340	726.309082	16290.500000	744.216064	0.115052
611.261597	726.829285	16223.627930	735.745605	0.057537
611.599854	725.343079	16078.812500	739.460693	0.091951
611.938110	725.194519	15924.335938	742.358459	0.112927
612.276245	727.423645	15718.592773	741.541077	0.094172
612.614319	731.436035	15442.186523	737.380188	0.040407
612.952393	732.847717	15143.042969	732.401855	-0.003094
613.290466	731.510254	14830.227539	736.117004	0.032675
613.628479	732.996338	14544.980469	737.528809	0.032815
613.966370	734.928223	14291.534180	734.928223	0.000000
614.304260	730.172852	14081.332031	738.791992	0.064557
614.642151	732.699036	13899.291992	732.699158	0.000001
614.979980	737.751709	13755.143555	733.739441	-0.030822
615.317749	735.819824	13616.717773	733.739441	-0.016151
615.655396	725.640381	13542.934570	745.033386	0.151303
615.993164	719.473206	13475.914063	747.559631	0.220174
616.330811	721.405090	13461.870117	745.033386	0.185459
616.668396	730.024231	13450.723633	737.825989	0.061331
617.005859	728.018066	13426.948242	733.516418	0.043298
617.343445	732.773438	13409.858398	729.058289	-0.029306
617.680908	731.584656	13398.414063	729.875671	-0.013492
618.018311	737.083008	13404.953125	735.522644	-0.012317
618.355652	730.395752	13412.532227	742.209900	0.093156
618.692993	730.841553	13403.468750	749.417236	0.146581
619.030273	727.869446	13397.523438	750.903320	0.181803
619.367554	735.225403	13366.835938	748.154114	0.102352
619.704712	730.098572	13345.140625	739.163391	0.071857
620.041870	736.488586	13318.167969	735.745605	-0.005905
620.379028	727.943665	13294.836914	733.516418	0.044345
620.716064	729.355530	13211.692383	740.798096	0.091670
621.053040	727.646484	13129.514648	740.649475	0.104847
621.389954	730.544373	13046.815430	744.661804	0.114624
621.726929	728.463867	13008.028320	747.633972	0.156114
622.063843	726.754944	12960.995117	746.519470	0.161551
622.400635	728.018066	12918.344727	737.825989	0.080457
622.737427	731.807434	12891.225586	727.052185	-0.039108
623.074219	730.841614	12842.184570	724.971680	-0.048466
623.410889	725.268860	12796.414063	733.665039	0.069556
623.747559	722.891174	12763.499023	739.089172	0.134528
624.084167	722.148193	12758.446289	742.655762	0.170381
624.420715	728.018127	12753.691406	731.807434	0.031510
624.757324	728.463928	12795.003906	725.417480	-0.025247
625.093750	723.857178	12858.679688	724.302979	0.003674
625.430176	724.080078	12948.585938	737.008728	0.105760
625.766602	723.559875	12954.976563	744.067444	0.167663
626.102905	728.315247	13048.078125	744.959167	0.135099
626.439209	724.897400	13151.359375	741.912781	0.136929
626.775452	730.098572	13300.781250	741.541199	0.091026
627.111694	724.748718	13395.815430	740.575195	0.124902
627.447876	728.612488	13459.046875	737.083008	0.066538
627.783997	723.262634	13497.386719	733.590820	0.080852
628.120056	725.194519	13500.210938	731.064453	0.045949
628.456055	728.092285	13484.234375	737.603088	0.074559
628.792053	729.504089	13452.210938	732.030457	0.019857
629.128052	729.355469	13362.601563	734.482422	0.040583
629.463928	726.977783	13255.382813	725.417480	-0.012454
629.799744	721.256531	13158.566406	732.550476	0.090807
630.135559	728.538147	13049.563477	737.603088	0.073573
630.471375	722.222412	12917.007813	738.346191	0.132219
630.807068	728.984070	12716.390625	736.637207	0.063843
631.142700	724.897400	12557.976563	730.544373	0.047722
631.478333	732.104736	12436.714844	737.231628	0.043802
631.813965	733.144958	12352.604492	743.324463	0.087607
632.149475	730.767273	12258.461914	743.027161	0.106352
632.484924	727.572266	12162.538086	741.169617	0.118910
632.820435	725.789001	12097.002930	738.049011	0.107816
633.155884	733.144958	12037.635742	734.779602	0.014460
633.491150	734.185120	11973.734375	735.745605	0.013884
633.826477	729.206970	11883.531250	733.887939	0.041966
634.161804	726.829285	11835.531250	743.250061	0.147819
634.497009	727.572266	11807.742188	740.352356	0.115342
634.832153	733.367859	11752.907227	746.445129	0.118673
635.167297	731.881836	11667.237305	741.318298	0.086293
635.502380	731.064453	11547.312500	745.107666	0.129834
635.837463	732.624817	11477.020508	742.581360	0.092667
636.172424	729.355469	11372.848633	740.278015	0.102622
636.507324	734.556702	11310.062500	730.841553	-0.035130
636.842224	733.070618	11234.051758	733.442139	0.003538
637.177124	731.361633	11131.735352	733.590759	0.021433
637.511963	725.566101	10999.105469	742.358459	0.163453
637.846741	725.714661	10853.918945	732.847717	0.070428
638.181396	728.835449	10736.519531	729.355469	0.005196
638.516113	722.148132	10631.009766	725.640442	0.035244
638.850769	714.866516	10539.618164	728.835449	0.142181
639.185303	713.900574	10451.867188	735.819824	0.225091
639.519836	718.730225	10367.385742	735.819824	0.177119
639.854370	729.652649	10243.670898	735.968445	0.066384
640.188843	737.900330	10157.924805	729.206848	-0.092287
640.523254	741.243958	10083.696289	727.869446	-0.143158
640.857605	740.352356	10023.510742	726.680664	-0.147274
641.191895	736.934387	9956.563477	733.293640	-0.039489
641.526184	733.813660	9878.844727	731.733215	-0.022749
641.860413	734.036621	9809.371094	728.240967	-0.063862
642.194580	730.692932	9764.567383	723.411316	-0.080603
642.528748	737.157227	9704.901367	719.993347	-0.191396
642.862793	737.008606	9670.127930	723.411316	-0.152212
643.196838	743.398682	9619.454102	727.200745	-0.182490
643.530823	733.590759	9581.114258	730.544373	-0.034432
643.864746	733.219299	9538.091797	733.293640	0.000844
644.198669	725.268860	9492.990234	736.488586	0.127966
644.532532	727.423645	9454.128906	739.163513	0.134528
644.866333	726.457703	9422.922852	741.615417	0.174297
645.200073	721.553711	9384.209961	739.609192	0.208429
645.533813	720.959290	9344.086914	739.312073	0.212832
645.867554	713.454773	9329.449219	730.618652	0.199210
646.201172	718.210144	9315.406250	729.727051	0.133961
646.534729	723.188416	9320.235352	733.367859	0.118406
646.868225	722.742615	9323.430664	741.615479	0.219434
647.201782	730.618652	9337.028320	740.129395	0.110508
647.535217	726.234802	9330.564453	730.395752	0.048359
647.868591	727.275085	9321.796875	726.011902	-0.014698
648.201965	727.052063	9303.666992	731.584534	0.052847
648.535278	726.903564	9323.952148	735.522644	0.100256
648.868591	726.383362	9308.125000	733.219238	0.079656
649.201782	723.336914	9288.434570	732.476257	0.106704
649.534912	730.470032	9247.567383	728.092346	-0.027917
649.868103	733.442139	9226.986328	734.036438	0.006997
650.201172	738.866211	9209.450195	727.126282	-0.138596
650.534180	737.900391	9183.519531	739.237732	0.015835
650.867188	738.197571	9144.064453	740.575195	0.028285
651.200134	733.813660	9125.265625	752.240723	0.219593
651.533020	736.414246	9099.557617	747.559631	0.133268
651.865845	739.757874	9063.148438	746.370850	0.079451
652.198608	743.695984	9023.173828	743.324463	-0.004487
652.531433	735.448303	8975.842773	747.188232	0.142468
652.864136	734.333801	8936.314453	741.764099	0.090592
653.196777	801.057678	8952.661133	859.013733	0.710977
653.529358	804.549988	8916.104492	856.115906	0.635709
653.861938	807.893555	8859.262695	855.001465	0.585092
654.194519	735.225403	8738.075195	732.179016	-0.038066
654.526978	731.956116	8675.734375	734.333801	0.029931
654.859375	734.779602	8629.369141	741.763977	0.088470
655.191833	735.448303	8598.831055	744.290344	0.112446
655.524170	737.157288	8563.165039	739.534973	0.030382
655.856445	726.457703	8525.047852	729.727051	0.041922
656.188660	730.172852	8502.237305	730.693054	0.006693
656.520874	734.631042	8484.329102	731.213135	-0.044104
656.853088	738.866211	8477.866211	737.157288	-0.022082
657.185181	735.745544	8459.809570	736.562927	0.010582
657.517212	736.042786	8477.197266	739.832214	0.048952
657.849243	741.838379	8509.519531	746.147949	0.055481
658.181274	735.448425	8573.346680	741.169617	0.072994
658.513123	733.293518	8623.945313	734.259460	0.012242
658.844971	726.532043	8716.081055	731.584656	0.063240
659.176819	735.522644	8779.014648	732.699219	-0.035102
659.508667	739.609192	8898.270508	740.649597	0.012752
659.840393	739.832214	8970.641602	740.649597	0.009931
660.172058	732.253235	9042.416992	745.999329	0.165413
660.503662	723.411316	9053.711914	744.810486	0.256884
660.835266	729.949951	9072.288086	735.671204	0.068581
661.166931	735.745605	9020.202148	734.259460	-0.017939
661.498413	743.101501	8967.670898	731.064453	-0.146355
661.829773	738.494690	8860.452148	740.798157	0.028361
662.161194	733.070618	8738.000977	742.135559	0.113242
662.492615	731.213074	8572.454102	742.358582	0.142140
662.823975	729.652771	8420.504883	737.974609	0.108204
663.155212	734.853943	8300.356445	735.819824	0.012767
663.486450	733.962341	8177.088379	731.064453	-0.038934
663.817627	747.336731	8043.714844	729.652649	-0.242368
664.148743	746.073547	7901.574219	727.497864	-0.259600
664.479858	744.290344	7786.404785	725.491699	-0.266946
664.810913	731.510254	7697.910156	724.822998	-0.095993
665.141907	733.888000	7643.298340	721.702332	-0.176363
665.472778	739.460754	7584.450684	735.671204	-0.055362
665.803711	743.770264	7556.587402	739.312012	-0.065439
666.134583	743.027161	7521.589844	743.770203	0.010962
666.465454	736.339905	7489.417480	733.516418	-0.041810
666.796143	738.048889	7441.120605	734.631042	-0.050989
667.126831	735.299622	7408.724609	736.711487	0.021157
667.457458	735.894104	7403.077637	745.479248	0.143766
667.788147	736.191345	7386.804688	744.959167	0.131835
668.118774	737.305908	7347.424316	744.736145	0.112407
668.449219	740.352295	7323.870605	744.290344	0.059817
668.779663	730.024231	7317.554688	736.414246	0.097002
669.110107	724.377258	7317.777832	731.956055	0.114945
669.440552	719.324646	7316.514160	724.451599	0.077714
669.770874	722.816895	7304.700684	733.888000	0.168206
670.101135	729.058350	7302.619629	730.470032	0.021475
670.431396	724.005676	7261.529785	733.293518	0.142070
670.761597	722.371094	7201.048340	735.968506	0.209879
671.091797	719.919128	7122.955566	737.008789	0.266899
671.421875	730.990173	7095.166504	730.618652	-0.005838
671.751892	739.014832	7073.024902	725.640442	-0.211152
672.081909	734.259460	7060.541504	725.789063	-0.133892
672.411865	730.247131	7014.994629	741.764099	0.183253
672.741821	722.073914	6956.072266	743.175842	0.338497
673.071716	732.773438	6935.490234	752.909485	0.324633
673.401550	733.516418	6879.540527	740.872498	0.119688
673.731262	737.305847	6859.923828	730.098572	-0.117716
674.060974	728.983948	6811.775879	728.612488	-0.006107
674.390625	731.213074	6788.965332	732.104675	0.014718
674.720276	732.030334	6741.337891	739.386414	0.122411
675.049927	737.305969	6688.879395	731.064453	-0.104872
675.379395	731.956116	6656.929688	723.634277	-0.140454
675.708923	731.138733	6616.954590	714.940857	-0.275202
676.038330	725.194519	6568.731934	719.993408	-0.089006
676.367737	726.531921	6512.484863	724.600159	-0.033387
676.697083	719.473206	6492.869141	737.974609	0.320460
677.026428	720.364807	6489.822266	738.717712	0.318105
677.355652	720.364929	6499.853027	738.940491	0.321405
677.684875	731.584656	6512.930176	737.305847	0.098960
678.013977	743.101501	6513.525391	735.894226	-0.124900
678.343079	744.364685	6494.355469	741.764099	-0.045228
678.672180	735.596924	6493.314941	741.615479	0.104530
679.001221	725.937561	6530.466309	737.380188	0.197133
679.330139	725.268860	6598.750000	731.584656	0.107531
679.659058	728.463867	6636.570313	724.674500	-0.064138
679.987976	730.618652	6681.374512	727.869446	-0.046199
680.316772	732.922058	6713.027344	725.045959	-0.131705
680.645630	731.064453	6768.383301	734.482422	0.056614
680.974304	728.686829	6795.207031	733.442200	0.078387
681.302979	731.064453	6815.565918	736.488586	0.089147
681.631653	735.894226	6815.342285	731.361633	-0.074556
681.960266	737.157288	6840.457031	734.408142	-0.045044
682.288757	731.584534	6848.704590	734.631042	0.049803
682.617249	728.463867	6854.054199	736.191406	0.126152
682.945679	730.247070	6808.804199	733.293518	0.050118
683.274109	732.922058	6760.433594	732.327576	-0.009863
683.602478	732.550537	6696.606934	735.002441	0.041111
683.930725	731.361755	6617.251465	739.312195	0.135076
684.259033	730.098572	6548.596191	745.479248	0.264341
684.587280	728.463867	6458.095215	736.488586	0.140056
684.915344	733.516418	6406.603516	729.875671	-0.064176
685.243469	735.151123	6333.786621	728.686829	-0.115462
685.571533	737.454590	6271.669922	736.562927	-0.016112
685.899536	730.024231	6205.094238	743.472961	0.245636
686.227539	730.470032	6146.915527	739.534973	0.167360
686.555420	730.990173	6131.237793	734.705322	0.068796
686.883301	731.881775	6119.126465	734.779602	0.053791
687.211121	730.841553	6120.761230	733.293518	0.045492
687.538940	732.699158	6127.521973	738.123230	0.100542
687.866638	733.516418	6142.828613	737.603210	0.075551
688.194336	732.922058	6157.688965	734.259521	0.024655
688.521973	733.813660	6135.026855	727.498047	-0.116930
688.849609	730.321472	6101.962402	724.154297	-0.114810
689.177063	729.429871	6056.117188	728.018066	-0.026504
689.504578	728.315247	5996.898438	732.178955	0.073335
689.832031	730.692932	5942.730957	731.138855	0.008556
690.159485	734.110840	5860.924316	727.497864	-0.128988
690.486816	728.983948	5797.692871	734.556702	0.109944
690.814087	729.875671	5715.811035	731.881775	0.040235
691.141296	729.281250	5646.115234	737.157227	0.160184
691.468506	730.692871	5569.138184	727.869446	-0.058354
691.795715	731.287354	5477.150879	738.197510	0.145604
692.122803	723.188293	5426.401855	739.980774	0.357043
692.449829	724.302917	5351.579590	746.890930	0.488149
692.776855	727.126404	5293.325684	739.980774	0.281511
693.103821	731.956116	5222.218262	736.934387	0.110868
693.430664	730.321472	5187.519043	737.974609	0.171703
693.757568	715.758118	5141.524902	739.757874	0.542273
694.084351	718.433044	5102.367676	741.169617	0.518634
694.411133	715.832336	5063.507324	733.442200	0.405041
694.737854	733.442139	5029.922363	732.773438	-0.015564
695.064575	732.030334	5000.647461	729.281189	-0.064404
695.391174	740.798096	4969.588867	727.497864	-0.314516
695.717773	731.436035	4964.684570	721.553711	-0.233445
696.044250	732.624817	4979.173828	720.513489	-0.285204
696.370789	727.646545	4996.263184	722.965515	-0.109662
696.697205	724.897278	5021.006348	725.714661	0.019026
697.023621	723.411194	5030.071289	728.761047	0.124223
697.349915	720.513428	5075.098633	732.699158	0.279837
697.676208	726.606262	5149.698730	737.528809	0.246944
698.002380	725.789001	5251.270996	730.544373	0.105080
698.328674	726.680603	5366.588379	727.423645	0.016014
698.654724	729.355469	5492.976563	722.593933	-0.141941
698.980896	728.018066	5590.982422	730.024231	0.041254
699.306946	736.562927	5662.461426	734.853821	-0.034696
699.632935	728.761047	5681.037598	734.333801	0.112529
699.958862	728.315247	5703.253906	732.030457	0.074679
700.284729	717.838623	5687.427734	725.491760	0.153999
700.610596	721.702332	5653.174316	730.544250	0.179296
700.936340	725.640381	5583.701172	732.253235	0.136121
701.262146	728.835449	5480.568848	740.500916	0.245499
701.587830	733.442139	5373.721191	743.324463	0.212968
701.913513	738.420410	5235.221191	744.290344	0.130536
702.239075	737.083008	5101.327148	744.884766	0.178765
702.564697	728.092346	4960.449707	744.513245	0.387985
702.890137	722.816895	4831.608887	741.095276	0.444860
703.215698	727.423645	4738.433105	733.367859	0.148197
703.541016	738.643372	4636.043945	724.228577	-0.369857
703.866455	736.488586	4559.363281	729.132568	-0.192421
704.191711	744.884766	4485.283691	731.807434	-0.349624
704.517029	735.596924	4415.959473	735.819824	0.006056
704.842163	739.683594	4380.442871	732.104675	-0.208169
705.167419	728.315247	4325.756348	728.984070	0.018592
705.492493	736.340027	4305.471680	729.206970	-0.199854
705.817566	734.333801	4259.775391	734.705322	0.010538
706.142578	735.151123	4238.301758	730.172852	-0.142108
706.467590	734.631042	4205.607910	730.692932	-0.113458
706.792480	735.151062	4190.079590	729.875671	-0.152692
707.117371	742.729980	4191.268066	738.123230	-0.133586
707.442200	733.219238	4205.683105	742.729980	0.273890
707.766907	734.185242	4216.456543	741.615479	0.213373
708.091675	731.807617	4216.085449	743.770203	0.343330
708.416321	736.562927	4211.032715	737.751709	0.034215
708.741028	732.476257	4218.462891	734.779602	0.066074
709.065552	729.206970	4241.348145	730.767273	0.044426
709.390137	733.144958	4273.818359	730.395752	-0.077646
709.714600	734.631042	4283.106445	738.048889	0.096319
710.039063	735.596924	4304.728516	737.008728	0.039556
710.363403	729.058289	4325.384277	741.169678	0.336771
710.687744	725.937561	4378.956543	735.894104	0.272557
711.012085	721.256531	4427.847656	737.083008	0.426982
711.336304	723.931396	4490.931152	732.847717	0.236696
711.660461	724.897278	4521.320801	723.634216	-0.033270
711.984619	726.754883	4523.104004	721.182190	-0.146791
712.308716	727.795105	4500.664551	720.736389	-0.187091
712.632751	731.064453	4487.661621	731.881836	0.021759
712.956726	733.739441	4452.293457	735.522644	0.047954
713.280701	739.312073	4410.089355	738.940491	-0.010123
713.604553	737.528809	4348.046387	739.757996	0.061741
713.928467	730.172852	4312.009766	742.655762	0.348506
714.252258	722.816895	4271.960449	746.593811	0.669934
714.575989	720.959290	4228.419434	742.878601	0.624934
714.899719	727.126465	4174.921387	737.900391	0.312487
715.223267	730.024231	4140.519043	735.374023	0.156863
715.546936	734.705322	4120.234863	733.888000	-0.024142
715.870422	735.968445	4105.745605	732.179016	-0.112453
716.193970	735.002502	4083.751953	732.847717	-0.064346
716.517395	738.271790	4048.383789	728.315247	-0.300792
716.840820	735.968445	4015.616211	730.024231	-0.181246
717.164124	741.243958	3964.198486	725.789001	-0.479528
717.487488	738.346191	3932.322998	733.293518	-0.158194
717.810730	744.810486	3903.641846	737.157288	-0.242279
718.133972	735.522644	3874.738281	734.630920	-0.028406
718.457092	730.915833	3830.304932	730.098572	-0.026368
718.780212	724.377197	3763.061279	730.767273	0.210291
719.103210	728.538147	3703.990479	737.677429	0.307156
719.426208	732.550537	3652.795898	739.683594	0.244262
719.749207	732.401917	3608.660156	736.265686	0.134333
720.072083	726.754944	3566.456299	738.420410	0.410799
720.394958	724.600159	3530.716797	735.299805	0.381297
720.717773	723.411316	3480.710938	739.089172	0.568595
721.040527	726.457703	3445.120117	727.943665	0.054658
721.363281	729.058289	3402.618408	729.281189	0.008337
721.685913	734.259521	3378.544189	725.120300	-0.345622
722.008545	745.033447	3355.882568	724.080017	-0.802552
722.331055	740.129456	3315.535889	724.154297	-0.620297
722.653503	737.677490	3297.628906	725.194519	-0.487625
722.976013	726.011963	3269.616943	729.727051	0.146056
723.298401	726.457703	3283.214111	728.984070	0.098811
723.620789	725.863281	3269.022461	718.284424	-0.298010
723.943115	724.080078	3260.923828	720.959290	-0.123019
724.265381	723.114075	3234.694580	723.931396	0.032542
724.587585	720.216309	3229.493408	729.132568	0.355332
724.909790	727.869446	3236.998047	731.287354	0.136219
725.231873	734.259460	3247.251953	729.875671	-0.174445
725.553894	743.250183	3262.707031	734.556702	-0.345054
725.875916	778.766846	3315.907471	771.336487	-0.292863
726.197937	782.110413	3316.650391	779.584167	-0.099673
726.519775	777.503662	3319.696533	781.961853	0.175368
726.841675	741.243958	3276.155518	739.237793	-0.079141
727.163513	741.095398	3287.449463	730.172852	-0.428948
727.485291	733.367859	3302.012939	730.321472	-0.118599
727.806946	726.829285	3330.916748	734.556641	0.296739
728.128662	723.336975	3367.324951	735.745544	0.469313
728.450256	724.971680	3376.984131	736.934387	0.451080
728.771790	725.417480	3388.278564	737.751648	0.463192
729.093323	724.600159	3395.114258	742.804260	0.681670
729.414795	726.903564	3407.522705	740.055115	0.490616
729.736145	731.956116	3391.027588	740.649475	0.326932
730.057495	729.058350	3375.052002	736.785828	0.292044
730.378845	728.538269	3375.275146	737.825989	0.350912
730.700134	726.309082	3377.132813	735.076843	0.330756
731.021301	723.559875	3386.272217	737.231628	0.513452
731.342468	729.206848	3382.557373	735.225403	0.226828
731.663574	729.652649	3399.200928	729.949890	0.011135
731.984680	731.510254	3401.355713	732.030457	0.019484
732.305664	725.566101	3421.937500	727.200684	0.060622
732.626648	723.114075	3427.584717	730.767273	0.282983
732.947571	724.302917	3430.482422	726.754944	0.090608
733.268433	725.343201	3418.222412	736.562927	0.416644
733.589233	723.708496	3403.510498	735.968445	0.457495
733.909973	720.587830	3392.067627	726.383362	0.216941
734.230713	722.593933	3364.947266	726.086182	0.132164
734.551331	727.497864	3326.607422	726.903564	-0.022865
734.871948	732.327637	3286.037842	740.946777	0.337514
735.192505	732.179016	3237.369873	733.516418	0.053385
735.513062	731.510315	3201.258545	731.361633	-0.006020
735.833435	732.550537	3148.206299	728.612488	-0.163022
736.153931	731.361755	3111.203369	732.104736	0.031220
736.474304	728.092346	3060.305908	738.271790	0.436471
736.794617	716.278259	3017.804932	737.825989	0.936236
737.114807	716.946960	2986.597656	734.482422	0.772606
737.434998	726.234802	2989.421143	734.556702	0.367707
737.755188	739.906494	3001.904297	729.504150	-0.459874
738.075256	737.157288	3006.585205	727.646484	-0.419084
738.395325	735.225403	3008.219727	726.903503	-0.366121
738.715271	731.138733	3026.795898	725.491760	-0.245985
739.035278	729.727051	3055.922607	728.686829	-0.044718
739.355164	728.315247	3078.287354	725.937683	-0.101174
739.675049	725.417480	3079.327393	731.361633	0.252523
739.994873	734.631042	3077.916016	735.225403	0.025364
740.314636	733.219238	3065.135986	739.089111	0.251719
740.634277	732.178955	3046.931641	737.603088	0.234329
740.953979	729.652649	3016.913330	732.550537	0.126697
741.273499	721.182190	2984.888672	726.977844	0.256025
741.593140	720.587830	2941.644775	732.030457	0.515188
741.912598	723.262695	2904.939209	732.847717	0.439342
742.232117	726.457703	2861.100586	737.380188	0.511677
742.551453	738.866211	2839.850342	734.408142	-0.212190
742.870850	731.807434	2821.199951	738.643372	0.327173
743.190063	744.141785	2797.125977	733.962219	-0.495842
743.509338	741.169617	2759.305908	732.773438	-0.416036
743.828552	747.856934	2713.312256	730.172852	-0.899745
744.147705	730.767273	2698.006104	735.894104	0.260611
744.466797	726.680664	2672.594482	739.534973	0.660580
744.785828	727.572266	2651.269775	743.547363	0.830437
745.104858	731.361633	2620.582764	735.522644	0.220250
745.423706	731.287415	2606.316650	742.135559	0.578559
745.742615	728.018066	2599.034912	741.169617	0.702909
746.061401	737.454529	2585.511963	747.039551	0.518654
746.380249	736.414307	2584.620361	739.609192	0.172864
746.698975	736.265625	2578.750244	735.448303	-0.044360
747.017639	737.677429	2571.245850	736.042725	-0.089154
747.336304	738.643372	2564.409912	731.733215	-0.378480
747.654907	744.884827	2549.177979	728.315247	-0.918342
747.973389	743.398743	2549.103760	721.405090	-1.218009
748.291931	735.448425	2540.113037	724.971680	-0.580537
748.610352	731.658936	2549.549072	730.544434	-0.061307
748.928711	727.423645	2554.155762	731.881836	0.244053
749.247070	733.293518	2560.843262	730.172852	-0.170757
749.565308	724.302917	2562.329346	722.668274	-0.088935
749.883545	729.206848	2551.852783	724.228699	-0.273128
750.201782	726.086182	2543.976563	718.210144	-0.433252
750.519836	728.612488	2530.750732	726.754883	-0.103078
750.837952	727.943787	2518.639404	731.361633	0.190867
751.155884	729.355530	2506.156494	733.888000	0.255092
751.473877	730.470032	2492.410645	734.853943	0.248812
751.791809	731.287415	2487.803711	732.550476	0.071907
752.109619	732.253357	2479.333252	737.825989	0.318968
752.427490	728.612488	2463.358154	734.705261	0.351220
752.745300	727.349304	2453.104248	736.785706	0.546798
753.062988	726.160461	2453.921631	742.284180	0.933214
753.380615	730.767273	2458.082764	742.655701	0.688260
753.698303	729.949890	2453.847412	736.785828	0.396540
754.015808	735.894104	2434.528564	731.361755	-0.266823
754.333374	738.643372	2423.606201	728.984070	-0.573265
754.650757	736.414246	2414.689697	735.002502	-0.084119
754.968262	735.968445	2426.652588	733.219238	-0.162609
755.285583	727.943787	2426.875244	737.825989	0.581672
755.602905	725.491760	2424.720947	737.603210	0.712761
755.920105	720.439209	2411.940674	738.866272	1.089391
756.237305	727.423645	2412.832275	732.179016	0.282149
756.554443	727.349304	2395.742676	726.606262	-0.044536
756.871582	733.888000	2382.293945	726.234863	-0.464275
757.188599	737.825989	2368.473633	730.321472	-0.460217
757.505615	740.500916	2394.405273	736.785828	-0.224625
757.822510	739.460693	2415.656006	730.915833	-0.509777
758.139465	735.819824	2439.061035	726.754883	-0.532217
758.456238	738.643311	2438.243652	725.937561	-0.747573
758.773010	735.151123	2450.801025	724.451477	-0.623650
759.089783	732.253357	2455.927979	734.631042	0.137943
759.406433	730.395752	2475.097900	735.299622	0.281072
759.723145	733.293640	2480.001953	740.872375	0.433887
760.039673	731.287415	2491.593018	739.386414	0.460090
760.356201	732.624817	2484.534424	737.157288	0.258716
760.672668	735.002502	2485.797607	741.987000	0.398933
760.989136	735.596924	2488.323975	737.974609	0.135656
761.305481	731.733154	2497.686279	738.717712	0.395512
761.621826	728.092285	2497.611572	744.067444	0.902797
761.938049	734.259460	2508.905762	740.278015	0.339141
762.254333	733.145020	2542.564697	733.144958	-0.000003
762.570496	735.299744	2598.960449	728.612488	-0.358824
762.886597	730.024231	2685.671631	731.658875	0.083586
763.202637	736.860046	2799.652100	731.658875	-0.252142
763.518677	732.401917	2957.470947	733.739441	0.060112
763.834656	730.024231	3104.144531	729.058289	-0.040686
764.150574	725.863281	3232.911377	728.909668	0.121513
764.466370	726.680603	3284.031494	722.222473	-0.174326
764.782288	731.138733	3293.988281	727.200684	-0.153659
765.097961	735.522644	3266.793213	733.144958	-0.093932
765.413696	734.259521	3210.546631	737.157288	0.117021
765.729309	733.813721	3132.156982	741.021057	0.300513
766.044861	733.590820	3014.015625	735.671204	0.091228
766.360474	734.482422	2877.967041	730.321472	-0.194121
766.675903	734.482422	2734.563232	726.234680	-0.412370
766.991394	723.708496	2618.650879	731.213074	0.396032
767.306763	727.200684	2533.053955	730.024231	0.156355
767.622131	727.720886	2467.147705	727.795166	0.004270
767.937378	736.339905	2402.578369	723.188416	-0.789292
768.252625	736.711426	2339.718262	724.377258	-0.769439
768.567810	737.528809	2283.322510	721.033691	-1.067097
768.882996	733.813660	2235.768799	722.296814	-0.766790
769.197998	733.516418	2213.626709	725.714661	-0.527107
769.513062	724.674500	2189.032227	732.847839	0.558152
769.828064	727.275085	2166.295898	737.305908	0.697059
770.142944	725.566101	2135.162842	737.825989	0.869744
770.457825	727.274963	2105.516113	735.374023	0.587637
770.772705	727.795166	2072.228516	728.835388	0.077373
771.087402	735.225403	2040.724121	720.736511	-1.109836
771.402100	739.163513	2017.616089	715.906738	-1.819135
771.716736	741.689758	2010.185913	720.216309	-1.692827
772.031372	734.631042	1997.628540	729.355469	-0.417703
772.345947	733.813660	1981.727905	733.442200	-0.029766
772.660461	727.869446	1961.591797	733.442139	0.451697
772.974854	731.658875	1954.904663	737.528809	0.479865
773.289246	734.110901	1947.697266	736.934387	0.232656
773.603638	735.671204	1937.146118	739.237793	0.296851
773.917908	731.361633	1926.520874	739.237793	0.659005
774.232178	739.163513	1913.369263	740.278015	0.094915
774.546265	732.030457	1903.189819	737.825989	0.494854
774.860474	729.429749	1874.286011	733.813660	0.382922
775.174561	723.262695	1857.939453	740.575195	1.525765
775.488586	724.600098	1841.369995	748.599854	2.149033
775.802551	726.977844	1834.905640	744.884766	1.616253
776.116516	723.188416	1828.515625	741.020996	1.613331
776.430359	728.835388	1817.295898	736.339905	0.689462
776.744202	732.773438	1811.277344	737.751709	0.461590
777.057922	735.819824	1804.292969	732.253235	-0.333802
777.371704	738.048889	1801.618164	728.909668	-0.859297
777.685303	725.194519	1788.540649	723.708496	-0.139750
777.998962	722.445374	1781.407715	730.024170	0.715681
778.312500	723.114075	1785.568726	733.293518	0.958106
778.626038	733.887939	1793.741821	737.974609	0.385588
778.939453	731.881775	1786.311890	740.278015	0.796282
779.252869	730.024231	1766.473022	739.089172	0.874615
779.566223	723.336914	1767.810547	729.727051	0.611804
779.879578	726.606262	1774.869141	720.885010	-0.545784
780.192749	724.377258	1777.915527	713.677551	-1.015597
780.505920	729.950012	1768.553345	720.067688	-0.951501
780.819031	729.429871	1760.602905	723.931396	-0.533225
781.132141	728.389465	1753.766968	738.123230	0.949286
781.445190	725.566101	1736.306030	736.414246	1.073287
781.758118	722.965515	1725.829468	737.157288	1.415124
782.071045	724.971680	1720.999634	727.869446	0.290932
782.383911	720.959290	1714.683960	727.943787	0.702860
782.696838	727.943787	1703.538452	728.984070	0.106631
783.009583	735.076843	1694.399292	731.658875	-0.356290
783.322266	740.278015	1682.362183	733.293518	-0.741388
783.634888	737.825989	1662.969116	733.442139	-0.473856
783.947510	724.154297	1648.182983	735.374023	1.214218
784.260132	724.748718	1638.969360	739.460632	1.609230
784.572571	719.696228	1623.440063	737.603088	1.981409
784.885010	723.336975	1612.963501	736.488586	1.478330
785.197449	722.816833	1603.972778	732.401917	1.087785
785.509766	725.788879	1614.449585	732.253235	0.727427
785.822083	726.977783	1607.910767	728.463867	0.168694
786.134277	728.389587	1607.093628	730.098450	0.194475
786.446533	733.070618	1595.205078	730.618652	-0.284406
786.758606	732.476257	1590.301147	725.417480	-0.822869
787.070740	730.618652	1594.313477	727.646667	-0.344101
787.382690	730.618652	1614.598022	727.720886	-0.327809
787.694641	737.231628	1635.700073	733.442200	-0.421765
788.006653	743.101563	1661.706055	728.463867	-1.593471
788.318481	742.209961	1675.377808	722.148132	-2.149863
788.630310	735.151123	1701.309448	722.593994	-1.299697
788.942017	733.219238	1717.433105	726.234802	-0.709646
789.253784	731.584534	1740.838501	736.637146	0.500628
789.565430	736.414246	1741.284302	736.339905	-0.007398
789.877014	732.179016	1727.612671	738.791992	0.664331
790.188538	730.024231	1703.389771	736.785828	0.694662
790.500061	723.857117	1678.498413	736.637207	1.338732
790.811462	721.850891	1662.820679	734.928223	1.389772
791.122925	720.587708	1641.049805	728.166687	0.823389
791.434204	723.634216	1619.873535	734.779602	1.243572
791.745483	730.172852	1605.235962	733.219238	0.348133
792.056702	733.293518	1584.282593	741.095398	0.916801
792.367920	737.677429	1574.400391	734.110840	-0.426257
792.678955	732.773438	1548.171509	733.442139	0.082009
792.990112	731.436035	1549.731812	727.795166	-0.444933
793.301086	727.720886	1539.403809	727.200684	-0.064089
793.612122	730.915955	1535.540039	724.971680	-0.738764
793.922974	731.287415	1523.280151	734.259521	0.375269
794.233826	730.247070	1511.911743	736.191406	0.760471
794.544556	729.652649	1507.305054	741.243958	1.490551
794.855286	727.720886	1504.333008	735.819885	1.042863
795.166016	731.287415	1510.871582	737.083008	0.743421
795.476624	731.807556	1526.252319	735.225403	0.430218
795.787292	734.631042	1536.060181	735.374023	0.092707
796.097778	726.829163	1553.744263	739.237793	1.500593
796.408264	725.194519	1558.202515	730.692932	0.660067
796.718689	719.324707	1561.694702	726.606262	0.864413
797.029053	731.064514	1553.521118	717.541321	-1.644244
797.339355	734.036621	1551.515137	723.411316	-1.299766
797.649658	740.129456	1558.796875	724.823059	-1.869672
797.959839	732.476257	1556.047485	730.692932	-0.216536
798.270020	732.178955	1550.400757	733.813660	0.199787
798.580078	735.894104	1535.317017	727.349304	-1.068871
798.890137	735.968445	1532.345093	725.194519	-1.352868
799.200195	725.789001	1520.753784	717.689941	-1.018795
799.510071	725.566101	1501.955200	725.566101	0.000000
799.820007	720.439209	1484.494141	722.742615	0.301471
800.129883	729.652771	1479.367065	726.234802	-0.455903
800.439575	716.946960	1469.113403	723.114075	0.819914
800.749329	723.114075	1458.562378	729.504089	0.868860
801.058960	722.296692	1449.794556	726.606262	0.592383
801.368591	729.132629	1452.246704	723.634094	-0.760397
801.678162	727.869446	1456.110352	722.519592	-0.734627
801.987671	722.445313	1443.553223	726.903564	0.618250
802.297119	721.925293	1422.079712	730.990234	1.294706
802.606506	726.977844	1409.374023	727.126465	0.021779
802.915894	724.005676	1406.253296	729.206848	0.762358
803.225159	730.321472	1412.940430	731.510254	0.174150
803.534424	725.417480	1413.609253	732.624817	1.047286
803.843628	732.401855	1412.048828	731.881775	-0.076522
804.152771	739.609192	1409.671265	731.361633	-1.230865
804.461792	738.346130	1408.407837	731.510315	-1.020177
804.770874	741.169678	1407.813599	726.457764	-2.206862
805.079773	727.423645	1419.182007	720.736389	-0.966704
805.388733	736.860046	1425.274780	720.141907	-2.428498
805.697571	730.470032	1438.129028	727.126465	-0.472483
806.006470	730.767334	1442.141602	733.293640	0.355130
806.315125	724.971680	1454.847290	732.624817	1.048554
806.623901	731.733215	1455.293091	733.590820	0.256731
806.932495	735.374023	1461.683228	734.036560	-0.184145
807.241150	726.011902	1450.091919	732.847717	0.944069
807.549622	725.491760	1441.250000	727.052063	0.217993
807.858154	727.572205	1424.754761	728.761047	0.170521
808.166565	734.779602	1409.968384	730.470032	-0.638276
808.474915	732.624817	1413.832153	730.692932	-0.283597
808.783264	725.640381	1414.203735	723.634277	-0.291346
809.091492	728.240967	1421.262329	721.553772	-0.964933
809.399719	729.801331	1400.234741	721.702393	-1.208015
809.707825	733.145020	1393.918945	721.776611	-1.720469
810.015930	730.321472	1376.086304	726.086182	-0.655856
810.323975	728.315247	1369.101929	731.436035	0.487025
810.632080	730.915833	1354.464355	734.482422	0.571983
810.939880	732.253235	1349.783203	730.692932	-0.252668
811.247864	728.315247	1344.061890	728.686829	0.060347
811.555664	722.816833	1336.334473	722.891174	0.012117
811.863464	719.993347	1326.823608	723.857117	0.636713
812.171143	716.426819	1325.932007	725.343079	1.462869
812.478882	718.210144	1319.913574	733.739441	2.580889
812.786438	722.816895	1317.535767	738.197571	2.586210
813.094055	737.157288	1320.805176	735.151123	-0.343729
813.401489	741.764099	1317.610107	737.083008	-0.812907
813.708984	743.844543	1318.798950	735.002502	-1.537868
814.016357	742.804382	1313.077759	734.482422	-1.459293
814.323730	738.717712	1307.579346	725.714661	-2.285802
814.630981	730.693054	1306.316162	726.011902	-0.813232
814.938232	726.977844	1298.811523	728.612549	0.285871
815.245361	728.538147	1302.823853	730.841614	0.401101
815.552490	731.138733	1301.412109	725.343201	-1.016273
815.859619	729.058350	1308.322266	728.686768	-0.064147
816.166565	730.395752	1304.904419	733.516418	0.543189
816.473572	736.191345	1305.127319	729.504089	-1.175397
816.780457	742.952881	1301.412109	725.491699	-3.126671
817.087341	738.791931	1308.916870	719.993347	-3.297274
817.394043	734.259460	1314.712402	720.439148	-2.380953
817.700806	728.315247	1325.337646	720.290527	-1.344124
818.007507	726.011902	1326.675171	723.857117	-0.358734
818.314209	726.680603	1329.052734	733.590820	1.147167
818.620667	725.937561	1338.860718	730.024231	0.666751
818.927246	725.640381	1356.619141	732.179016	1.036269
819.233704	732.327637	1381.139038	730.247131	-0.320664
819.540161	731.510254	1404.990234	735.819824	0.639896
819.846497	729.281189	1458.785278	731.658875	0.325932
820.152832	730.692932	1510.276978	737.528809	0.876862
820.458984	735.225403	1570.313843	741.838379	0.791889
820.765259	736.191345	1639.860962	743.695984	0.830463
821.071350	727.275085	1732.144897	740.872375	1.353140
821.377502	726.160461	1901.257935	738.494812	1.049645
821.683472	722.222473	2209.242920	742.729980	1.379101
821.989441	721.479431	2762.203857	744.141785	1.110505
822.295349	722.073914	3515.633057	740.129395	0.646325
822.601196	733.590759	4360.826660	735.894226	0.063505
822.907043	730.915833	5079.779785	732.699158	0.041007
823.212769	720.736389	5487.181641	735.671204	0.313332
823.518494	721.033630	5530.574707	737.157288	0.335243
823.824097	719.324646	5268.434082	734.928223	0.343003
824.129700	722.222412	4872.549316	730.618652	0.202303
824.435242	720.439209	4441.668457	729.504150	0.243601
824.740723	725.045959	4063.838867	724.674500	-0.011126
825.046082	729.206970	3739.433350	719.101746	-0.335697
825.351501	727.795166	3433.231689	715.386536	-0.458655
825.656799	725.863281	3123.240479	720.736389	-0.213854
825.962036	728.612488	2824.469482	724.302917	-0.205623
826.267212	730.321472	2594.056641	727.126465	-0.171430
826.572449	733.293640	2475.840820	728.463867	-0.277167
826.877502	732.773438	2491.370361	727.052063	-0.325337
827.182495	734.482422	2605.722168	727.795166	-0.357370
827.487488	737.825989	2756.630859	727.423584	-0.515275
827.792419	737.008606	2870.537109	737.825989	0.038311
828.097290	735.522644	2899.217773	738.048889	0.116756
828.402100	737.008606	2829.967529	746.445129	0.450870
828.706848	742.358459	2685.300293	740.946777	-0.072657
829.011597	736.414246	2495.233887	739.534973	0.177433
829.316223	725.120300	2328.126953	734.928223	0.611845
829.620789	717.095520	2177.441162	733.145020	1.099021
829.925354	726.606262	2053.950195	732.550598	0.447837
830.229797	725.120178	1919.165039	729.281250	0.348485
830.534302	728.240906	1793.370483	729.504150	0.118600
830.838562	719.473145	1672.479980	732.476135	1.364417
831.142944	722.222412	1570.982422	730.767273	1.006746
831.447144	722.668152	1489.843750	732.401855	1.268771
831.751404	725.640320	1435.751587	730.915833	0.742914
832.055542	732.847717	1400.457642	732.327637	-0.077902
832.359619	727.349304	1393.399048	725.491699	-0.278899
832.663635	722.965515	1400.383423	727.795166	0.712950
832.967651	716.872559	1439.912476	723.708496	0.945444
833.271545	724.822998	1508.122192	731.733154	0.882186
833.575439	731.733154	1621.359497	723.708496	-0.902026
833.879211	732.996338	1760.900024	736.042725	0.296369
834.183044	726.160461	1896.205444	734.631042	0.723953
834.486694	723.114075	1999.486328	736.562805	1.053668
834.790344	732.773438	2028.092773	734.779602	0.154878
835.093933	742.061279	2003.498535	727.497986	-1.154500
835.397522	744.141785	1932.613892	732.104736	-1.012817
835.700928	738.717590	1853.853027	725.789001	-1.159374
836.004395	735.225403	1773.754517	737.900330	0.257569
836.307739	732.104736	1708.516724	735.225403	0.319605
836.611023	729.949951	1646.325317	735.671204	0.624335
836.914307	723.114075	1574.474609	728.761047	0.663288
837.217529	724.600098	1496.679688	730.470032	0.760276
837.520691	733.219238	1420.519409	730.544250	-0.389202
837.823730	737.380188	1356.247559	726.531982	-1.752913
838.126831	729.429871	1298.811523	717.467041	-2.101021
838.429749	715.832458	1248.211304	709.145203	-1.256109
838.732727	714.346375	1214.700806	709.368103	-0.994949
839.035522	720.587830	1198.948608	718.804504	-0.372799
839.338379	721.999512	1196.050903	723.931396	0.407526
839.641113	724.005676	1200.211792	737.825989	2.902170
839.943848	728.538147	1220.422241	740.723816	2.477346
840.246460	724.005676	1252.000732	751.646301	5.235016
840.549072	720.439209	1287.071655	739.683594	3.396273
840.851563	723.114075	1303.195313	732.401917	1.601128
841.154053	735.671204	1308.099487	729.801331	-1.025434
841.456482	736.711426	1282.242065	737.825989	0.204308
841.758850	732.773438	1260.248535	737.528809	0.901535
842.061157	734.036560	1228.669800	734.185242	0.030059
842.363403	731.510254	1212.620483	731.064453	-0.092661
842.665588	726.829285	1185.648438	738.569092	2.558700
842.967712	718.507324	1161.500122	739.906494	4.830591
843.269775	719.101746	1142.924438	743.027161	5.645147
843.571777	724.005676	1120.410767	738.048889	3.542642
843.873840	725.120178	1101.537964	737.677429	3.335988
844.175659	725.640381	1079.990112	734.779541	2.579136
844.477600	724.674377	1067.507202	736.860046	3.554405
844.779297	724.674377	1061.488647	739.460693	4.390050
845.081116	727.943665	1055.024292	739.980774	3.680166
845.382751	728.686707	1048.337036	738.197571	2.975396
845.684387	734.259460	1040.015137	733.888000	-0.121489
845.985962	730.024231	1022.851318	732.847839	0.964258
846.287537	730.024231	1005.092957	729.949951	-0.027004
846.588989	728.835449	999.371582	731.213074	0.878857
846.890381	735.819824	1004.795715	733.442200	-0.883955
847.191711	738.569031	1008.139343	739.757874	0.441014
847.493042	740.872375	1000.411804	731.287354	-3.693089
847.794250	735.596924	991.198303	728.761047	-2.674429
848.095459	734.036621	987.111633	728.018066	-2.378170
848.396606	723.188293	980.424377	735.522644	4.794953
848.697693	719.473206	975.669128	738.420471	7.395616
848.998657	716.798340	977.303711	733.070618	6.246427
849.299622	722.073914	989.563721	735.299805	4.944447
849.600464	721.925293	986.963074	732.773438	4.093056
849.901367	716.055359	981.316101	737.603088	8.123226
850.202087	716.649719	960.511230	734.928223	7.495444
850.502808	718.210144	961.997314	732.773438	5.973773
850.803467	723.411316	962.888977	729.281250	2.451141
851.104065	722.891174	965.712402	720.810608	-0.856831
851.404663	722.445374	958.728027	716.872742	-2.358460
851.705139	721.702332	952.338074	716.426941	-2.287326
852.005615	722.816895	955.978821	728.909668	2.613108
852.306030	727.943787	956.127441	729.875671	0.846636
852.606384	733.590637	959.025208	723.559875	-4.449522
852.906616	730.098572	950.629089	715.015137	-6.839613
853.206909	728.761047	951.223450	715.609558	-5.911781
853.506958	730.544373	950.926270	730.915833	0.168553
853.807129	737.900330	955.533020	735.819824	-0.955971
854.107178	741.689758	958.356506	745.256287	1.646089
854.407166	745.181946	959.248108	742.804260	-1.110725
854.707092	739.460693	964.597961	739.237793	-0.099006
855.007019	742.730042	960.511230	729.355469	-6.141289
855.306763	734.928223	953.006653	725.120178	-4.497485
855.606567	736.191345	948.845703	728.761047	-3.494073
855.906250	724.897278	940.003723	735.819824	5.077740
856.205933	723.262695	937.700378	737.528809	6.652802
856.505493	718.953125	928.189636	736.488586	8.380689
856.805054	729.281250	944.090332	737.157288	3.666529
857.104492	730.841614	956.498840	742.952881	5.367108
857.403931	735.151123	964.597900	745.404846	4.468890
857.703308	728.538147	960.659851	742.581360	6.049935
858.002563	728.463867	951.372070	733.293640	2.166709
858.301819	733.887939	955.012878	725.863281	-3.629015
858.601013	745.033386	951.817871	722.593933	-10.851614
858.900208	747.856873	955.532959	727.572266	-9.767426
859.199219	746.519470	952.709412	732.550537	-6.774789
859.498291	740.129395	948.325623	732.624817	-3.604569
859.797302	734.556702	937.328796	730.247070	-2.125357
860.096191	734.928223	937.700378	732.996277	-0.952767
860.395020	729.429749	938.591980	734.853943	2.593295
860.693787	735.671204	945.427734	739.460632	1.806584
860.992554	726.160461	943.050110	731.213074	2.329577
861.291260	725.566101	935.174072	729.652649	1.949615
861.589844	722.742493	937.551758	723.114075	0.172982
861.888428	726.160400	937.551758	724.228577	-0.913861
862.186890	728.761047	944.164734	732.699036	1.828190
862.485413	730.172852	936.437256	728.835388	-0.648422
862.783813	730.841553	930.418701	734.928223	2.047664
863.082153	735.002502	931.904724	719.621826	-7.811327
863.380371	739.237793	938.814880	723.114075	-8.078942
863.678589	743.993164	946.319519	713.454773	-15.093630
863.976746	738.717590	948.845764	724.377258	-6.824564
864.274902	728.463867	948.994385	723.931458	-2.055230
864.572937	724.451477	956.573242	726.086243	0.704271
864.870911	729.875671	958.802246	721.256531	-3.765024
865.168884	737.751709	959.173828	724.302917	-6.073825
865.466736	738.346191	943.198730	722.148132	-7.907180
865.764587	738.791992	939.483582	721.330811	-8.700505
866.062317	735.522644	942.975830	726.160461	-4.512913
866.360107	731.658875	951.669250	731.733154	0.033762
866.657715	726.531921	953.824036	733.144836	2.909434
866.955322	725.788879	950.183167	731.510254	2.549697
867.252808	733.144958	948.325623	734.853821	0.794152
867.550293	731.807434	945.725037	740.723816	4.168139
867.847717	728.761047	942.752930	732.550476	1.770828
868.145081	726.011902	941.341125	731.881775	2.725999
868.442383	724.600159	944.610535	723.708496	-0.405282
868.739624	722.519714	947.211121	724.525879	0.892853
869.036804	721.330811	949.960266	719.696106	-0.715002
869.333984	725.937561	948.771484	731.287354	2.400798
869.631042	728.909668	949.291565	734.185120	2.393777
869.928101	731.138733	942.530029	729.949951	-0.562361
870.224976	732.624756	946.839600	718.804504	-6.451584
870.521851	732.104675	945.279236	718.210144	-6.517912
870.818726	731.956116	945.353516	720.290527	-5.466603
871.115479	728.612488	941.638367	723.039795	-2.615970
871.412231	729.875671	943.867432	724.228699	-2.638874
871.708862	729.058289	945.056335	736.191345	3.302371
872.005493	734.259521	950.554688	737.380188	1.442781
872.302063	736.265625	951.743469	736.860168	0.275919
872.598572	732.179016	955.978821	726.977844	-2.324029
872.895020	731.584534	949.440186	724.971680	-3.035429
873.191406	733.590820	951.372070	726.977783	-3.036550
873.487671	735.448425	953.972656	729.801331	-2.584196
873.783997	738.271912	959.694031	732.179016	-2.751710
874.080200	737.603088	954.418457	729.281250	-3.838214
874.376343	741.318298	958.430725	730.172852	-5.133491
874.672424	738.643311	962.294495	726.531982	-5.415276
874.968445	734.408020	968.164368	729.726990	-2.002525
875.264465	734.779541	964.746521	726.011902	-3.812564
875.560364	732.253357	965.266602	727.349304	-2.104624
875.856201	723.336975	964.969421	722.816833	-0.215261
876.152039	723.559875	971.582336	723.708496	0.059922
876.447754	723.559875	971.136536	720.662109	-1.170452
876.743469	738.271790	975.594727	717.689941	-8.672507
877.039063	740.649597	967.347168	720.439148	-8.915159
877.334595	741.243958	966.826965	725.789001	-6.851117
877.630127	731.658936	967.347168	731.881836	0.094574
877.925537	731.584656	968.313049	730.024231	-0.659163
878.221008	737.231628	971.136536	733.442200	-1.620072
878.516296	739.980774	974.480164	733.590759	-2.724960
878.811646	730.544250	990.306641	734.408020	1.487424
879.106812	727.274963	1008.956604	735.076843	2.769751
879.401978	729.652649	1023.445618	735.151062	1.871526
879.697083	739.014832	1041.352661	732.476257	-2.162672
879.992126	735.968445	1061.860229	729.281250	-2.051968
880.287109	730.395752	1097.822632	727.423645	-0.808897
880.582031	720.885071	1159.345337	735.225403	3.270612
880.876892	723.857117	1284.842651	730.767273	1.231789
881.171753	727.720886	1501.955078	731.956055	0.547014
881.466492	735.225403	1829.853149	735.225403	0.000000
881.761230	740.129395	2233.837158	741.615417	0.099486
882.055786	737.083008	2622.142822	742.061218	0.264088
882.350403	738.197510	2878.784912	735.819824	-0.111076
882.644958	726.680664	2955.093750	735.299622	0.386776
882.939453	728.761169	2904.939209	731.658875	0.133156
883.233826	723.708557	2787.094971	733.962219	0.496934
883.528137	724.971680	2654.316162	733.813660	0.458289
883.822449	728.761047	2529.115967	732.996338	0.235248
884.116577	732.996338	2414.615479	732.847717	-0.008838
884.410828	737.231628	2298.406006	732.104736	-0.328400
884.704956	739.089172	2149.206299	732.179016	-0.490041
884.999023	737.528809	1969.913696	726.457703	-0.898348
885.292969	732.401917	1764.838257	720.513489	-1.151493
885.586914	725.714661	1573.285767	724.302917	-0.166563
885.880798	723.857117	1439.095093	725.863281	0.280489
886.174622	726.309082	1341.758545	729.801331	0.567431
886.468384	735.374023	1286.328613	730.767273	-0.836140
886.762085	736.191406	1219.901978	728.835449	-1.520735
887.055664	733.665039	1177.846680	729.429871	-0.953477
887.349304	728.538269	1149.017212	728.686829	0.035331
887.642822	728.686829	1127.989624	734.482422	1.451428
887.936340	734.408020	1114.020752	729.801270	-1.213539
888.229736	730.172852	1076.943726	730.544373	0.107137
888.523071	723.114075	1059.333984	722.445313	-0.198906
888.816284	718.061523	1041.204102	733.442139	4.759699
889.109619	727.869446	1032.139038	725.937683	-0.634885
889.402710	740.872375	1012.968994	734.110901	-2.484954
889.695862	740.872375	992.238586	726.011902	-5.911882
889.988892	731.361633	978.864075	732.030457	0.270229
890.281921	718.210083	973.217102	729.578430	4.458053
>>>>>End Processed Spectral Data<<<<<
