Jaz Data File
++++++++++++++++++++++++++++++++++++
Date: Fri Jun 04 14:40:02 2021
User: jaz
Dark Spectrum Present: Yes
Reference Spectrum Present: Yes
Processed Spectrum Present: Yes
Spectrometers: JAZA3586
Integration Time (usec): 48700 (JAZA3586)
Spectra Averaged: 10 (JAZA3586)
Boxcar Smoothing: 1 (JAZA3586)
Correct for Electrical Dark: No (JAZA3586)
Strobe/Lamp Enabled: Yes (JAZA3586)
Correct for Detector Non-linearity: No (JAZA3586)
Correct for Stray Light: No (JAZA3586)
Number of Pixels in Processed Spectrum: 2048
>>>>>Begin Processed Spectral Data<<<<<
W	D	R	S	P
191.335022	0.000000	0.000000	0.000000	0.000000
191.713211	285.396759	276.108887	276.777618	92.799950
192.091385	568.861633	553.852478	552.292114	110.396080
192.469528	852.549500	835.682617	829.515564	136.563095
192.847641	856.413147	848.388489	838.580505	222.223068
193.225739	861.539978	859.905334	844.078918	1068.187622
193.603790	859.831055	868.004395	853.812561	-73.635674
193.981842	860.648376	872.091003	850.097412	-92.207535
194.359863	872.536865	876.772156	865.849609	-157.893677
194.737854	888.140442	882.121887	869.713379	306.170898
195.115829	894.010254	882.196228	873.725769	171.698334
195.493774	891.632629	883.236511	871.273682	242.480484
195.871704	889.626465	885.911316	866.221191	629.995544
196.249603	890.666687	886.431458	871.793884	445.614655
196.627457	879.967102	886.802979	865.626709	-209.781342
197.005310	885.539856	885.094055	872.982666	2816.771729
197.383133	886.505676	886.357178	868.970276	11808.466797
197.760910	889.032043	888.437683	870.753601	3075.313232
198.138687	880.858704	887.248779	867.261414	-212.787628
198.516449	869.638977	883.013611	862.729004	-51.664764
198.894180	870.604980	874.394470	864.958008	-149.016708
199.271866	872.239563	868.598877	864.512207	212.250000
199.649536	870.010559	866.518372	868.970276	29.788870
200.027191	879.818542	869.936279	861.465759	185.714371
200.404816	881.601746	872.462585	853.292480	309.757843
200.782410	893.267334	885.242615	856.264648	461.108795
201.159988	885.465637	894.530457	865.552429	-219.675735
201.537537	888.437683	898.319885	869.267578	-193.986160
201.915070	885.911377	897.948425	872.982666	-107.407654
202.292557	885.539795	901.663574	863.843445	-134.561188
202.670029	878.406738	907.533386	868.227295	-34.948902
203.047485	867.335632	917.044128	856.858948	-21.076244
203.424911	861.317139	918.381653	856.190247	-8.984379
203.802292	861.688660	923.657166	849.131531	-20.263727
204.179688	871.868164	911.545715	851.806396	-50.562012
204.557037	874.617371	907.459167	854.852844	-60.181015
204.934357	872.388184	900.251709	854.481262	-64.266533
205.311661	866.295410	897.948425	852.995300	-42.018459
205.688934	860.945618	905.527161	851.955017	-20.166643
206.066177	855.744446	908.202148	852.698059	-5.807320
206.443390	858.344971	914.815125	855.075684	-5.789407
206.820587	861.168457	906.864746	851.063293	-22.113750
207.197769	866.889832	910.356934	852.177917	-33.846088
207.574921	863.397644	914.666504	845.342041	-35.217484
207.952042	866.146790	911.471436	850.246094	-35.081787
208.329147	865.923889	909.242371	852.103577	-31.903963
208.706223	884.425293	920.833679	864.883606	-53.673588
209.083267	882.939270	932.945007	869.118896	-27.637575
209.460297	879.892883	929.155579	872.982666	-14.027282
209.837280	856.710388	910.654114	863.397644	12.396726
210.214264	854.704285	898.914368	849.205750	-12.437287
210.591217	851.955078	900.177490	842.295593	-20.031111
210.968124	856.487488	907.533508	843.558777	-25.327559
211.345016	857.230469	912.140320	854.109680	-5.683476
211.721893	859.385254	912.883240	852.623718	-12.638860
212.098724	857.973450	907.533447	852.326477	-11.394215
212.475555	858.939453	910.951355	859.162354	0.428557
212.852356	854.258362	917.192810	856.858948	4.132214
213.229126	857.676270	925.366150	859.756836	3.073674
213.605865	854.332703	926.777832	851.286316	-4.205095
213.982590	853.069519	917.564270	857.379089	6.682048
214.359283	853.292480	909.390930	849.800293	-6.225105
214.735931	855.224304	903.149597	846.530945	-18.139397
215.112579	867.112793	900.920471	838.357605	-85.055199
215.489197	868.673096	903.818298	835.682800	-93.868561
215.865799	873.651428	898.988586	838.060364	-140.469833
216.242355	866.072510	905.527283	842.147156	-60.639950
216.618896	859.608154	902.109375	848.611389	-25.873999
216.995407	854.704163	903.669739	841.998474	-25.948206
217.371902	855.670166	900.623352	842.072754	-30.247938
217.748367	856.487488	909.168152	837.465881	-36.107376
218.124802	854.184082	913.403381	837.168762	-28.732727
218.501236	850.766113	919.496277	832.116211	-27.134960
218.877609	851.806396	911.917297	832.562012	-32.014801
219.253983	854.629883	916.969910	838.506165	-25.864151
219.630295	855.893066	918.084473	850.097412	-9.319059
220.006592	861.317200	922.542664	854.852844	-10.558279
220.382889	863.026123	921.948181	858.122131	-8.322845
220.759140	865.478088	920.313477	858.122131	-13.414617
221.135391	861.391418	917.861511	857.379089	-7.105228
221.511581	855.744385	909.391052	850.023132	-10.664693
221.887772	853.218201	905.601563	842.592834	-20.283857
222.263931	848.239929	907.087646	842.444275	-9.848562
222.640060	851.360596	910.877136	846.233704	-8.614231
223.016159	853.069519	914.369385	844.599121	-13.817971
223.392212	861.317139	915.112305	850.989075	-19.198870
223.768265	863.471985	921.799561	854.258362	-15.796342
224.144302	863.694824	931.607605	859.905457	-5.579756
224.520294	852.475098	937.551758	852.846619	0.436690
224.896286	850.617493	936.288574	841.403992	-10.754505
225.272217	851.657715	923.359863	843.261536	-11.709802
225.648148	861.762939	915.855286	840.289490	-39.697762
226.024048	861.317078	916.152527	848.685730	-23.035004
226.399902	863.249023	924.400146	844.004578	-31.470306
226.775772	867.930115	928.783997	853.292480	-24.053740
227.151581	864.437805	929.452698	850.840515	-20.914116
227.527374	856.264465	936.882996	851.583496	-5.806319
227.903137	852.400818	950.406067	849.131531	-3.335829
228.278870	856.487488	964.077820	848.760010	-7.182316
228.654572	859.236633	970.393555	850.840515	-7.553392
229.030273	850.097412	975.966248	846.159424	-3.128644
229.405930	849.577332	980.572998	846.159424	-2.609176
229.781555	850.617615	984.436768	843.038635	-5.663599
230.157181	855.075745	980.127136	848.611328	-5.169408
230.532761	863.917725	986.740051	852.103577	-9.618893
230.908325	863.694824	981.018799	861.540039	-1.836611
231.283859	870.604980	986.368652	868.153015	-2.118078
231.659332	870.902161	977.155090	870.604980	-0.279691
232.034821	873.131287	977.972412	867.484192	-5.386335
232.410263	871.942383	967.124207	853.663879	-19.203775
232.785690	864.289246	970.244934	845.416321	-17.812092
233.161087	872.908386	965.935364	843.484558	-31.629351
233.536469	869.044617	972.548340	842.741516	-25.412710
233.911804	868.970398	976.634949	848.611389	-18.909668
234.287140	857.007568	989.192139	846.976746	-7.588498
234.662430	855.967346	1003.012390	854.035400	-1.313846
235.037704	856.115906	1002.269348	849.577332	-4.473773
235.412933	861.094238	997.142578	850.914734	-7.482270
235.788162	862.506042	987.408875	848.091248	-11.540807
236.163345	858.939453	990.009460	856.487488	-1.870730
236.538513	860.425476	1001.006348	862.357422	1.374259
236.913635	859.682434	1002.863831	862.134521	1.712574
237.288742	863.694824	1007.693542	858.642273	-3.508747
237.663834	862.728943	1003.755432	849.354431	-9.483687
238.038879	861.985840	1017.278564	851.806458	-6.554964
238.413910	857.750671	1017.798645	852.400879	-3.342618
238.788910	860.202637	1031.098755	847.942688	-7.173919
239.163879	856.338867	1029.761353	850.543213	-3.341928
239.538834	858.790833	1047.668335	849.428711	-4.956716
239.913757	850.914734	1058.145020	861.019836	4.876267
240.288651	856.636047	1068.175903	861.837219	2.458719
240.663528	854.035461	1081.476196	862.431641	3.691590
241.038361	858.865051	1105.698853	863.769043	1.986759
241.413177	860.574036	1145.450806	857.973450	-0.912881
241.787979	862.208740	1179.407104	861.763000	-0.140524
242.162735	861.911621	1210.762817	852.475159	-2.705011
242.537476	865.478088	1226.069214	856.933289	-2.369664
242.912170	863.917725	1236.174316	861.168457	-0.738541
243.286865	863.546204	1226.217651	865.849609	0.635122
243.661514	860.499756	1218.267334	866.889893	1.786114
244.036148	862.580261	1204.224121	863.917786	0.391497
244.410751	863.620422	1188.323242	868.895996	1.624739
244.785339	865.329529	1190.626831	870.604980	1.621732
245.159882	859.533875	1193.450317	867.855774	2.492210
245.534378	858.196472	1231.196045	867.187073	2.410352
245.908890	851.583496	1279.269897	861.391418	2.293251
246.283356	858.047852	1364.495239	862.357422	0.850941
246.657791	859.979675	1436.643188	865.329529	0.927725
247.032196	863.397522	1490.809937	873.651428	1.634317
247.406586	861.019836	1516.295532	880.487305	2.970882
247.780960	856.190247	1524.691772	881.824707	3.834615
248.155289	857.156250	1506.190430	874.245789	2.633072
248.529602	853.143860	1454.029907	866.221130	2.176331
248.903870	858.419373	1390.500977	853.069519	-1.005457
249.278122	856.784668	1344.953491	852.029297	-0.974124
249.652344	862.208801	1310.179810	850.543274	-2.604081
250.026550	856.636047	1302.749634	856.264587	-0.083266
250.400711	860.425476	1289.598145	866.741211	1.471607
250.774857	862.654541	1293.536011	867.484314	1.120905
251.148987	868.895996	1305.870239	867.855774	-0.238051
251.523071	866.444031	1334.402466	856.561707	-2.111795
251.897125	868.450195	1356.767700	865.106628	-0.684712
252.271164	865.552429	1366.798462	872.239685	1.334126
252.645187	859.088074	1370.736450	880.338684	4.153362
253.019165	858.122070	1373.485718	880.115723	4.267599
253.393112	855.893066	1350.749146	876.177734	4.099104
253.767044	854.704163	1323.257202	877.515137	4.868387
254.140930	847.571228	1291.529907	879.967102	7.297047
254.514801	849.725891	1287.740356	880.338684	6.988991
254.888657	850.766113	1286.180054	876.177734	5.836198
255.262466	856.636047	1296.582397	866.815613	2.313820
255.636276	861.317139	1312.780518	863.769104	0.543115
256.010010	866.444092	1328.532715	866.072571	-0.080400
256.383759	864.512207	1350.303345	869.341858	0.994183
256.757446	855.521484	1385.819946	869.713379	2.676209
257.131134	860.425476	1429.064331	865.403809	0.875482
257.504791	864.363525	1475.726440	867.632874	0.534764
257.878418	872.016785	1532.791016	872.982666	0.146174
258.252014	863.026123	1620.393677	884.648193	2.854898
258.625580	864.437805	1738.757935	892.524231	3.212373
258.999115	860.425476	1871.165405	901.812073	4.094683
259.372650	865.626648	1995.250977	909.836731	3.913698
259.746124	860.128235	2099.052002	909.836731	4.012232
260.119598	859.236633	2145.416748	906.716064	3.691507
260.493042	856.561768	2131.002197	899.657410	3.381534
260.866425	855.595886	2069.850830	896.982422	3.408390
261.239838	853.366699	1969.690796	896.016541	3.820561
261.613159	851.806396	1870.570923	888.363281	3.588355
261.986511	851.955017	1784.974243	883.459290	3.376594
262.359802	864.437805	1743.141968	881.453186	1.936417
262.733063	864.289246	1725.680664	884.871094	2.389372
263.106293	868.301575	1710.448608	881.155945	1.526381
263.479523	864.512146	1688.900757	879.967102	1.874717
263.852692	868.227234	1670.919556	879.818542	1.444054
264.225861	865.923828	1669.210571	882.419128	2.053476
264.598969	859.087952	1683.105103	882.047607	2.786308
264.972076	858.939453	1713.123535	884.871094	3.035837
265.345154	867.261414	1753.024048	885.539856	2.063582
265.718201	872.611145	1803.921509	885.242615	1.356312
266.091217	875.880554	1864.998169	893.118652	1.742775
266.464203	868.375916	1914.335327	902.555176	3.267742
266.837158	861.242920	1953.121216	907.682129	4.253149
267.210114	855.670166	1975.709351	900.326111	3.986999
267.583038	853.961182	1996.662720	893.118652	3.426745
267.955902	854.778503	2018.136230	893.713135	3.346746
268.328766	856.636047	2027.572632	899.731628	3.680437
268.701569	859.831055	2039.089478	899.954590	3.402438
269.074371	864.735046	2050.458008	894.084656	2.475250
269.447144	863.546204	2079.658936	887.991882	2.010149
269.819885	856.636047	2144.970947	893.638855	2.872142
270.192596	853.886902	2249.366211	902.257996	3.466271
270.565277	855.818787	2384.894287	910.134033	3.552163
270.937927	861.242859	2497.091553	920.462097	3.620093
271.310577	858.716553	2576.075195	930.344421	4.170816
271.683136	853.738281	2623.034424	930.121399	4.317147
272.055725	859.088074	2629.201660	925.588928	3.756870
272.428284	860.128357	2606.910889	914.220642	3.096681
272.800812	864.363586	2559.728760	916.523987	3.076647
273.173279	848.908630	2499.766602	917.341370	4.145283
273.545776	847.645447	2463.878418	919.198914	4.427176
273.918152	844.524719	2429.104492	917.489990	4.604708
274.290558	858.047852	2429.698975	908.350769	3.200641
274.662964	857.676270	2432.225342	911.768616	3.435418
275.035278	861.614319	2451.989990	908.870850	2.971407
275.407593	859.979675	2486.540771	909.539551	3.046911
275.779907	866.072510	2536.620605	913.626221	2.846593
276.152161	861.465759	2573.326172	914.815125	3.116456
276.524384	855.670105	2602.006836	928.635437	4.178194
276.896606	854.555481	2617.090576	920.759338	3.756172
277.268799	860.053955	2636.557617	924.623047	3.634616
277.640930	862.728943	2650.749512	922.765442	3.357708
278.013031	854.035461	2660.928955	920.907959	3.700965
278.385162	848.239929	2669.622314	915.632385	3.700072
278.757233	847.719727	2690.427490	905.452942	3.133064
279.129272	855.595886	2722.303223	920.164856	3.458977
279.501282	857.527649	2758.414063	931.458801	3.889299
279.873230	855.149963	2824.989502	943.050110	4.462300
280.245178	857.899231	2913.632568	934.579590	3.730073
280.617126	861.242859	3045.148438	930.492981	3.170930
280.988983	859.756836	3160.763672	928.040955	2.967576
281.360870	855.595886	3264.936279	937.700378	3.407758
281.732697	855.149963	3330.099609	945.576477	3.653671
282.104492	860.722717	3359.523438	957.687805	3.880465
282.476288	867.558594	3360.489014	960.214111	3.716731
282.848053	865.478210	3356.922607	957.836426	3.707015
283.219757	866.889832	3371.188477	951.446350	3.376455
283.591461	859.385254	3360.786377	947.879883	3.537802
283.963135	864.214905	3375.646729	948.771484	3.366867
284.334747	859.682434	3429.739258	952.858093	3.625432
284.706360	864.586426	3528.487549	951.817871	3.274575
285.077942	853.738281	3632.734375	961.031433	3.860860
285.449524	852.623718	3717.811279	967.867249	4.022199
285.821014	847.125305	3747.086670	971.805237	4.299365
286.192535	858.642334	3776.212891	966.158264	3.685118
286.563995	861.242859	3757.934326	960.659851	3.432088
286.935425	855.298645	3747.903564	960.957092	3.652709
287.306824	849.577332	3664.312744	956.053040	3.782796
287.678223	848.834290	3598.183594	948.177063	3.613319
288.049561	859.608154	3548.920898	949.143005	3.329284
288.420898	866.295410	3557.168701	946.913879	2.995996
288.792145	863.694824	3590.827393	951.074890	3.204100
289.163452	856.413147	3682.368164	953.452576	3.433863
289.534668	848.462708	3799.395264	964.003601	3.915403
289.905914	843.855957	3913.821533	972.696960	4.196823
290.277039	845.119141	4008.854736	975.891907	4.133492
290.648193	846.307922	4049.424072	975.297546	4.027004
291.019318	857.453369	4035.455078	980.350098	3.867107
291.390381	858.939453	3967.245361	972.399719	3.650229
291.761475	850.394714	3905.648438	969.947754	3.913032
292.132507	842.518555	3865.599365	957.167664	3.792459
292.503510	841.775574	3869.462891	962.740417	3.995289
292.874481	856.338867	3919.394287	968.015808	3.645933
293.245422	858.344971	4021.337158	965.638184	3.392143
293.616364	863.769104	4173.063965	979.458435	3.495891
293.987213	861.911621	4315.353027	983.990906	3.535004
294.358093	869.416199	4431.191406	999.817383	3.661129
294.728943	863.694824	4520.354004	999.966003	3.726658
295.099731	858.270691	4621.926270	1002.195129	3.824060
295.470490	855.893005	4741.999512	1005.390137	3.846964
295.841248	854.109680	4839.781738	999.371582	3.644602
296.211975	854.332703	4931.174316	1010.071106	3.820075
296.582642	854.035461	5024.498535	1010.665527	3.755700
296.953308	854.481262	5072.572754	1015.718079	3.822506
297.323883	857.602051	5060.238281	1004.944336	3.505949
297.694519	855.224304	4945.069336	1002.492249	3.600820
298.065063	858.865051	4815.708496	998.702820	3.534074
298.435608	857.304688	4661.827637	989.192078	3.466595
298.806122	865.626709	4501.259277	979.012695	3.118742
299.176575	867.484192	4355.179688	975.371826	3.093379
299.547028	873.428467	4249.669922	979.012634	3.127270
299.917450	863.917725	4222.847168	976.040527	3.338052
300.287872	858.122131	4213.707520	965.415222	3.197448
300.658234	857.304871	4205.088379	966.826965	3.271481
301.028564	860.351135	4170.537109	969.056091	3.283953
301.398865	865.775208	4120.085938	971.508118	3.249011
301.769135	864.586426	4060.718018	959.768250	2.978032
302.139374	858.716614	4012.792969	949.885986	2.890525
302.509583	860.202637	3981.214111	956.721863	3.092562
302.879791	861.762939	3947.406250	960.288330	3.193026
303.249939	870.530579	3911.592529	968.015808	3.205631
303.620087	870.233398	3870.874268	962.666016	3.080429
303.990173	865.923889	3849.995361	963.929199	3.284281
304.360260	863.100403	3832.014404	962.740295	3.356106
304.730286	858.493652	3816.856689	954.046936	3.229938
305.100281	857.304871	3816.856445	956.053040	3.336592
305.470276	858.865173	3832.237061	962.591614	3.488512
305.840179	858.270691	3875.852783	968.758850	3.661480
306.210144	862.728821	3897.772217	963.186218	3.309916
306.579987	863.843445	3933.139893	957.613525	3.055100
306.949890	866.592590	3980.842529	962.591797	3.082579
307.319702	864.883606	4083.157227	971.879578	3.324639
307.689484	858.939453	4176.109863	970.244873	3.355433
308.059265	858.122070	4290.907715	971.285156	3.296538
308.429016	852.475098	4371.897949	972.102478	3.399062
308.798737	851.063416	4456.305664	979.904297	3.573709
309.168396	848.537048	4485.061035	987.037292	3.808589
309.538055	852.995178	4500.664063	987.037354	3.674735
309.907684	854.035461	4493.828613	991.495544	3.776590
310.277313	855.670105	4502.596191	985.179871	3.551203
310.646851	853.663879	4487.289551	985.922852	3.639862
311.016388	851.880676	4478.001953	986.368652	3.708866
311.385895	856.858948	4430.596680	987.186035	3.646801
311.755371	856.784668	4378.064941	979.830078	3.494337
312.124817	864.809326	4305.173828	972.771240	3.138095
312.494232	864.140625	4249.595215	971.730957	3.178017
312.863617	859.979675	4241.348145	977.452332	3.474116
313.232971	856.487488	4282.883301	976.635010	3.506528
313.602295	857.156250	4369.371582	979.384216	3.480082
313.971619	863.917786	4461.729492	973.662903	3.050330
314.340820	861.094238	4485.432129	977.600891	3.214564
314.710083	862.803223	4462.918457	976.783630	3.166021
315.079285	860.722717	4383.191895	988.003235	3.613389
315.448486	869.713379	4302.573730	986.665833	3.406852
315.817596	861.391418	4185.101074	978.269592	3.516498
316.186707	864.363525	4083.974609	965.712402	3.147861
316.555786	859.385254	3999.641357	963.111816	3.303124
316.924866	857.973450	3958.031982	971.062256	3.647957
317.293884	854.406982	3950.898682	976.040527	3.928108
317.662872	861.985840	3984.037842	977.823914	3.710319
318.031830	862.060242	4022.452148	973.068542	3.512485
318.400757	871.793762	4063.690186	965.638184	2.940084
318.769684	861.837219	4083.305908	959.248230	3.023808
319.138550	864.958008	4085.014893	960.437012	2.965134
319.507416	863.769226	4045.634521	964.597961	3.168856
319.876190	865.998230	3984.854736	960.957092	3.044669
320.244995	866.295410	3915.976563	951.743591	2.801873
320.613770	854.035461	3862.032471	959.916809	3.519995
320.982483	847.348206	3874.143799	968.907471	4.016104
321.351166	845.342102	3919.989014	969.501953	4.038182
321.719818	850.171692	4009.374756	964.449280	3.617291
322.088440	853.961121	4130.785645	958.356445	3.185869
322.457062	858.419250	4306.214355	964.597900	3.079610
322.825623	859.608154	4492.268066	967.644348	2.974025
323.194183	860.128235	4623.857910	974.034424	3.026418
323.562653	863.992004	4686.123535	980.647278	3.052100
323.931183	863.397644	4685.380859	983.024963	3.129980
324.299591	867.484192	4640.427734	979.532715	2.969790
324.668060	862.357361	4578.310547	977.823730	3.107315
325.036407	862.505920	4507.202637	975.297546	3.094678
325.404755	852.326477	4425.544434	981.316101	3.609901
325.773102	856.710449	4352.356445	979.309875	3.507204
326.141388	859.459534	4277.384766	973.291443	3.330439
326.509674	869.193176	4202.413574	966.678406	2.924656
326.877899	868.747375	4130.042480	965.489563	2.966373
327.246124	865.403809	4071.417725	969.427551	3.244644
327.614288	863.397644	4031.665283	966.826965	3.264539
327.982422	850.914734	4026.241455	958.653748	3.393006
328.350525	850.171692	4035.232178	961.774475	3.503945
328.718628	852.475159	4077.138672	964.375000	3.470124
329.086700	856.115967	4121.794922	975.743347	3.663170
329.454712	853.886902	4182.871582	970.170593	3.493068
329.822693	863.100403	4222.623535	971.953857	3.240146
330.190674	867.707214	4254.945313	967.495667	2.946012
330.558563	868.375916	4288.530273	964.077820	2.798175
330.926483	854.852844	4364.541504	968.015869	3.224304
331.294312	858.865234	4461.729980	967.644348	3.019239
331.662231	861.391418	4574.595703	974.554504	3.047586
332.029999	861.391418	4676.910645	978.121033	3.059338
332.397766	851.286316	4745.566406	982.950684	3.380968
332.765503	857.453369	4793.194824	985.699951	3.258511
333.133240	863.843445	4793.714355	974.331726	2.811499
333.500916	868.375916	4788.884766	980.275818	2.854219
333.868561	862.580322	4764.810547	981.464661	3.046574
334.236176	854.852783	4753.442383	987.185974	3.394386
334.603790	853.515320	4739.473145	982.653564	3.323202
334.971344	856.487488	4710.346680	982.207703	3.262190
335.338867	862.803223	4690.730957	985.254089	3.198881
335.706360	869.787598	4678.768066	986.591553	3.066541
336.073853	870.530762	4684.786621	987.185974	3.058400
336.441284	864.660828	4699.201172	989.340759	3.251496
336.808655	862.654602	4726.990723	982.727783	3.107214
337.176086	858.865173	4771.869629	978.269592	3.051477
337.543396	859.459534	4797.355469	978.938293	3.034076
337.910706	855.744446	4822.246582	985.476990	3.270704
338.277954	854.629883	4805.008301	986.740173	3.344244
338.645264	856.190247	4788.735840	983.247864	3.230925
339.012421	852.846619	4745.269043	981.464661	3.304319
339.379669	850.617493	4678.693848	979.607117	3.369568
339.746796	857.379089	4575.189941	986.071472	3.461510
340.113953	862.506042	4503.562500	982.207703	3.287553
340.481018	861.614319	4470.869141	983.545105	3.378281
340.848114	855.372864	4491.228027	972.919739	3.232991
341.215118	856.784668	4525.407227	979.086914	3.333738
341.582153	862.654602	4643.697266	982.802063	3.177628
341.949066	862.877441	4816.079590	993.130127	3.294865
342.316010	862.060120	5034.083984	995.879395	3.207539
342.682922	862.357422	5301.499512	1003.978333	3.190277
343.049835	863.992004	5631.403809	1011.557312	3.095292
343.416656	858.419250	5955.660645	1028.275391	3.332315
343.783478	854.629883	6167.943359	1039.049194	3.470891
344.150269	858.493652	6294.629395	1046.628052	3.460811
344.516998	858.493652	6289.576660	1042.987183	3.396993
344.883728	865.106628	6209.701172	1038.751953	3.248990
345.250427	858.345032	6067.263184	1034.293823	3.377838
345.617065	861.094238	5902.756348	1027.086548	3.292413
345.983704	850.468933	5777.185547	1019.656250	3.434078
346.350281	854.258362	5644.927246	1016.684082	3.390460
346.716827	854.852783	5525.670410	1009.476746	3.310426
347.083405	860.499817	5441.336914	1008.956543	3.240821
347.449860	868.450195	5382.117676	1010.665588	3.150773
347.816376	869.936279	5388.358887	1013.043274	3.167189
348.182770	872.908386	5394.600586	1013.934998	3.118890
348.549194	864.289246	5432.420898	1011.111389	3.214052
348.915558	864.363464	5488.742188	1023.891418	3.449716
349.281921	861.019836	5551.602051	1026.566284	3.529337
349.648193	857.230469	5608.369141	1030.058594	3.637615
350.014526	861.465759	5634.895996	1023.445618	3.393364
350.380737	859.608215	5684.975098	1019.879089	3.321424
350.746948	866.146790	5733.197754	1018.987488	3.140314
351.113159	870.010559	5808.169434	1024.931641	3.137224
351.479309	865.552429	5858.694824	1035.185425	3.397319
351.845428	861.465759	5971.709473	1039.643677	3.486681
352.211517	861.094238	6089.702637	1051.532104	3.642229
352.577576	870.307800	6214.605469	1056.956177	3.492477
352.943604	872.313965	6339.359375	1064.757935	3.520073
353.309601	865.998230	6488.113281	1056.510376	3.388620
353.675537	868.227295	6669.411621	1062.231689	3.344220
354.041473	866.592590	6786.810059	1065.872559	3.366092
354.407379	862.134460	6910.970215	1067.135742	3.389103
354.773254	859.162354	7025.173340	1075.383301	3.506659
355.139038	863.026123	7221.184082	1079.767212	3.408866
355.504913	864.883728	7473.888184	1098.862915	3.540309
355.870636	863.843445	7776.894531	1105.550171	3.496383
356.236389	855.372986	8064.892090	1116.695557	3.624688
356.602081	860.425598	8297.383789	1128.286743	3.601757
356.967804	857.081970	8454.683594	1139.952271	3.723153
357.333405	859.905334	8523.041992	1145.376465	3.725252
357.699036	852.326477	8527.425781	1145.450806	3.819160
358.064606	857.899170	8471.996094	1139.060669	3.692644
358.430176	866.815491	8415.377930	1138.763428	3.602645
358.795654	866.221130	8460.627930	1133.562256	3.520237
359.161163	863.992004	8672.687500	1140.843872	3.545430
359.526581	852.698059	9106.616211	1150.429077	3.607148
359.892029	855.001465	9672.727539	1178.366943	3.667221
360.257416	851.063416	10247.013672	1199.766113	3.711202
360.622772	855.818787	10675.443359	1228.446777	3.794727
360.988098	861.614441	10902.958008	1241.449829	3.782715
361.353394	859.162415	10931.639648	1245.536499	3.835939
361.718658	853.292480	10714.006836	1238.997925	3.911536
362.083893	843.930359	10267.595703	1219.753540	3.988079
362.449097	845.936523	9650.958008	1197.611328	3.994025
362.814209	854.778503	8992.338867	1176.806519	3.957304
363.179382	859.236633	8413.892578	1158.230835	3.957747
363.544434	860.574158	8003.220703	1144.633423	3.976947
363.909546	856.858948	7792.646484	1121.748169	3.819166
364.274536	852.846680	7670.121094	1113.426270	3.822343
364.639587	860.277039	7557.478516	1108.670898	3.708920
365.004517	860.425537	7468.314941	1111.420044	3.798406
365.369507	867.187073	7412.142578	1115.803955	3.798603
365.734344	863.992004	7429.678223	1114.838013	3.820560
366.099274	865.106628	7431.906738	1114.689453	3.800676
366.464081	867.707214	7383.833496	1109.711182	3.713924
366.828918	864.883728	7317.480469	1112.386108	3.835702
367.193665	862.877441	7218.732422	1113.723511	3.946693
367.558411	862.951843	7148.665527	1119.964844	4.088843
367.923126	861.688660	7045.012207	1115.506714	4.104880
368.287781	860.945618	7012.839844	1110.751343	4.060631
368.652435	854.481262	6984.381348	1103.395386	4.060656
369.017059	858.419250	7010.907715	1109.488159	4.080770
369.381653	854.035461	7039.365234	1118.033081	4.268126
369.746185	858.419250	7107.277832	1128.584106	4.323427
370.110687	856.190247	7201.568359	1125.240356	4.240096
370.475220	857.304871	7276.019531	1125.686157	4.181231
370.839661	852.177917	7330.854980	1121.228027	4.152855
371.204041	857.230530	7349.802246	1124.497437	4.116503
371.568451	858.865173	7360.501465	1134.379639	4.237617
371.932770	859.756836	7348.464355	1134.825439	4.239190
372.297150	854.852844	7327.288574	1137.128906	4.361203
372.661377	859.831055	7350.916504	1126.057739	4.101420
373.025696	860.945618	7389.925781	1127.989624	4.090134
373.389862	856.115906	7456.128906	1129.624390	4.144060
373.754059	851.137695	7523.298828	1139.655151	4.324198
374.118225	857.824890	7653.626465	1145.376465	4.231312
374.482361	864.958008	7827.643066	1151.246216	4.111750
374.846436	864.809387	8064.669434	1158.973755	4.085696
375.210510	856.413269	8378.002930	1172.868530	4.207292
375.574524	852.400879	8699.362305	1193.078857	4.341527
375.938538	847.051086	9010.170898	1207.939331	4.420960
376.302460	843.410217	9210.639648	1221.388184	4.517361
376.666412	850.840515	9331.975586	1226.589355	4.430408
377.030304	853.961243	9320.235352	1226.812134	4.403955
377.394196	859.831116	9176.980469	1218.787598	4.315859
377.757996	854.704163	8933.564453	1210.094116	4.399011
378.121796	854.629883	8618.447266	1196.125122	4.398548
378.485565	852.326477	8347.835938	1189.066406	4.492556
378.849304	850.023193	8149.373535	1175.023315	4.452453
379.212982	853.069580	8015.703125	1171.308105	4.443038
379.576630	853.366760	7958.564941	1165.140991	4.387974
379.940277	857.899231	7944.669922	1166.849976	4.359542
380.303864	858.865051	7948.385254	1162.986206	4.289729
380.667450	860.054016	7972.756348	1166.924194	4.314396
381.030945	853.366760	7965.845703	1166.329712	4.400195
381.394501	855.075745	8019.417969	1177.401001	4.499021
381.757935	856.784668	8056.569824	1173.314331	4.396377
382.121399	860.202637	8159.033203	1183.567993	4.430372
382.484741	855.818665	8314.102539	1170.193604	4.215111
382.848145	854.407043	8489.829102	1180.744507	4.273994
383.211487	862.357422	8625.282227	1185.351318	4.160724
383.574768	859.905334	8698.545898	1208.905273	4.452302
383.938019	858.716553	8729.233398	1213.883667	4.512628
384.301270	850.914795	8736.365234	1215.221069	4.619981
384.664459	858.270691	8733.690430	1209.871216	4.464530
385.027649	854.035461	8766.977539	1204.001221	4.422701
385.390778	852.326477	8884.227539	1205.933105	4.402527
385.753876	846.530945	9023.099609	1213.660645	4.490022
386.116943	851.063293	9143.469727	1225.103271	4.510633
386.479980	853.366699	9177.204102	1229.115601	4.514131
386.842987	853.069519	9177.352539	1232.756470	4.561197
387.205994	859.013733	9151.420898	1237.511719	4.564392
387.568909	853.961121	9146.516602	1226.812134	4.496213
387.931793	864.066345	9083.061523	1225.697632	4.399945
388.294678	856.859070	9042.937500	1220.496460	4.442144
388.657471	867.187073	9031.124023	1233.648071	4.488778
389.020294	863.694885	9118.355469	1234.019653	4.486251
389.383057	870.679382	9338.588867	1246.874023	4.442592
389.745819	865.849609	9545.596680	1252.372437	4.453158
390.108521	870.902161	9809.964844	1273.474243	4.503516
390.471191	873.428467	10043.275391	1281.573364	4.450946
390.833801	874.022888	10259.421875	1299.629028	4.534769
391.196442	871.496582	10410.479492	1301.337891	4.506155
391.558960	866.072571	10405.798828	1300.371948	4.552535
391.921509	871.199402	10360.696289	1301.783813	4.537484
392.284027	864.586426	10288.177734	1298.737305	4.607064
392.646484	863.026062	10256.970703	1307.282104	4.729175
393.008911	858.345032	10237.949219	1303.938477	4.750663
393.371307	861.614319	10240.772461	1320.805298	4.895865
393.733673	863.992004	10208.227539	1320.136475	4.881560
394.096008	859.979736	10132.811523	1315.009644	4.907130
394.458344	859.385254	9977.517578	1302.823975	4.863262
394.820587	853.515381	9737.594727	1288.855103	4.900223
395.182831	860.574036	9514.463867	1285.511353	4.910362
395.545013	860.053955	9273.797852	1268.867676	4.858880
395.907196	866.666931	9123.185547	1267.010010	4.848812
396.269287	866.666931	9022.059570	1260.545776	4.829674
396.631409	863.769104	8992.858398	1259.579712	4.869064
396.993469	860.797058	8993.377930	1257.647827	4.879764
397.355530	854.778503	8997.688477	1261.734497	4.997673
397.717499	856.933289	9031.570313	1267.827271	5.026449
398.079468	857.973572	9075.854492	1269.016113	5.001807
398.441376	855.447205	9113.155273	1269.015991	5.008276
398.803284	848.091248	9092.424805	1272.434082	5.147084
399.165131	842.815735	9047.323242	1275.183350	5.269879
399.526978	840.215149	9011.062500	1270.576538	5.267035
399.888763	844.227478	8977.774414	1264.706665	5.169690
400.250519	848.239807	8991.223633	1270.725098	5.188335
400.612244	858.865051	9024.213867	1280.235840	5.160475
400.973938	865.106628	9151.568359	1282.687866	5.039319
401.335602	869.044617	9247.939453	1280.830200	4.914557
401.697205	862.877502	9426.637695	1285.882935	4.939483
402.058807	861.688660	9572.122070	1300.000366	5.032031
402.420349	856.710388	9831.438477	1319.541992	5.157054
402.781860	863.026123	10029.009766	1332.024780	5.116730
403.143341	861.985901	10244.785156	1356.396118	5.269326
403.504822	856.710388	10425.861328	1373.708618	5.402760
403.866241	855.595764	10578.479492	1392.878906	5.525965
404.227631	852.920898	10687.703125	1399.566040	5.558284
404.588959	855.744385	10681.461914	1414.055054	5.682136
404.950287	853.218201	10591.778320	1414.055054	5.758930
405.311554	854.481262	10445.625977	1408.630859	5.777721
405.672821	858.939453	10333.280273	1387.380371	5.577601
406.034027	854.258301	10220.042969	1368.358887	5.489135
406.395203	855.224304	10060.811523	1345.102051	5.321527
406.756348	860.722656	9937.022461	1326.526367	5.132088
407.117493	864.735107	9876.985352	1326.154907	5.119918
407.478516	862.728821	9956.713867	1333.436646	5.176034
407.839600	859.013672	10035.102539	1340.718140	5.249562
408.200592	862.580261	10174.717773	1343.393188	5.163293
408.561554	863.694824	10279.187500	1347.182617	5.135024
408.922485	859.236755	10428.684570	1353.126831	5.161113
409.283417	851.360596	10531.667969	1363.900757	5.294668
409.644257	850.097473	10641.115234	1369.399048	5.303857
410.005096	859.459534	10669.945313	1375.789063	5.263038
410.365906	862.208740	10630.861328	1375.937866	5.258956
410.726715	867.112793	10595.865234	1370.142212	5.170544
411.087433	861.317139	10529.958984	1367.169922	5.231891
411.448120	867.781494	10513.389648	1356.544800	5.067211
411.808807	875.434631	10469.475586	1354.390015	4.992218
412.169434	872.016785	10434.850586	1346.068237	4.957228
412.530029	872.685486	10479.655273	1350.154785	4.970030
412.890564	852.252197	10580.260742	1356.098999	5.179342
413.251099	850.171692	10755.318359	1362.340454	5.170734
413.611572	844.896240	10895.973633	1375.120483	5.275298
413.972076	851.657776	11037.222656	1379.875854	5.185948
414.332489	852.475098	11170.671875	1381.510376	5.127206
414.692871	847.645325	11398.409180	1383.368042	5.077573
415.053223	847.571106	11586.023438	1397.782715	5.123752
415.413574	851.583496	11868.002930	1420.445190	5.163762
415.773834	856.561768	12095.666992	1420.222168	5.015172
416.134094	859.088074	12429.286133	1429.881470	4.933307
416.494263	856.487488	12718.620117	1437.906250	4.901469
416.854462	855.372864	13097.118164	1453.064087	4.882402
417.214630	858.270752	13489.734375	1466.067017	4.811764
417.574738	849.057190	13884.801758	1487.540527	4.897943
417.934784	852.400879	14369.776367	1531.156250	5.021355
418.294861	853.292480	14948.964844	1562.957642	5.034632
418.654846	857.081848	15622.890625	1584.431152	4.925902
419.014832	854.035461	16269.843750	1604.418579	4.867621
419.374756	850.394592	16903.869141	1629.755859	4.854783
419.734680	854.778503	17566.871094	1666.089844	4.854637
420.094543	849.577332	18107.498047	1694.324829	4.894840
420.454376	847.199646	18415.781250	1712.231812	4.923745
420.814148	847.051025	18568.101563	1725.680664	4.958113
421.173920	854.704102	18654.664063	1739.946777	4.973284
421.533691	853.441101	18760.099609	1754.955933	5.034523
421.893341	855.595886	18810.847656	1765.804077	5.069314
422.253021	847.794128	18759.208984	1763.352173	5.111590
422.612640	847.273926	18708.310547	1762.237671	5.122680
422.972260	845.193420	18660.980469	1757.036499	5.118175
423.331757	854.704163	18759.654297	1759.414063	5.052848
423.691315	866.815613	18877.796875	1760.825806	4.963696
424.050781	866.889832	18920.966797	1768.999146	4.996707
424.410248	859.682434	18715.814453	1766.918579	5.080810
424.769653	849.948914	18385.167969	1762.386230	5.203455
425.128998	852.400879	17947.525391	1746.931274	5.232664
425.488373	856.338867	17470.130859	1732.516602	5.273797
425.847656	856.933289	17015.101563	1706.064819	5.255123
426.206940	855.967346	16572.255859	1681.544922	5.253006
426.566193	857.007629	16194.871094	1645.953979	5.143783
426.925385	851.657776	15757.229492	1623.142944	5.175817
427.284576	853.366699	15351.460938	1600.480591	5.153187
427.643677	849.280090	15041.024414	1580.047363	5.149242
428.002777	851.583496	14839.590820	1575.515015	5.175373
428.361847	849.651611	14661.264648	1561.546021	5.154317
428.720856	843.038757	14491.112305	1556.344727	5.226422
429.079865	846.605225	14390.281250	1538.809448	5.110904
429.438812	849.057190	14395.855469	1536.208618	5.072427
429.797760	861.837219	14389.315430	1543.119019	5.036281
430.156616	860.648438	14300.598633	1537.100220	5.033142
430.515503	864.512207	14215.596680	1531.899048	4.998746
430.874268	864.586426	14167.151367	1522.908569	4.948836
431.233093	869.341797	14231.795898	1533.236694	4.968360
431.591827	861.763000	14410.937500	1539.106567	4.999150
431.950562	857.750671	14602.268555	1548.319946	5.024325
432.309204	861.242859	14746.711914	1561.100220	5.040214
432.667877	863.694824	14890.339844	1574.920410	5.070533
433.026459	862.431702	14957.805664	1583.390991	5.114864
433.385010	855.744385	15065.395508	1596.022461	5.209685
433.743561	860.202637	15064.801758	1622.028442	5.363233
434.102051	856.933350	15080.331055	1658.362427	5.634583
434.460510	861.763000	15096.752930	1702.721191	5.907684
434.818939	860.128357	15102.027344	1737.940796	6.163591
435.177338	865.255188	15137.097656	1770.931152	6.345894
435.535675	861.094238	15153.000000	1781.779297	6.442003
435.894012	858.047852	15209.692383	1781.407837	6.433827
436.252289	863.917786	15402.210938	1781.036255	6.308295
436.610535	858.865173	15477.182617	1756.665039	6.141609
436.968719	859.979675	15718.516602	1727.612671	5.839290
437.326935	853.515381	15927.753906	1692.987671	5.568920
437.685028	861.837341	16253.276367	1668.690552	5.242220
438.043152	863.471985	16453.744141	1659.179810	5.103874
438.401215	860.054016	16758.681641	1651.303711	4.976843
438.759277	861.094238	17103.150391	1660.591431	4.922389
439.117249	857.527771	17664.134766	1681.916382	4.905146
439.475250	859.831116	18097.169922	1702.201050	4.886891
439.833130	855.521545	18533.847656	1726.275024	4.925542
440.191071	848.314209	18634.972656	1734.894165	4.984522
440.548889	849.205811	18664.173828	1740.095337	5.000792
440.906708	842.815735	18497.142578	1733.631226	5.045877
441.264496	849.057129	18280.773438	1727.389648	5.038703
441.622223	847.051025	18014.843750	1709.705688	5.024843
441.979950	851.211914	17751.291016	1702.498413	5.037175
442.337616	856.190247	17539.232422	1696.256836	5.035452
442.695251	863.397644	17315.728516	1694.622192	5.052321
443.052887	867.781433	17246.328125	1680.504517	4.962120
443.410461	863.769104	17368.408203	1677.012329	4.927361
443.768005	856.561768	17624.826172	1677.235229	4.894207
444.125458	855.670105	17941.431641	1694.250610	4.908066
444.482941	858.939453	18289.689453	1709.259766	4.878277
444.840393	864.735046	18804.681641	1736.603149	4.859926
445.197754	865.923889	19259.189453	1753.618652	4.826194
445.555084	863.397644	19625.130859	1764.689575	4.803885
445.912415	862.877502	19827.158203	1767.810425	4.771775
446.269714	862.580261	19923.529297	1777.469727	4.799810
446.626953	868.153015	19916.248047	1788.838013	4.833475
446.984161	869.564758	19735.619141	1792.330200	4.891141
447.341309	873.651428	19534.185547	1787.277710	4.896035
447.698456	866.815613	19237.048828	1768.776367	4.909904
448.055542	857.973572	19033.830078	1766.324341	4.997568
448.412598	855.670166	18634.677734	1752.801270	5.046013
448.769653	856.784668	18245.033203	1744.256348	5.103859
449.126617	861.911560	17729.447266	1718.027466	5.075525
449.483582	863.026123	17413.289063	1695.662476	5.030955
449.840515	869.341858	17147.880859	1683.699829	5.002648
450.197388	867.038513	16983.744141	1676.640991	5.023375
450.554230	858.122131	16852.080078	1676.789673	5.118605
450.911041	855.224304	16802.966797	1664.752563	5.076131
451.267822	856.338867	16860.849609	1661.408813	5.030269
451.624573	857.527649	16937.750000	1655.613159	4.963150
451.981262	855.744446	16920.216797	1649.520508	4.941190
452.337921	854.184082	16774.880859	1643.947754	4.960610
452.694580	859.682434	16441.259766	1638.969604	5.001337
453.051147	858.047791	16202.526367	1639.712524	5.094111
453.407715	862.134460	15820.238281	1624.034546	5.093561
453.764221	867.930115	15705.291992	1616.084106	5.042365
454.120728	859.459534	15360.528320	1598.697266	5.097816
454.477142	853.366699	15346.929688	1597.954224	5.137367
454.833557	850.840393	15225.148438	1580.641724	5.077123
455.189911	859.236633	15285.854492	1583.242554	5.018542
455.546265	869.416077	15355.102539	1581.236206	4.913955
455.902557	871.645203	15451.770508	1590.747070	4.932069
456.258820	877.886658	15710.195313	1594.684937	4.832682
456.615051	871.719543	15994.182617	1605.013062	4.849035
456.971252	862.877502	16346.672852	1620.542358	4.893276
457.327393	860.128357	16940.500000	1640.901245	4.855441
457.683502	860.574158	17630.474609	1666.312622	4.804670
458.039612	860.797058	18645.896484	1700.417603	4.720921
458.395630	863.323425	19582.630859	1742.398804	4.696089
458.751648	871.050781	20366.896484	1779.847290	4.661488
459.107605	878.555359	20962.953125	1811.946167	4.647343
459.463562	880.710144	21098.257813	1823.091675	4.661206
459.819458	872.982666	20902.841797	1825.023560	4.753108
460.175323	870.233398	20235.380859	1813.803833	4.872519
460.531158	869.193176	19410.843750	1792.924683	4.981927
460.886932	866.889893	18617.142578	1770.039429	5.088094
461.242676	863.323303	17937.568359	1742.324585	5.148112
461.598419	858.716553	17458.093750	1724.120239	5.213471
461.954102	862.283020	16962.046875	1693.359009	5.162038
462.309723	861.614441	16559.773438	1665.941284	5.123702
462.665344	861.688660	16248.221680	1639.266602	5.053627
463.020905	857.750671	16121.460938	1629.830078	5.058269
463.376373	860.054016	16093.820313	1623.514282	5.011631
463.731873	855.670105	16139.293945	1626.709473	5.044873
464.087341	857.230469	16154.452148	1624.406250	5.015131
464.442749	864.660828	16311.454102	1625.817993	4.927607
464.798126	868.524475	16425.062500	1621.136841	4.837917
465.153503	873.279968	16653.322266	1633.173828	4.815537
465.508820	858.716614	16807.126953	1636.071655	4.874185
465.864105	852.623718	16913.158203	1644.913696	4.933148
466.219330	850.320313	17120.312500	1654.944702	4.945450
466.574524	856.487488	17132.498047	1662.597656	4.952750
466.929657	857.824890	16990.134766	1658.956665	4.966008
467.284790	858.567871	16721.009766	1649.594727	4.986791
467.639893	851.806335	16473.435547	1648.628784	5.100764
467.994934	852.697998	16324.159180	1646.102539	5.128181
468.349945	843.781738	16159.504883	1637.409180	5.181783
468.704926	847.719727	16044.187500	1634.659790	5.178441
469.059875	849.577332	15925.303711	1629.978882	5.176544
469.414764	859.979675	15827.075195	1620.319458	5.080076
469.769653	863.323242	15769.043945	1609.174194	5.003790
470.124451	864.883606	15826.479492	1608.728149	4.971693
470.479248	857.081848	15895.507813	1611.105957	5.013983
470.834015	857.676270	15971.295898	1619.427856	5.040167
471.188721	863.769104	16176.817383	1628.418457	4.993450
471.543365	869.193176	16457.830078	1643.501953	4.967136
471.898010	860.945618	16775.029297	1655.241699	4.991152
472.252625	853.812683	17046.679688	1662.820679	4.996076
472.607178	851.063416	17288.683594	1667.650269	4.967792
472.961700	859.385254	17334.230469	1666.758667	4.900643
473.316193	859.459534	17357.189453	1664.529419	4.879883
473.670654	858.716553	17251.976563	1662.820679	4.905090
474.025055	853.812500	17337.648438	1662.671997	4.906986
474.379456	851.955017	17399.169922	1671.885620	4.955097
474.733795	854.481262	17610.560547	1686.894897	4.967830
475.088104	857.824951	17906.806641	1697.520020	4.925192
475.442383	863.843445	18268.066406	1712.306274	4.875040
475.796570	861.540039	18597.748047	1726.126587	4.874698
476.150787	862.431641	18979.960938	1753.024048	4.915639
476.504944	860.054016	19358.904297	1766.026978	4.897456
476.859070	862.654602	19669.712891	1771.153931	4.830629
477.213135	865.403809	19863.865234	1779.401489	4.810904
477.567200	869.936279	20082.613281	1798.422974	4.832677
477.921173	869.564758	20408.132813	1822.571289	4.877566
478.275146	860.722717	20719.609375	1838.546509	4.923860
478.629089	862.654602	21060.289063	1849.023071	4.883584
478.983002	861.911621	21487.826172	1867.821899	4.876925
479.336823	863.546204	22084.625000	1879.635864	4.788115
479.690643	855.744446	22793.400391	1905.047485	4.783113
480.044403	848.017029	23708.068359	1944.948242	4.798463
480.398163	844.376160	24935.843750	2006.024902	4.821826
480.751862	842.072754	26623.333984	2091.770264	4.847309
481.105499	850.245911	28925.158203	2182.865234	4.746655
481.459137	857.081848	32312.767578	2316.164307	4.638534
481.812744	861.391418	36803.921875	2489.512451	4.529790
482.166290	859.905457	42061.503906	2715.467041	4.503615
482.519806	861.688660	47213.511719	2960.666016	4.528359
482.873291	858.567932	51251.636719	3182.162842	4.610941
483.226715	861.019958	53707.046875	3358.037109	4.725080
483.580139	855.893066	54228.203125	3466.296143	4.890932
483.933502	859.831116	53218.425781	3499.880859	5.042247
484.286804	860.425476	50886.218750	3454.036377	5.184547
484.640106	862.060242	47806.816406	3338.644287	5.275528
484.993347	854.109863	44890.582031	3218.719482	5.369662
485.346558	846.605225	42907.070313	3129.927734	5.428667
485.699738	844.747559	42382.792969	3089.135742	5.403211
486.052887	845.193420	42950.242188	3068.776611	5.281037
486.405975	854.109802	44070.058594	3082.745850	5.156976
486.759064	860.871399	45052.269531	3104.293213	5.076603
487.112061	861.540039	45353.339844	3122.646240	5.082074
487.464996	854.927185	44850.015625	3094.188232	5.089797
487.817963	845.639343	43498.964844	3053.990234	5.177441
488.170868	845.565002	41534.847656	2980.207764	5.246204
488.523743	845.787903	39325.753906	2903.378906	5.347175
488.876587	850.171692	37407.781250	2812.877930	5.368804
489.229401	857.527771	36355.800781	2754.921875	5.345032
489.582153	866.815613	36279.644531	2722.674561	5.240640
489.934845	867.632996	37214.667969	2726.166748	5.113302
490.287537	859.905457	38522.394531	2754.699219	5.030984
490.640198	854.332703	39756.269531	2799.280518	4.999617
490.992798	852.400696	40155.644531	2819.194092	5.004151
491.345337	852.995178	39787.769531	2817.559326	5.045783
491.697876	856.338867	38403.734375	2763.689697	5.079849
492.050354	866.889893	36333.062500	2707.442627	5.189601
492.402832	868.450195	33684.542969	2601.263916	5.280378
492.755219	865.255188	30965.437500	2491.147217	5.401602
493.107605	858.419250	28562.041016	2371.891602	5.463085
493.459930	864.215027	26730.923828	2281.465088	5.479050
493.812225	867.855774	25575.591797	2216.970459	5.460293
494.164490	869.341797	24926.484375	2167.633545	5.396700
494.516724	870.456360	24698.521484	2132.710938	5.297344
494.868896	866.369690	24697.259766	2101.132324	5.181354
495.221039	863.620544	24953.529297	2091.250000	5.096032
495.573120	859.608215	25137.279297	2090.358398	5.069474
495.925201	873.056946	25429.437500	2110.643066	5.039774
496.277222	872.982666	25528.705078	2123.943359	5.073713
496.629211	875.583252	25531.083984	2123.348877	5.060801
496.981140	864.214905	25317.908203	2110.420166	5.096184
497.333069	862.357422	25053.390625	2093.107666	5.087630
497.684967	867.261414	24719.994141	2085.900391	5.109012
498.036804	862.283142	24303.525391	2071.782715	5.159708
498.388580	860.574158	23828.509766	2037.826538	5.125635
498.740326	855.372864	23330.978516	2011.300293	5.143032
499.092072	852.995300	22814.056641	1976.006470	5.113647
499.443756	853.515381	22392.835938	1956.984985	5.123047
499.795410	851.732117	22078.236328	1930.830444	5.083731
500.147003	859.608215	21804.505859	1916.044312	5.043882
500.498566	861.985840	21530.328125	1902.744019	5.035519
500.850098	860.648438	21323.617188	1898.508789	5.071895
501.201599	853.440979	21245.822266	1889.443848	5.080343
501.553009	854.778503	21216.548828	1888.700806	5.077763
501.904449	848.388367	21179.099609	1886.917603	5.108180
502.255859	853.589600	21190.021484	1891.821655	5.105281
502.607178	855.447205	21231.259766	1886.026001	5.057854
502.958405	863.620544	21345.832031	1882.608032	4.974988
503.309692	859.385254	21389.150391	1883.796875	4.989885
503.660919	855.967346	21534.857422	1894.719360	5.023248
504.012115	857.527771	21559.007813	1892.118774	4.997667
504.363251	862.134460	21574.015625	1884.837036	4.937758
504.714294	870.753601	21397.771484	1872.354370	4.879426
505.065369	874.245789	21245.154297	1871.016968	4.893111
505.416443	876.177673	21115.123047	1871.759766	4.919140
505.767395	877.217834	21102.937500	1870.570923	4.911336
506.118317	869.713379	21123.076172	1868.639038	4.932147
506.469238	862.357422	21265.513672	1870.199341	4.939637
506.820160	854.778564	21454.167969	1879.487305	4.974462
507.170929	855.670166	21649.212891	1880.527466	4.928729
507.521729	859.756836	21878.585938	1890.558472	4.904182
507.872498	852.623779	22105.728516	1906.310547	4.957801
508.223236	849.948914	22413.859375	1932.242188	5.019002
508.573883	842.741516	22650.515625	1938.112183	5.022845
508.924500	847.125305	22826.537109	1939.003784	4.967732
509.275116	849.280090	22971.427734	1935.362915	4.909482
509.625702	858.419373	23135.044922	1941.604370	4.862429
509.976196	855.967346	23315.673828	1943.982056	4.844296
510.326660	857.081848	23567.115234	1957.356567	4.844883
510.677124	849.948914	23782.000000	1968.724976	4.878657
511.027557	857.304871	23969.984375	1987.449219	4.889716
511.377869	860.574158	24092.359375	1992.576172	4.872643
511.728180	869.193176	24097.265625	1996.142700	4.851670
512.078430	871.496582	24071.482422	1994.136353	4.838967
512.428650	874.691589	23890.478516	1980.390503	4.804090
512.778931	874.914551	23706.062500	1973.405884	4.811371
513.129028	863.620544	23471.412109	1961.145996	4.854633
513.479126	847.868347	23356.912109	1961.517456	4.947563
513.829285	841.924133	23324.812500	1952.823853	4.941090
514.179382	846.902527	23297.171875	1955.053223	4.936024
514.529297	852.475098	23259.203125	1952.972656	4.911460
514.879272	857.750671	23349.406250	1971.845703	4.953370
515.229187	860.574036	23510.197266	1978.012695	4.933587
515.579163	865.998230	23929.634766	1985.368774	4.853400
515.928955	859.310974	24435.490234	1988.266602	4.788543
516.278748	858.196472	25191.296875	2015.535645	4.756234
516.628540	853.738281	26101.726563	2069.553711	4.815494
516.978333	862.283020	27075.615234	2120.376709	4.799442
517.327942	865.775330	28049.873047	2164.438232	4.777289
517.677612	866.295410	28671.859375	2183.237061	4.736252
518.027222	859.385254	29045.826172	2200.697998	4.758716
518.376831	856.784668	29023.384766	2200.029297	4.768927
518.726379	855.967285	28766.224609	2203.298584	4.827370
519.075867	850.617493	28107.755859	2192.524658	4.923141
519.425293	852.772278	27366.212891	2166.741699	4.955862
519.774658	857.453369	26573.849609	2138.358154	4.980887
520.124084	862.580322	25984.923828	2106.556396	4.951672
520.473389	857.602051	25571.578125	2086.569092	4.972761
520.822693	860.425537	25350.156250	2056.773682	4.885101
521.171997	867.929993	25231.939453	2038.049316	4.802655
521.521240	869.638977	25265.822266	2035.374390	4.778351
521.870361	855.447205	25364.423828	2049.566162	4.872169
522.219482	856.636047	25634.884766	2059.002686	4.852509
522.568604	861.837219	25910.326172	2066.210205	4.808167
522.917664	870.010559	26411.646484	2075.646484	4.720277
523.266724	864.289307	27055.478516	2100.760986	4.720945
523.615662	853.589661	28042.439453	2143.410400	4.743933
523.964600	855.149963	29200.150391	2189.701172	4.708242
524.313538	851.434814	30544.583984	2245.576660	4.695163
524.662354	856.487488	31874.380859	2311.483154	4.690827
525.011169	856.933289	33110.855469	2380.213379	4.722775
525.359985	863.620605	34355.574219	2437.352295	4.698835
525.708740	862.506042	35670.953125	2489.364258	4.673746
526.057434	868.301575	37312.152344	2557.128174	4.634051
526.406067	870.827881	39598.449219	2645.177002	4.581612
526.754700	870.976501	42586.160156	2760.048828	4.528501
527.103333	868.895996	46052.312500	2902.710205	4.501240
527.451782	869.564758	49387.386719	3093.519531	4.583790
527.800293	872.759766	51813.890625	3243.313721	4.653516
528.148743	873.354187	53126.964844	3352.761719	4.744950
528.497131	876.251953	52756.191406	3370.446045	4.807627
528.845642	870.976563	51098.355469	3327.127197	4.890063
529.193909	868.078796	48251.667969	3220.131592	4.963855
529.542175	856.636169	44746.136719	3077.395752	5.059888
529.890503	865.552429	41195.433594	2931.093750	5.121615
530.238770	866.295410	38145.457031	2789.398438	5.158654
530.586914	870.679199	36224.730469	2676.161133	5.106860
530.934998	865.552307	35243.941406	2605.945068	5.062461
531.283142	860.945618	35410.746094	2593.165283	5.013690
531.631226	856.190247	36159.199219	2611.443359	4.971965
531.979248	856.115967	37524.660156	2653.276123	4.901095
532.327148	857.156250	38751.917969	2681.733643	4.814854
532.675110	861.911621	39608.777344	2711.231934	4.772825
533.023071	860.871338	39682.480469	2708.631104	4.759616
533.370850	863.471863	38808.089844	2679.207275	4.785225
533.718689	865.478088	37394.253906	2624.669434	4.815906
534.066467	859.608154	35615.152344	2572.360352	4.927997
534.414246	851.880676	34079.835938	2524.286377	5.033128
534.761963	843.038635	32965.296875	2482.528564	5.103907
535.109619	849.354309	32510.562500	2461.500732	5.091866
535.457153	857.304871	32423.033203	2444.559570	5.028411
535.804749	863.917725	32419.318359	2436.906250	4.984847
536.152344	861.391418	32227.617188	2429.327393	4.998804
536.499817	862.580261	31797.404297	2415.581543	5.020236
536.847229	860.648438	31156.171875	2396.634521	5.070010
537.194641	862.506042	30302.804688	2362.677979	5.095641
537.542114	856.041687	29473.734375	2350.863525	5.223418
537.889404	858.567932	28804.859375	2335.706055	5.285632
538.236694	860.054016	28500.962891	2333.848389	5.331932
538.583984	861.242859	28865.271484	2364.164063	5.366803
538.931213	857.156250	29873.705078	2429.475830	5.418699
539.278381	859.905457	31560.228516	2530.082031	5.440257
539.625488	861.837219	33556.523438	2653.275879	5.479296
539.972595	866.295410	35983.769531	2805.893799	5.523172
540.319641	866.518250	38350.386719	2967.279297	5.604440
540.666687	868.153015	40254.832031	3108.379883	5.687778
541.013611	861.094177	41222.253906	3228.824463	5.866358
541.360596	859.979675	41145.355469	3304.390625	6.067738
541.707458	856.710388	40204.609375	3336.043701	6.301056
542.054260	857.453430	38619.433594	3323.486328	6.530465
542.401062	851.880676	36793.890625	3269.468506	6.726357
542.747864	855.967346	34850.425781	3202.298584	6.902100
543.094666	866.518311	33026.742188	3116.033203	6.994711
543.441284	872.908386	31238.572266	3040.764648	7.139169
543.787903	868.747375	29787.958984	2982.882813	7.310488
544.134460	854.332703	28598.226563	2953.458984	7.566083
544.481079	856.190247	27867.013672	2957.099609	7.778028
544.827637	854.109680	27402.916016	2992.987549	8.056399
545.174072	860.796875	27145.978516	3030.882080	8.255926
545.520508	858.567871	27043.591797	3061.718018	8.413779
545.866943	863.174805	26986.898438	3059.711670	8.408208
546.213318	861.465820	26906.873047	3039.055420	8.360744
546.559631	860.276917	26614.789063	2996.628662	8.295058
546.905823	863.620605	26023.562500	2926.784180	8.200192
547.252136	862.803223	25157.416016	2830.116211	8.097733
547.598389	863.026123	24205.744141	2703.801758	7.885867
547.944458	864.066345	23260.837891	2584.991943	7.683811
548.290588	866.815491	22328.787109	2470.714111	7.473213
548.636658	865.552429	21486.490234	2370.256836	7.296974
548.982727	854.704163	20787.820313	2275.520752	7.127921
549.328735	865.626648	20343.046875	2195.571045	6.828134
549.674622	865.329407	19964.771484	2124.909180	6.594851
550.020569	874.097168	19763.484375	2068.513428	6.323214
550.366455	871.719543	19581.738281	2018.953491	6.131655
550.712280	872.016663	19570.443359	1983.956909	5.946705
551.058044	866.964172	19622.158203	1962.334595	5.840358
551.403748	862.877441	19733.835938	1951.189453	5.767126
551.749512	864.215027	19927.916016	1949.183228	5.691278
552.095154	862.357361	20021.314453	1925.777832	5.550513
552.440735	857.081848	20107.728516	1901.852539	5.427198
552.786316	857.304688	19960.757813	1881.493652	5.361277
553.131897	864.214905	19780.794922	1876.515259	5.351392
553.477417	865.255188	19434.322266	1861.357422	5.364310
553.822815	860.499817	19024.765625	1839.140991	5.387728
554.168213	861.391418	18579.099609	1803.401367	5.316771
554.513672	862.654602	18211.298828	1783.413940	5.307385
554.859009	865.180908	17987.796875	1770.113647	5.285015
555.204285	854.927063	17808.800781	1758.373901	5.328852
555.549500	847.125305	17686.648438	1746.113892	5.338563
555.894714	849.354309	17543.244141	1729.395874	5.271638
556.239990	853.069519	17470.947266	1713.792358	5.179500
556.585022	866.221130	17356.892578	1703.687134	5.078423
556.930115	866.741211	17266.541016	1692.467285	5.034976
557.275146	871.422363	17095.125000	1687.191772	5.028256
557.620178	859.682434	16999.126953	1678.869995	5.075686
557.965149	856.338867	16920.140625	1670.770996	5.069983
558.310059	852.995178	16897.255859	1664.975464	5.060877
558.654968	857.676331	16849.404297	1656.876465	4.997585
558.999756	856.858948	16811.064453	1649.223267	4.966492
559.344604	860.722717	16869.912109	1643.056030	4.886776
559.689331	855.149963	16985.082031	1640.307007	4.867702
560.033997	855.744446	17104.041016	1653.384155	4.909067
560.378723	853.292480	17194.244141	1659.774048	4.935340
560.723389	857.973572	17175.593750	1662.671875	4.931468
561.067932	854.332703	17177.824219	1663.340698	4.956097
561.412476	855.595886	17083.978516	1659.031128	4.950803
561.757019	864.363525	16998.083984	1660.145630	4.932415
562.101501	871.347961	16922.666016	1655.390259	4.884597
562.445862	878.406738	16867.013672	1657.396484	4.872155
562.790222	867.558594	16846.804688	1656.133423	4.934994
563.134644	873.205566	16866.865234	1651.377930	4.865505
563.478943	866.518372	16947.707031	1654.721680	4.901400
563.823181	876.920715	17067.408203	1657.322144	4.820123
564.167358	873.354187	17272.632813	1659.922852	4.796361
564.511536	870.233398	17623.193359	1668.021851	4.762074
564.855774	859.533875	18052.958984	1680.504517	4.774910
565.199768	850.766174	18490.306641	1707.699341	4.858024
565.543823	845.193542	18771.689453	1723.302856	4.898388
565.887817	843.558838	18973.199219	1732.145020	4.901289
566.231812	850.246094	18935.083984	1730.733276	4.868649
566.575745	859.459656	18794.724609	1720.256470	4.799465
566.919617	863.397644	18526.267578	1709.334106	4.789349
567.263428	860.054016	18229.875000	1699.229004	4.831224
567.607239	858.865234	17995.525391	1698.040161	4.896957
567.950989	858.493652	17783.314453	1684.368530	4.879667
568.294678	861.985901	17660.048828	1676.640991	4.849697
568.638367	855.447266	17570.587891	1668.987793	4.867087
568.981995	859.979736	17569.621094	1674.411743	4.874025
569.325623	857.379150	17676.320313	1674.114624	4.856046
569.669128	862.431641	17820.689453	1668.987671	4.756125
570.012573	854.481262	18073.169922	1672.182739	4.748918
570.356140	852.995178	18333.007813	1682.510742	4.745509
570.699524	857.304871	18598.861328	1705.396118	4.780253
571.042908	856.859070	18897.857422	1718.770508	4.777515
571.386230	858.196472	19088.591797	1717.730347	4.714839
571.729492	852.103577	19182.955078	1722.708618	4.749398
572.072815	856.264648	19088.740234	1726.869507	4.775023
572.416016	855.075684	18906.103516	1719.290649	4.787622
572.759094	858.493713	18721.833984	1698.263062	4.701077
573.102234	862.208801	18518.837891	1689.272461	4.684154
573.445374	861.985840	18389.255859	1695.365234	4.754759
573.788391	859.087952	18219.474609	1703.464233	4.863811
574.131409	857.899170	18120.427734	1698.040039	4.866847
574.474365	850.394592	18036.912109	1697.520020	4.929011
574.817261	853.886902	17989.505859	1705.247437	4.968368
575.160156	846.679443	17823.958984	1711.563110	5.094360
575.502930	858.642273	17576.904297	1714.460938	5.119065
575.845703	857.602051	17289.351563	1694.696411	5.094371
576.188477	871.868164	16963.533203	1693.804810	5.107841
576.531250	863.249023	16609.927734	1683.179565	5.207006
576.873901	862.505920	16194.054688	1688.157837	5.385313
577.216431	853.292480	15885.625000	1679.687378	5.497450
577.559082	857.750671	15548.141602	1680.950562	5.603662
577.901611	852.772400	15320.776367	1672.257202	5.664118
578.244080	850.246033	15048.604492	1666.535767	5.749184
578.586487	853.143860	14858.241211	1660.219849	5.762730
578.928955	873.205566	14633.624023	1706.584961	6.056352
579.271301	880.412903	14452.399414	1704.355835	6.070909
579.613647	887.991760	14253.713867	1686.225952	5.972249
579.955872	875.063171	14088.910156	1625.595093	5.679890
580.298157	874.914551	13951.229492	1614.820923	5.658371
580.640320	866.444031	13852.480469	1610.437134	5.729178
580.982483	868.598816	13810.793945	1592.232910	5.591278
581.324524	860.202576	13727.352539	1580.567383	5.598480
581.666626	862.654602	13658.770508	1575.217651	5.568588
582.008728	859.682556	13576.147461	1576.332153	5.635604
582.350647	861.391418	13515.070313	1568.010254	5.584296
582.692566	859.979675	13497.088867	1573.508667	5.646299
583.034424	855.298584	13474.277344	1573.583008	5.692096
583.376343	857.007568	13451.838867	1567.341431	5.639884
583.718201	854.109802	13407.554688	1556.939087	5.598696
584.059937	855.818787	13337.562500	1555.601685	5.606451
584.401611	848.834290	13277.301758	1562.363281	5.741086
584.743347	852.400696	13239.703125	1560.803101	5.718779
585.085022	847.571106	13211.394531	1566.747070	5.816776
585.426514	856.710266	13210.428711	1568.456055	5.761389
585.768127	858.716492	13204.187500	1571.576782	5.774266
586.109619	868.970215	13179.593750	1570.759644	5.700682
586.451172	870.159180	13155.593750	1573.880249	5.728093
586.792542	859.459534	13182.863281	1575.291992	5.808724
587.133850	856.413269	13224.174805	1580.641724	5.855776
587.475220	850.989075	13306.057617	1582.573730	5.873791
587.816589	861.242859	13366.614258	1590.969849	5.835309
588.157776	866.518372	13481.856445	1591.118530	5.743803
588.498962	866.964172	13550.067383	1585.620117	5.666247
588.840210	864.883728	13633.211914	1583.613892	5.629008
589.181335	864.883606	13704.617188	1572.765625	5.513214
589.522400	867.112793	13749.718750	1576.034790	5.502940
589.863403	861.911621	13736.566406	1564.443726	5.456707
590.204407	859.013855	13670.511719	1554.710083	5.430249
590.545410	856.041687	13609.062500	1540.889771	5.370085
590.886353	861.688660	13469.152344	1535.465820	5.344272
591.227112	856.264587	13356.807617	1538.140625	5.454772
591.567932	863.174744	13236.882813	1537.620483	5.450635
591.908752	861.391418	13178.405273	1537.769165	5.491410
592.249512	867.929993	13180.635742	1542.152954	5.475831
592.590149	869.267517	13190.442383	1555.750366	5.571570
592.930786	867.632813	13296.250000	1577.372559	5.710529
593.271423	865.552429	13364.458008	1581.236206	5.725972
593.612000	858.939453	13555.639648	1578.561401	5.667787
593.952576	856.190247	13715.614258	1567.118652	5.528462
594.292969	853.069580	13909.840820	1568.381836	5.478477
594.633484	854.555603	14076.948242	1568.679077	5.400864
594.973877	862.357422	14295.471680	1566.821411	5.244235
595.314209	866.592590	14551.964844	1577.818359	5.196978
595.654480	874.988831	14878.153320	1585.471313	5.073728
595.994812	871.570862	15230.573242	1600.034790	5.073221
596.335022	865.180908	15496.426758	1598.697388	5.013356
596.675171	861.614441	15530.606445	1598.846069	5.025783
597.015320	861.763000	15370.484375	1592.827515	5.038794
597.355408	865.032288	15016.729492	1590.449707	5.126010
597.695496	851.955017	14609.476563	1577.372437	5.272879
598.035461	848.239929	14124.575195	1560.654297	5.366047
598.375366	849.874512	13700.531250	1547.577148	5.429315
598.715271	857.750671	13324.410156	1533.459473	5.420127
599.055176	858.939453	12976.301758	1527.589722	5.518117
599.395081	858.122070	12710.075195	1508.122437	5.484331
599.734802	859.979675	12494.746094	1505.521851	5.548389
600.074524	863.769226	12424.233398	1482.710938	5.353952
600.414246	863.620544	12390.424805	1480.036011	5.347670
600.753906	869.713379	12425.346680	1475.057617	5.238521
601.093506	871.942444	12502.101563	1478.995605	5.219646
601.433044	871.199402	12676.043945	1482.859375	5.181432
601.772583	865.552429	12889.441406	1478.698364	5.099398
602.112122	861.614319	13200.918945	1484.642578	5.049136
602.451538	863.620544	13546.128906	1482.413574	4.879106
602.790894	859.385254	13925.890625	1494.524902	4.860822
603.130310	856.413147	14286.481445	1504.184204	4.823289
603.469604	848.462708	14645.511719	1522.462891	4.885104
603.808838	849.354309	14984.778320	1537.026001	4.864882
604.148010	841.478271	15200.702148	1554.338501	4.964476
604.487305	847.571106	15211.252930	1556.939331	4.938624
604.826416	853.292419	15069.112305	1546.536743	4.876569
605.165527	862.951721	14749.833008	1522.982910	4.752912
605.504456	868.524475	14422.604492	1511.020142	4.740238
605.843445	860.128357	13974.708008	1503.069702	4.902493
606.182434	854.555664	13543.454102	1498.388672	5.073987
606.521423	851.657898	13118.218750	1493.410522	5.231724
606.860229	857.379150	12835.051758	1493.187500	5.308280
607.199036	862.951843	12694.768555	1496.382446	5.353621
607.537903	862.431641	12715.796875	1502.624023	5.400934
607.876648	860.722656	12847.609375	1515.626953	5.463506
608.215271	857.304749	13072.375000	1539.849609	5.587728
608.553955	848.165527	13311.183594	1569.942261	5.791348
608.892578	840.809570	13497.832031	1614.523804	6.112925
609.231140	841.552551	13573.027344	1677.458374	6.565664
609.569641	841.552551	13539.144531	1767.884399	7.295335
609.908081	845.044861	13407.628906	1884.688477	8.275714
610.246521	850.023132	13174.762695	1994.730835	9.287887
610.584961	854.109802	12892.487305	2077.058350	10.158748
610.923340	855.670105	12567.190430	2119.856689	10.794384
611.261597	853.366699	12208.976563	2150.023438	11.418645
611.599854	858.047852	11893.338867	2169.490967	11.884083
611.938110	862.654602	11640.487305	2163.175049	12.066624
612.276245	867.112793	11510.829102	2137.466553	11.935246
612.614319	866.964172	11346.916992	2083.151123	11.604890
612.952393	865.775391	11201.581055	2023.337402	11.199533
613.290466	861.985901	11065.977539	1961.517456	10.775504
613.628479	857.007629	10914.326172	1901.480835	10.385205
613.966370	857.750549	10798.934570	1842.038696	9.901116
614.304260	863.397644	10687.183594	1773.531738	9.264596
614.642151	859.905334	10577.809570	1718.399048	8.834145
614.979980	865.626648	10493.847656	1662.671875	8.278219
615.317749	864.140625	10422.368164	1620.542358	7.913619
615.655396	872.685486	10411.222656	1573.657349	7.348840
615.993164	865.775391	10411.445313	1530.115845	6.959600
616.330811	862.506042	10402.751953	1507.230591	6.757945
616.668396	862.803223	10396.659180	1485.608521	6.532565
617.005859	866.369812	10375.483398	1472.159790	6.370625
617.343445	868.524475	10348.881836	1441.026978	6.038828
617.680908	870.902161	10360.696289	1421.485352	5.801846
618.018311	871.719543	10343.904297	1410.042847	5.683201
618.355652	869.193298	10339.743164	1401.126465	5.616708
618.692993	866.741272	10284.610352	1391.244141	5.569231
619.030273	858.345032	10270.493164	1379.504395	5.537093
619.367554	865.775330	10235.868164	1374.377441	5.427930
619.704712	859.013733	10215.806641	1366.129883	5.419765
620.041870	863.397644	10201.837891	1358.328003	5.299925
620.379028	857.973450	10187.051758	1343.318970	5.202502
620.716064	863.471863	10191.287109	1339.306519	5.101244
621.053040	858.567932	10139.573242	1347.108276	5.263874
621.389954	858.493652	10100.339844	1353.572632	5.356927
621.726929	857.379089	10061.925781	1354.687134	5.402852
622.063843	862.134460	10058.656250	1344.136230	5.241131
622.400635	860.871338	10054.124023	1350.972046	5.331091
622.737427	861.911560	10031.165039	1356.396118	5.392855
623.074219	866.369690	10044.985352	1364.495239	5.427023
623.410889	867.409973	10069.504883	1366.501343	5.423671
623.747559	868.747375	10123.597656	1369.770630	5.413629
624.084167	863.174744	10168.922852	1367.913086	5.423942
624.420715	862.951843	10276.512695	1371.702515	5.404445
624.757324	857.973572	10392.202148	1382.699219	5.503598
625.093750	860.202576	10570.528320	1403.132446	5.591263
625.430176	858.196472	10762.229492	1410.265625	5.574185
625.766602	860.871338	10971.687500	1412.271851	5.453571
626.102905	855.447266	11168.887695	1402.909668	5.308242
626.439209	860.054016	11272.987305	1404.172852	5.225413
626.775452	853.515320	11345.356445	1408.705200	5.291635
627.111694	856.933289	11274.621094	1412.123169	5.329300
627.447876	852.029297	11182.485352	1415.986938	5.459175
627.783997	859.088074	11010.846680	1416.878540	5.494521
628.120056	868.598816	10890.401367	1411.157227	5.413781
628.456055	872.611145	10719.875977	1398.822876	5.343735
628.792053	875.434631	10551.358398	1377.869629	5.192631
629.128052	864.883606	10370.876953	1381.287598	5.432405
629.463928	865.700989	10274.581055	1381.584839	5.482946
629.799744	871.570984	10210.680664	1391.987183	5.572439
630.135559	870.382080	10118.619141	1396.371094	5.687451
630.471375	858.716492	9986.583008	1390.203979	5.822691
630.807068	849.280090	9881.742188	1387.677368	5.960692
631.142700	852.400818	9832.776367	1381.139038	5.887707
631.478333	860.574036	9760.851563	1376.457886	5.796267
631.813965	863.992004	9680.975586	1352.086670	5.535847
632.149475	864.066406	9604.370117	1340.272461	5.448392
632.484924	875.508972	9625.768555	1338.043457	5.285952
632.820435	875.806152	9688.926758	1333.362305	5.191761
633.155884	870.753601	9752.381836	1321.919800	5.079769
633.491150	861.391418	9782.993164	1309.957031	5.027860
633.826477	853.961182	9738.932617	1316.718628	5.208316
634.161804	857.973450	9683.502930	1308.396606	5.103639
634.497009	856.487488	9560.606445	1298.291382	5.075802
634.832153	855.001465	9479.541992	1278.749756	4.913285
635.167297	850.840515	9390.898438	1269.610596	4.903598
635.502380	847.051025	9326.031250	1257.870728	4.845154
635.837463	848.165527	9205.958008	1246.353882	4.764277
636.172424	856.115967	9075.706055	1232.013428	4.573190
636.507324	856.858948	8967.297852	1229.189941	4.590763
636.842224	857.601990	8897.378906	1233.573730	4.676395
637.177124	856.264465	8819.733398	1235.357056	4.760395
637.511963	856.115906	8731.089844	1230.230103	4.750672
637.846741	860.053955	8657.975586	1224.880371	4.678508
638.181396	855.818787	8580.106445	1218.341675	4.693286
638.516113	858.567932	8505.877930	1220.199219	4.728869
638.850769	863.174744	8434.844727	1221.016602	4.726063
639.185303	868.895996	8376.219727	1225.177612	4.745787
639.519836	866.072510	8331.860352	1213.660645	4.655746
639.854370	865.255188	8286.165039	1208.236572	4.621824
640.188843	862.060120	8241.954102	1196.942505	4.537767
640.523254	862.283020	8235.788086	1201.995117	4.607200
640.857605	865.106628	8180.357910	1199.988892	4.577864
641.191895	860.351257	8134.067871	1205.338745	4.742933
641.526184	863.992004	8052.111816	1199.245850	4.663999
641.860413	853.515381	8003.146484	1194.341919	4.767051
642.194580	863.843506	7961.165527	1189.140747	4.583380
642.528748	857.602051	7924.904785	1190.180908	4.705881
642.862793	864.660828	7860.187500	1186.614380	4.602277
643.196838	862.951843	7817.240723	1187.654663	4.669102
643.530823	866.072571	7778.677246	1177.623901	4.507004
643.864746	861.168518	7778.380371	1176.137817	4.553414
644.198669	859.905457	7800.894043	1179.555786	4.605257
644.532532	861.168518	7813.153809	1191.964233	4.758291
644.866333	860.871338	7856.843750	1197.685669	4.814403
645.200073	860.054016	7851.791504	1192.558716	4.755681
645.533813	861.465637	7861.525391	1181.487549	4.571702
645.867554	864.660828	7854.243652	1174.800293	4.437167
646.201172	864.735046	7863.902832	1176.063477	4.448078
646.534729	862.431641	7875.122559	1181.338989	4.547575
646.868225	857.230469	7875.345215	1192.261597	4.773805
647.201782	845.936523	7882.850098	1196.793945	4.985956
647.535217	837.688904	7888.645996	1200.954956	5.152010
647.868591	837.540283	7877.796875	1201.029175	5.163006
648.201965	846.679504	7844.881348	1190.849731	4.917981
648.535278	853.441101	7805.426270	1196.125244	4.929299
648.868591	860.797058	7806.021484	1191.666992	4.763992
649.201782	857.899170	7815.458496	1192.335815	4.806809
649.534912	859.162415	7823.408203	1186.094238	4.694433
649.868103	852.029297	7817.538574	1183.047852	4.752252
650.201172	859.682434	7808.695313	1185.276978	4.685479
650.534180	862.728943	7797.698730	1174.800415	4.499969
650.867188	869.564697	7786.404785	1178.886963	4.472017
651.200134	872.908386	7791.011719	1184.385376	4.502347
651.533020	868.821716	7775.853516	1191.666992	4.674154
651.865845	863.546204	7756.535156	1193.301758	4.783927
652.198608	852.400879	7725.923340	1194.564819	4.978000
652.531433	850.989075	7703.482910	1195.679321	5.030143
652.864136	855.001465	7674.505371	1188.100464	4.884505
653.196777	960.659851	7738.107910	1287.071777	4.816148
653.529358	970.987976	7688.919434	1286.625854	4.698438
653.861938	965.563904	7605.031250	1273.400024	4.636458
654.194519	864.214905	7416.377441	1160.831421	4.527002
654.526978	858.419250	7354.260254	1150.057617	4.489617
654.859375	865.849609	7317.628906	1155.778809	4.493787
655.191833	872.165344	7312.799316	1157.859253	4.435804
655.524170	870.753601	7331.003906	1158.825195	4.459140
655.856445	867.484192	7360.056152	1158.527954	4.482719
656.188660	872.016785	7389.703125	1162.168823	4.451764
656.520874	873.725647	7414.891113	1156.076050	4.316515
656.853088	870.382019	7468.018066	1156.224609	4.332500
657.185181	860.054016	7542.246094	1156.373413	4.434464
657.517212	859.608154	7684.387207	1169.078979	4.534518
657.849243	863.397644	7870.069824	1188.397583	4.638435
658.181274	864.660828	8090.823730	1192.335815	4.534564
658.513123	861.837219	8305.038086	1197.982788	4.516143
658.844971	860.499817	8495.847656	1196.422363	4.399571
659.176819	857.453430	8597.494141	1196.199463	4.376541
659.508667	856.858948	8610.422852	1199.988892	4.425448
659.840393	858.047852	8565.246094	1197.016724	4.398082
660.172058	856.264465	8474.745117	1199.022949	4.499040
660.503662	861.019836	8325.545898	1197.462524	4.507221
660.835266	860.648376	8131.392578	1187.283203	4.492454
661.166931	864.140625	7932.484375	1187.803345	4.579046
661.498413	865.923889	7770.504395	1187.134766	4.652142
661.829773	866.964172	7590.914551	1186.242920	4.748381
662.161194	867.632813	7397.281738	1171.085083	4.647298
662.492615	862.283020	7204.763672	1162.540283	4.734067
662.823975	858.047852	7073.767578	1157.859253	4.823438
663.155212	855.075684	6978.511230	1152.806641	4.862155
663.486450	857.601990	6918.400879	1149.611694	4.818007
663.817627	860.722717	6845.435547	1145.747925	4.762554
664.148743	856.859070	6794.686035	1142.850220	4.816428
664.479858	854.555664	6741.114746	1134.379517	4.753606
664.810913	855.744446	6707.826660	1119.742065	4.511174
665.141907	860.351257	6692.669434	1120.707886	4.464033
665.472778	858.790833	6682.117676	1113.277710	4.370129
665.803711	859.905457	6709.981934	1124.645996	4.525420
666.134583	864.958008	6705.894531	1128.063965	4.504517
666.465454	865.478088	6707.603516	1135.568481	4.623153
666.796143	861.688660	6688.730469	1132.670776	4.650423
667.126831	863.323303	6687.765625	1134.825562	4.661429
667.457458	871.273743	6676.842285	1123.754395	4.348939
667.788147	870.456360	6677.140137	1126.800781	4.414644
668.118774	871.125183	6690.439941	1114.392212	4.180338
668.449219	865.255188	6714.514160	1121.525269	4.381240
668.779663	866.369690	6698.242188	1124.794556	4.431250
669.110107	853.886902	6696.458984	1129.475708	4.716909
669.440552	851.732117	6684.570313	1125.537598	4.694207
669.770874	853.218201	6651.654297	1118.330200	4.572129
670.101135	857.304749	6600.384766	1117.067017	4.523048
670.431396	859.608154	6544.138184	1109.785400	4.401019
670.761597	855.298645	6495.172363	1102.206543	4.377898
671.091797	856.710388	6464.411621	1093.141602	4.216188
671.421875	861.688660	6430.529297	1098.565674	4.253614
671.751892	869.936218	6409.947266	1105.995972	4.260998
672.081909	877.812317	6359.050293	1108.150757	4.202307
672.411865	874.765930	6297.824219	1105.252930	4.250130
672.741821	874.171570	6253.391113	1098.937134	4.178405
673.071716	869.341858	6228.871094	1097.376831	4.254757
673.401550	867.781494	6196.103516	1096.187988	4.286649
673.731262	863.100403	6186.295410	1097.451294	4.402448
674.060974	857.379089	6149.218750	1097.896973	4.545071
674.390625	858.047852	6154.568848	1096.039429	4.493357
674.720276	854.184082	6125.888184	1088.906372	4.452494
675.049927	864.140686	6114.593750	1086.751587	4.239841
675.379395	862.283142	6082.197754	1084.373901	4.254682
675.708923	864.660828	6049.132813	1078.949707	4.133283
676.038330	856.710388	6032.117676	1080.213013	4.318552
676.367737	858.865173	6023.943848	1081.847534	4.317114
676.697083	859.385254	6017.925781	1085.191284	4.377324
677.026428	858.939453	6021.046875	1083.407959	4.348389
677.355652	853.515320	6042.000000	1083.259399	4.427961
677.684875	857.007568	6119.126465	1092.547241	4.476137
678.013977	858.716553	6189.044922	1090.912598	4.356131
678.343079	868.301575	6271.446777	1095.073486	4.197035
678.672180	871.347961	6332.003418	1088.609253	3.978667
679.001221	867.335693	6393.005859	1092.695801	4.078422
679.330139	861.688660	6458.169434	1096.633911	4.198089
679.659058	860.574036	6539.085449	1108.596558	4.367739
679.987976	861.837219	6641.028809	1118.850464	4.447218
680.316772	859.236633	6673.796387	1123.011353	4.536452
680.645630	853.663879	6664.434082	1123.457153	4.642987
680.974304	859.310974	6617.846191	1122.268311	4.566393
681.302979	855.447266	6579.060059	1126.206421	4.730564
681.631653	864.735107	6511.593262	1121.376831	4.544858
681.960266	866.295471	6424.733887	1123.234253	4.622499
682.288757	871.273682	6342.108887	1111.717407	4.395010
682.617249	863.694824	6273.155762	1110.900024	4.569868
682.945679	860.871277	6194.617676	1107.333374	4.620806
683.274109	870.159180	6107.832031	1112.162964	4.620445
683.602478	875.806152	5982.111816	1103.321045	4.455567
683.930725	873.799988	5889.233887	1094.553345	4.401481
684.259033	860.797058	5797.915527	1087.568848	4.593201
684.587280	853.292419	5775.104980	1084.151001	4.690520
684.915344	852.400818	5749.321777	1079.841431	4.644564
685.243469	858.493652	5757.717285	1068.324585	4.282942
685.571533	860.797058	5726.361816	1064.980957	4.196509
685.899536	861.837219	5715.365234	1068.844604	4.265091
686.227539	856.710388	5685.347168	1069.661987	4.410181
686.555420	853.961182	5689.507813	1077.537964	4.623609
686.883301	851.955078	5703.253906	1075.606079	4.610126
687.211121	855.818787	5739.662109	1072.113892	4.428789
687.538940	858.345032	5762.398926	1069.884888	4.313571
687.866638	858.790833	5760.169434	1075.829224	4.428109
688.194336	854.035583	5730.597656	1078.578247	4.604528
688.521973	853.069519	5688.467285	1077.017944	4.631437
688.849609	848.091248	5614.387207	1068.101685	4.615963
689.177063	855.967285	5538.970215	1068.398804	4.536224
689.504578	858.122070	5481.237793	1067.358521	4.525875
689.832031	859.162354	5419.417480	1061.637329	4.439992
690.159485	856.264587	5334.638184	1055.544434	4.449826
690.486816	849.651672	5257.214844	1054.504150	4.647749
690.814087	859.236755	5214.639160	1055.990234	4.517458
691.141296	859.013855	5184.026855	1054.207031	4.513123
691.468506	861.465759	5136.695801	1050.194702	4.414474
691.795715	861.168457	5086.913086	1039.272095	4.214728
692.122803	861.242859	5056.597656	1039.272095	4.243484
692.449829	859.905334	5037.873047	1032.584961	4.133101
692.776855	859.311035	5000.127441	1033.550903	4.207863
693.103821	855.372986	4978.653809	1036.225708	4.386137
693.430664	870.159180	4948.486816	1036.820190	4.086504
693.757568	868.970398	4925.378418	1037.860352	4.163535
694.084351	874.988831	4892.462402	1029.687134	3.850636
694.411133	865.329407	4884.512207	1028.126709	4.050508
694.737854	862.654602	4866.977051	1027.086548	4.106361
695.064575	861.837219	4853.379395	1028.795532	4.182802
695.391174	861.465759	4840.302246	1028.275391	4.192422
695.717773	863.843445	4865.342285	1018.095886	3.854867
696.044250	860.202637	4924.264160	1012.225891	3.740673
696.370789	861.317078	4988.981934	1018.616028	3.810846
696.697205	855.447205	5103.333496	1033.699463	4.196258
697.023621	859.236633	5240.868164	1044.547729	4.229272
697.349915	858.567871	5431.751953	1051.160645	4.211349
697.676208	865.106628	5631.179688	1064.386475	4.181217
698.002380	862.580261	5847.623535	1073.748657	4.236039
698.328674	862.580261	6068.154785	1078.355347	4.145077
698.654724	857.007629	6193.429199	1089.500854	4.356725
698.980896	856.190247	6271.520996	1097.673950	4.459260
699.306946	846.753723	6227.830566	1106.441772	4.825950
699.632935	848.908630	6165.416504	1084.076782	4.423357
699.958862	847.496887	6021.195313	1069.959106	4.299869
700.284729	857.007629	5855.500000	1047.296875	3.806933
700.610596	856.264587	5660.826660	1044.844849	3.925025
700.936340	856.413086	5468.160156	1044.696289	4.082687
701.262146	853.292419	5286.192871	1041.426880	4.244049
701.587830	852.029297	5140.410645	1036.968750	4.312570
701.913513	859.236633	5010.009766	1027.755249	4.059933
702.239075	864.289246	4898.109863	1018.541687	3.823979
702.564697	867.558533	4795.349121	1016.832703	3.800462
702.890137	856.784668	4704.104980	1015.941101	4.136813
703.215698	855.670105	4617.468262	1020.325012	4.377027
703.541016	856.338867	4551.562012	1012.151672	4.216601
703.866455	857.676331	4497.469238	1003.532532	4.007267
704.191711	853.441101	4474.435059	1004.572754	4.173761
704.517029	857.824890	4440.776367	1004.795715	4.101949
704.842163	866.518311	4402.213379	1009.476746	4.043291
705.167419	872.016785	4358.969238	1007.099121	3.873937
705.492493	862.580322	4329.396973	1014.677979	4.387243
705.817566	858.493652	4311.415527	1007.842102	4.325277
706.142578	852.549500	4290.462402	1007.767761	4.514898
706.467590	859.459534	4281.099609	1004.944336	4.251903
706.792480	858.865173	4264.827637	1011.482910	4.480899
707.117371	856.561707	4269.805664	1020.325012	4.797879
707.442200	862.505920	4272.629395	1021.736755	4.669357
707.766907	866.146790	4293.136719	1025.526245	4.650712
708.091675	871.793762	4303.613281	1022.554016	4.393012
708.416321	864.289246	4315.130371	1028.498169	4.758519
708.741028	857.750671	4326.721191	1022.999939	4.763640
709.065552	854.555664	4347.675293	1023.965820	4.849824
709.390137	851.360596	4378.213379	1020.919434	4.807653
709.714600	843.707336	4398.423828	1027.829468	5.179657
710.039063	850.394592	4435.872559	1025.377441	4.880322
710.363403	852.920898	4449.395508	1022.182617	4.706323
710.687744	861.317139	4503.488281	1024.040161	4.467748
711.012085	861.019836	4547.698242	1022.033936	4.367457
711.336304	857.750549	4610.483887	1028.646851	4.553916
711.660461	862.654602	4633.963379	1024.263062	4.285209
711.984619	854.407043	4624.378418	1023.742859	4.491700
712.308716	858.939453	4563.970215	1015.941101	4.237526
712.632751	858.196472	4507.648926	1015.049500	4.297988
712.956726	864.883606	4446.869141	1010.294128	4.059495
713.280701	861.837219	4411.798340	1011.854492	4.225885
713.604553	869.639099	4364.541504	1008.213623	3.965047
713.928467	860.499817	4343.811035	1007.024841	4.206487
714.252258	856.116028	4322.783691	999.966003	4.149517
714.575989	850.097473	4321.223145	993.947449	4.144188
714.899719	856.115967	4296.703613	992.387146	3.960695
715.223267	866.741272	4296.257813	991.718445	3.644163
715.546936	857.676331	4296.332031	992.238586	3.913223
715.870422	857.081848	4301.756348	994.913391	4.001294
716.193970	855.967285	4273.446777	992.535706	3.996174
716.517395	862.803223	4241.570801	1001.303467	4.099135
716.840820	857.081848	4202.784668	999.520203	4.257352
717.164124	849.725891	4173.509766	1000.337585	4.531332
717.487488	848.314148	4115.033691	994.987732	4.489935
717.810730	852.475098	4048.384033	991.421204	4.347624
718.133972	853.961182	3965.610352	995.210632	4.539376
718.457092	856.487488	3895.840576	988.894958	4.356436
718.780212	858.939453	3834.020508	981.984802	4.135865
719.103210	857.156250	3797.463623	975.148926	4.012937
719.426208	858.196472	3760.163818	970.542175	3.871364
719.749207	857.824890	3729.699463	969.873352	3.901579
720.072083	859.459473	3700.647217	966.752625	3.776349
720.394958	849.874512	3674.120850	965.043701	4.077873
720.717773	851.583435	3637.861084	963.408997	4.013439
721.040527	847.199646	3609.254639	962.443176	4.172384
721.363281	854.109680	3583.991455	968.164551	4.178015
721.685913	853.663879	3581.093994	973.737244	4.402436
722.008545	857.750488	3554.567627	973.960144	4.309141
722.331055	855.075623	3540.524658	971.508118	4.335681
722.653503	862.951843	3525.738281	967.421387	3.923317
722.976013	862.208801	3522.766357	960.734192	3.703186
723.298401	868.747375	3524.549561	959.693909	3.424447
723.620789	856.636047	3522.840576	962.220215	3.960093
723.943115	861.614441	3511.917969	967.644348	4.000670
724.265381	859.756836	3492.525146	968.833191	4.143029
724.587585	866.518372	3484.797607	966.529785	3.819738
724.909790	862.208801	3487.769531	970.467834	4.123273
725.231873	862.060242	3480.636719	969.799072	4.114405
725.553894	861.391418	3481.156982	968.981750	4.106869
725.875916	912.140137	3536.512451	1007.693542	3.641000
726.197937	905.378601	3554.270752	1012.300232	4.036466
726.519775	903.669678	3559.323486	1012.448914	4.096138
726.841675	859.831116	3525.887451	968.907410	4.091297
727.163513	866.666992	3556.425781	967.124207	3.734804
727.485291	860.722717	3600.487061	974.851563	4.165645
727.806946	856.115967	3641.873291	978.492493	4.392936
728.128662	853.292480	3655.842529	978.492493	4.467360
728.450256	857.824890	3657.997070	975.148926	4.189887
728.771790	857.676331	3653.984619	971.805359	4.081418
729.093323	871.793762	3661.563721	975.074524	3.702125
729.414795	874.691589	3664.387451	976.857849	3.662272
729.736145	877.143616	3659.037354	985.551270	3.896901
730.057495	860.871277	3652.276123	982.876404	4.370743
730.378845	867.112793	3647.669189	981.093079	4.099190
730.700134	868.598877	3660.375000	971.062256	3.670186
731.021301	872.982727	3694.108398	957.390564	2.991991
731.342468	868.153015	3740.918945	959.545349	3.181336
731.663574	870.604980	3782.751709	956.053162	2.934199
731.984680	866.444031	3790.627686	968.907532	3.504004
732.305664	857.304871	3778.590576	961.700134	3.573607
732.626648	845.416321	3744.039795	967.198547	4.201381
732.947571	844.301819	3728.584717	963.632019	4.137257
733.268433	853.143860	3698.863525	966.975586	4.000103
733.589233	850.989075	3683.111328	967.570007	4.116381
733.909973	851.880676	3664.981689	968.015869	4.128369
734.230713	849.725891	3627.458984	965.638184	4.172910
734.551331	853.143860	3576.561768	960.065430	3.926007
734.871948	853.143860	3513.627197	952.709473	3.742388
735.192505	855.967346	3479.001953	945.204895	3.402073
735.513062	866.444031	3428.104736	943.198730	2.996287
735.833435	874.022949	3376.538330	941.341125	2.690021
736.153931	869.193176	3326.904297	944.238953	3.053482
736.474304	862.654602	3316.204834	948.251282	3.488687
736.794617	860.128235	3307.288330	954.195557	3.843938
737.114807	861.317139	3314.718750	958.950989	3.979530
737.434998	863.100403	3310.037842	960.065430	3.962710
737.755188	867.855774	3321.034424	960.585632	3.779988
738.075256	876.400635	3334.037354	958.505066	3.340788
738.395325	875.508972	3353.653076	957.316223	3.301150
738.715271	873.279846	3379.584961	962.591736	3.563488
739.035278	865.552307	3373.269531	960.214111	3.774820
739.355164	866.444031	3371.560547	957.242004	3.624501
739.675049	867.261414	3347.337646	954.195618	3.505304
739.994873	863.323303	3343.547852	958.059265	3.819653
740.314636	857.973572	3314.272705	959.768250	4.144230
740.634277	853.589661	3282.619873	952.338074	4.065343
740.953979	856.784668	3243.388428	944.090332	3.658155
741.273499	862.431641	3206.756836	936.734375	3.169472
741.593140	864.660828	3185.654541	948.102600	3.595088
741.912598	860.722656	3161.506104	943.867432	3.613759
742.232117	859.979675	3133.048828	950.554688	3.984701
742.551453	857.527649	3096.937500	936.288513	3.517036
742.870850	854.406982	3054.733643	945.725037	4.150204
743.190063	855.150085	3022.188721	941.192566	3.970510
743.509338	856.487366	2987.861328	942.009949	4.012557
743.828552	865.626709	2969.434326	935.025391	3.298718
744.147705	864.437805	2956.876953	935.917053	3.416073
744.466797	871.199402	2938.672607	935.694092	3.119493
744.785828	873.948547	2936.815186	937.551697	3.083241
745.104858	877.440735	2918.387939	935.842773	2.861516
745.423706	869.639099	2923.514893	937.774597	3.317411
745.742615	871.348083	2901.149658	937.105896	3.239618
746.061401	869.341858	2905.905029	935.619812	3.254402
746.380249	869.193298	2894.536865	931.384583	3.070654
746.698975	861.837219	2905.385010	930.418640	3.355998
747.017639	862.357361	2895.577148	926.332031	3.146471
747.336304	860.425537	2880.641846	922.765442	3.085804
747.654907	855.818665	2873.063232	925.514709	3.455012
747.973389	849.354431	2874.994873	933.910950	4.174311
748.291931	843.707336	2886.437500	939.855164	4.706830
748.610352	846.828125	2882.499756	936.139954	4.387340
748.928711	859.162292	2884.431641	931.458923	3.569729
749.247070	870.159180	2885.843506	930.864563	3.011651
749.565308	872.685547	2872.914795	927.818176	2.756315
749.883545	869.044678	2862.215088	934.431091	3.280523
750.201782	865.403809	2855.899414	930.567322	3.273733
750.519836	859.533875	2860.802979	927.743835	3.408335
750.837952	850.617493	2854.264404	914.072021	3.166952
751.155884	849.725891	2842.301758	915.186523	3.285227
751.473877	853.515320	2814.364014	926.034851	3.698375
751.791809	854.184021	2807.973877	931.904785	3.977949
752.109619	862.580261	2797.125977	930.418640	3.506683
752.427490	865.775208	2805.225342	922.691223	2.934647
752.745300	865.329529	2818.079346	932.573486	3.443552
753.062988	856.413269	2831.305420	937.551758	4.108502
753.380615	857.081970	2835.614990	948.177002	4.604170
753.698303	860.276855	2819.862549	937.551697	3.943428
754.015808	859.682434	2813.843750	935.396912	3.874525
754.333374	857.602051	2804.407471	927.743652	3.602908
754.650757	854.927185	2794.599609	932.647705	4.006889
754.968262	856.933350	2787.615234	932.424805	3.910093
755.285583	857.899231	2789.621094	931.458984	3.807989
755.602905	863.397644	2793.930908	931.384583	3.521666
755.920105	860.276855	2782.042236	929.229797	3.588000
756.237305	861.465759	2779.218994	929.749939	3.560634
756.554443	859.831055	2775.875000	927.669434	3.540544
756.871582	866.666992	2783.751221	928.041016	3.201426
757.188599	864.437927	2797.125732	930.567322	3.421628
757.505615	863.917786	2818.748047	934.356750	3.603329
757.822510	865.775330	2842.599365	942.232849	3.867695
758.139465	867.484192	2878.635986	937.997559	3.506119
758.456238	857.899170	2896.542969	933.465088	3.706676
758.773010	853.069519	2920.245361	928.561096	3.651919
759.089783	847.868347	2918.908203	939.260742	4.412875
759.406433	854.035461	2933.620117	946.839600	4.462628
759.723145	852.103699	2934.957275	941.712708	4.302223
760.039673	853.218201	2942.461914	935.025391	3.915637
760.356201	854.852844	2958.437256	929.898499	3.567513
760.672668	856.784668	2968.319336	932.870605	3.603348
760.989136	865.923889	2968.319336	932.796387	3.180776
761.305481	873.279968	2964.901611	928.263916	2.628771
761.621826	872.016785	2954.350342	928.412537	2.708296
761.938049	865.106628	2970.325439	933.242188	3.236507
762.254333	854.852844	2997.966064	942.901550	4.108449
762.570496	855.224304	3102.658936	949.514465	4.195457
762.886597	854.852783	3252.824463	950.926270	4.006448
763.202637	854.852844	3466.519287	957.316223	3.923295
763.518677	858.939453	3713.278564	963.409119	3.660030
763.834656	863.397644	3929.425049	971.656677	3.530922
764.150574	866.518311	4060.049072	978.418213	3.503956
764.466370	857.750671	4075.281250	980.870178	3.826522
764.782288	853.961182	3969.028320	974.554504	3.871291
765.097961	858.642273	3809.351807	969.650574	3.762089
765.413696	863.100403	3602.196045	962.740295	3.637693
765.729309	867.632813	3428.178955	955.235779	3.421261
766.044861	865.552429	3272.960693	942.827148	3.209872
766.360474	871.199402	3163.884521	941.935547	3.085297
766.675903	867.558594	3080.219482	943.273010	3.421872
766.991394	864.512207	3021.891602	939.855164	3.492337
767.306763	859.088074	2969.731201	938.814880	3.777370
767.622131	855.670105	2921.508789	935.248352	3.852104
767.937378	855.447266	2868.605225	935.099792	3.956596
768.252625	863.620544	2809.757080	930.418640	3.432344
768.567810	863.323303	2751.727295	932.870605	3.682861
768.882996	865.106628	2710.489014	933.019226	3.680137
769.197998	856.116028	2681.733887	932.424805	4.179888
769.513062	851.286316	2685.003174	918.381653	3.658980
769.828064	852.920898	2667.541992	916.152588	3.484567
770.142944	861.168518	2663.752686	917.044189	3.099754
770.457825	865.552429	2624.594971	922.245361	3.222943
770.772705	861.911621	2595.988525	918.232971	3.247915
771.087402	851.286316	2564.409912	915.781006	3.764743
771.402100	853.069519	2550.143799	920.462097	3.971104
771.716736	861.317139	2524.955078	919.347595	3.488166
772.031372	862.877502	2495.382568	919.198975	3.450003
772.345947	868.524475	2466.850342	915.929688	2.965929
772.660461	865.032227	2452.955811	910.654114	2.873053
772.974854	869.267517	2453.624512	905.601563	2.293299
773.289246	865.478027	2454.961914	903.446777	2.388747
773.603638	868.821716	2441.810303	910.431335	2.645259
773.917908	859.310852	2422.491455	907.087646	3.056383
774.232178	862.506042	2401.463867	904.338379	2.718225
774.546265	856.338867	2395.891113	904.338379	3.117758
774.860474	858.865173	2390.764404	907.013367	3.143039
775.174561	860.054016	2387.718018	906.418884	3.035017
775.488586	861.242859	2383.928467	912.065918	3.337725
775.802551	865.998230	2371.148682	917.192810	3.401293
776.116516	864.289246	2343.210693	922.245422	3.918814
776.430359	866.518311	2335.557617	917.044250	3.439387
776.744202	873.354187	2327.904297	905.527283	2.211893
777.057922	874.765930	2338.232422	903.595398	1.969944
777.371704	877.292175	2332.436768	902.183594	1.710580
777.685303	869.267578	2325.006592	909.613831	2.771531
777.998962	868.450195	2319.210938	912.140137	3.011519
778.312500	861.762939	2308.214111	912.140137	3.482814
778.626038	861.168640	2297.811768	908.424988	3.289359
778.939453	858.419434	2286.146240	903.520996	3.158977
779.252869	855.298645	2285.031494	900.326111	3.149362
779.566223	853.441101	2284.139893	905.007080	3.604251
779.879578	848.982910	2290.901367	903.298157	3.766874
780.192749	848.908630	2284.363037	901.589172	3.669956
780.505920	849.280090	2281.019043	894.976257	3.191655
780.819031	851.360535	2267.718994	897.576843	3.263038
781.132141	864.363525	2269.353516	905.304382	2.913961
781.445190	866.815613	2273.737549	909.242432	3.015578
781.758118	863.174744	2281.836670	910.654114	3.346771
782.071045	864.215027	2273.663330	902.926697	2.746583
782.383911	871.050842	2261.626465	907.161926	2.596844
782.696838	880.115723	2240.004150	903.223938	1.699273
783.009583	871.645203	2216.747314	908.796570	2.761974
783.322266	863.917725	2198.246094	905.007141	3.079408
783.634888	861.540100	2185.168701	906.344543	3.384971
783.947510	856.710388	2178.110107	900.771912	3.334459
784.260132	851.880676	2167.187256	897.576843	3.474184
784.572571	847.422546	2153.738525	896.611023	3.765435
784.885010	854.035461	2143.707764	895.867920	3.243650
785.197449	863.546204	2141.404297	892.078430	2.232816
785.509766	866.295410	2151.955566	888.214783	1.704912
785.822083	866.592590	2155.224854	890.295166	1.839359
786.134277	861.540039	2158.865479	897.874023	2.800684
786.446533	856.413269	2146.977051	900.920471	3.448664
786.758606	854.927063	2150.617920	899.954529	3.475170
787.070740	855.967285	2144.376709	899.137207	3.350637
787.382690	861.391418	2160.723145	903.223816	3.219532
787.694641	865.032227	2184.871338	901.069153	2.730403
788.006653	869.936218	2237.180664	902.109375	2.353139
788.318481	877.738098	2289.712646	898.988586	1.505019
788.630310	862.431641	2332.510986	906.716064	3.012383
788.942017	856.636047	2345.959717	916.301208	4.006192
789.253784	848.239929	2347.222900	917.044128	4.590059
789.565430	853.218079	2327.606934	912.288757	4.006452
789.877014	852.177917	2303.012695	902.926697	3.497902
790.188538	856.264465	2249.812256	907.533447	3.679026
790.500061	863.397644	2213.552490	907.236267	3.246933
790.811462	860.722656	2175.732178	906.641785	3.491924
791.122925	852.326477	2160.351563	905.304382	4.050220
791.434204	847.422546	2135.014160	904.635681	4.443423
791.745483	848.016907	2117.032959	900.103210	4.104464
792.056702	848.834290	2094.296631	896.239441	3.806229
792.367920	849.354431	2080.104736	899.954590	4.111326
792.678955	848.982910	2059.745605	899.805969	4.197607
792.990112	848.165527	2041.690063	898.245605	4.195982
793.301086	850.617493	2021.925415	893.415955	3.653904
793.612122	850.171631	2030.470337	892.375732	3.575714
793.922974	857.081848	2033.219727	889.626465	2.767075
794.233826	855.818787	2042.358887	888.140442	2.724026
794.544556	863.769226	2043.622070	888.883484	2.128592
794.855286	856.710388	2052.018311	889.700684	2.759983
795.166016	855.372864	2052.984131	891.038269	2.978045
795.476624	851.731995	2060.785889	892.970032	3.410769
795.787292	852.177917	2080.178955	893.341553	3.352085
796.097778	852.400818	2120.451172	895.273438	3.380987
796.408264	853.589661	2148.686035	894.679016	3.172687
796.718689	855.818665	2161.614502	896.388000	3.106867
797.029053	854.481262	2163.175049	904.784180	3.843750
797.339355	855.001465	2150.618164	908.796570	4.152085
797.649658	856.190247	2144.005127	911.545715	4.298402
797.959839	863.174744	2121.937256	907.607666	3.529889
798.270020	864.883728	2105.590576	906.567566	3.359685
798.580078	863.843445	2079.733154	907.013367	3.550480
798.890137	858.642273	2055.213379	898.691406	3.346992
799.200195	856.264587	2039.386841	897.056824	3.447846
799.510071	854.704285	2023.040161	891.112549	3.116250
799.820007	851.360596	2012.786499	894.753418	3.736168
800.129883	850.246094	1996.885742	891.929871	3.635299
800.439575	856.933289	1993.096313	890.072327	2.916750
800.749329	863.620605	1985.740234	888.883484	2.251354
801.058960	871.496582	1971.250977	894.084656	2.053920
801.368591	865.700989	1967.090210	901.737793	3.271941
801.678162	867.484192	1956.242065	898.319885	2.832190
801.987671	867.781494	1958.173828	892.672852	2.282789
802.297119	872.834167	1956.093384	884.053711	1.035721
802.606506	863.917786	1958.248169	882.121887	1.663492
802.915894	856.561829	1950.446411	886.208557	2.710225
803.225159	852.029297	1930.087524	886.208557	3.170447
803.534424	853.738220	1918.570679	882.270508	2.679509
803.843628	857.156189	1916.118530	872.759766	1.473478
804.152771	861.614319	1924.068970	877.217834	1.468629
804.461792	864.586426	1932.836548	882.642029	1.690204
804.770874	861.019958	1937.814941	886.505676	2.366813
805.079773	860.499817	1948.143066	884.351013	2.192924
805.388733	859.385254	1955.870605	885.094055	2.344655
805.697571	864.363586	1971.994263	885.762756	1.931977
806.006470	865.032227	1978.607056	886.431458	1.921670
806.315125	864.289246	1989.009399	889.329285	2.226335
806.623901	872.091003	1989.083862	890.146545	1.616442
806.932495	875.731750	1970.136597	891.484070	1.439350
807.241150	877.515137	1950.446411	891.409668	1.295007
807.549622	868.970398	1948.886108	891.483948	2.084751
807.858154	861.094238	1942.867554	885.985657	2.300983
808.166565	858.790833	1939.895508	880.115723	1.972509
808.474915	850.394714	1917.233276	885.614075	3.301283
808.783264	848.016907	1907.648071	890.518127	4.010945
809.091492	846.307922	1887.586426	893.638855	4.545463
809.399719	845.936523	1866.855957	892.598633	4.570597
809.707825	847.645325	1850.435059	895.050537	4.727333
810.015930	854.555603	1843.301880	887.694580	3.351616
810.323975	863.471863	1835.128540	880.710144	1.774112
810.632080	865.329407	1836.466187	878.406738	1.346600
810.939880	868.450195	1833.568237	879.744202	1.170220
811.247864	861.317139	1829.481445	885.242676	2.471227
811.555664	858.196472	1818.930542	878.332520	2.095902
811.863464	852.698059	1811.946167	882.642090	3.121615
812.171143	852.475098	1810.980103	878.555359	2.720931
812.478882	859.088074	1803.475708	883.533691	2.588515
812.786438	865.329590	1785.345825	889.254944	2.600536
813.094055	874.468750	1769.742188	882.567810	0.904647
813.401489	872.091064	1765.581177	874.468750	0.266112
813.708984	861.391418	1779.698853	870.753479	1.019491
814.016357	852.326477	1788.986694	874.617371	2.379827
814.323730	849.280090	1791.513062	885.093994	3.800961
814.630981	852.549377	1772.342773	877.440857	2.706203
814.938232	858.865173	1755.476074	877.960938	2.129771
815.245361	856.933289	1742.993164	875.137451	2.054507
815.552490	862.951843	1750.497681	882.121887	2.159894
815.859619	857.824890	1766.026978	889.626465	3.501597
816.166565	863.174622	1785.494263	891.632629	3.085482
816.473572	860.276917	1798.497437	890.815369	3.254933
816.780457	865.998230	1806.893555	885.465515	2.069017
817.087341	866.592712	1808.156738	883.013611	1.744002
817.394043	867.484314	1814.769897	882.493408	1.584432
817.700806	863.397644	1823.166016	880.190002	1.749626
818.007507	863.323242	1833.642578	888.140442	2.557632
818.314209	862.357361	1836.168823	885.688477	2.395855
818.620667	866.295410	1844.416382	884.871094	1.899119
818.927246	863.620544	1868.936157	879.967102	1.626013
819.233704	859.162415	1909.654175	891.855530	3.112173
819.540161	857.304871	1949.480469	891.038269	3.088643
819.846497	866.072571	2009.071289	892.375732	2.301241
820.152832	870.010559	2075.052002	890.220947	1.677153
820.458984	865.775391	2181.379395	900.697571	2.654460
820.765259	854.927063	2282.208008	912.660339	4.044983
821.071350	860.202576	2411.717529	919.273254	3.807291
821.377502	865.998230	2606.465088	926.109070	3.453719
821.683472	870.382080	2999.377930	927.743713	2.694305
821.989441	866.815613	3786.243408	955.904480	3.051587
822.295349	862.580322	4969.811523	1003.383972	3.428189
822.601196	863.992004	6462.998535	1062.603149	3.547257
822.907043	859.682434	7811.296387	1111.791504	3.626626
823.212769	859.831055	8566.137695	1137.648926	3.605072
823.518494	855.967285	8475.339844	1140.026611	3.728120
823.824097	854.035461	7689.662598	1112.460327	3.780558
824.129700	850.617615	6587.382324	1070.033569	3.824733
824.435242	848.016907	5502.710938	1031.395996	3.939660
824.740723	850.320313	4587.747559	993.575989	3.833002
825.046082	854.184082	3935.072021	966.306824	3.639300
825.351501	858.716553	3481.379639	945.427734	3.306226
825.656799	859.979736	3193.382568	933.242188	3.139726
825.962036	860.053955	3010.746338	930.641602	3.282089
826.267212	859.756775	2931.762451	932.424866	3.507138
826.572449	862.283020	2958.808594	931.830383	3.317267
826.877502	867.558533	3127.550049	940.746765	3.238430
827.182495	869.787598	3428.402100	947.285400	3.028897
827.487488	864.660828	3785.352295	972.474060	3.691360
827.792419	857.379150	4044.817139	973.662903	3.648189
828.097290	854.629944	4083.157227	973.885803	3.693816
828.402100	862.283142	3899.183838	963.929260	3.347035
828.706848	867.112793	3574.183838	961.179993	3.474870
829.011597	866.592712	3198.955078	947.359680	3.462883
829.316223	863.843445	2841.633057	935.322571	3.614092
829.620789	866.369690	2563.146484	921.279480	3.236123
829.925354	869.490417	2350.195068	916.598328	3.181452
830.229797	873.354187	2196.536865	907.161926	2.555032
830.534302	874.022949	2059.448486	910.356934	3.065058
830.838562	871.645264	1968.056030	902.109375	2.778531
831.142944	868.078674	1904.601563	902.629456	3.333335
831.447144	860.128235	1862.694824	888.066162	2.786641
831.751404	854.481262	1832.750977	879.298401	2.536840
832.055542	853.886902	1818.782104	870.084778	1.678719
832.359619	852.697998	1818.410522	868.970276	1.685002
832.663635	860.202637	1858.756836	873.577087	1.339382
832.967651	862.208740	1923.623047	876.103333	1.309064
833.271545	863.174622	2060.860107	879.149841	1.333841
833.575439	860.053955	2234.505615	895.570740	2.584069
833.879211	859.831055	2483.419922	907.682068	2.947237
834.183044	859.385254	2719.999756	919.421875	3.226709
834.486694	860.128235	2898.549072	921.650879	3.018152
834.790344	852.029297	2953.681641	926.777832	3.556656
835.093933	856.264648	2899.143555	933.019226	3.757177
835.397522	857.527649	2717.696289	928.858337	3.834635
835.700928	863.843445	2489.289795	917.861511	3.323276
836.004395	867.781494	2263.112305	903.223938	2.540075
836.307739	866.666931	2107.373779	897.428223	2.479336
836.611023	868.598816	1980.762085	895.422119	2.411813
836.914307	869.787659	1881.344849	892.970154	2.291763
837.217529	868.153015	1800.726440	882.419128	1.529758
837.520691	868.375793	1737.271851	876.772156	0.966325
837.823730	865.552429	1680.058716	870.902161	0.656807
838.126831	870.382080	1623.960083	872.016663	0.216910
838.429749	868.673096	1593.421875	870.159180	0.205048
838.732727	865.032227	1562.957642	871.645203	0.947519
839.035522	863.471924	1550.623413	872.908386	1.373273
839.338379	854.852783	1544.827759	873.428467	2.692226
839.641113	855.595886	1569.942261	875.360352	2.766790
839.943848	855.447266	1604.121460	870.753601	2.044459
840.246460	861.911560	1657.842285	867.707214	0.728161
840.549072	860.202637	1711.265991	867.112732	0.811937
840.851563	859.013672	1756.442017	878.481140	2.169250
841.154053	860.351135	1759.339966	884.945374	2.735767
841.456482	863.249023	1710.523071	879.595520	1.929304
841.758850	868.821716	1640.307007	871.570862	0.356345
842.061157	865.700989	1569.050659	870.530579	0.686656
842.363403	863.249023	1516.221313	874.320129	1.695494
842.665588	856.338867	1475.057617	878.406738	3.566705
842.967712	859.013733	1440.655640	869.416199	1.788466
843.269775	860.574158	1419.033325	865.106506	0.811581
843.571777	860.351257	1404.618652	857.973450	-0.436882
843.873840	859.756836	1391.169922	861.168457	0.265635
844.175659	853.961121	1375.789429	868.895996	2.862029
844.477600	856.710266	1366.278442	872.611145	3.120461
844.779297	858.790833	1367.690308	879.669861	4.102780
845.081116	861.317139	1354.390015	868.450195	1.446654
845.382751	860.202637	1343.616089	873.725647	2.797400
845.684387	861.465759	1317.535767	868.004395	1.433691
845.985962	862.728821	1302.378052	870.159119	1.690051
846.287537	852.549500	1276.595093	857.453308	1.156434
846.588989	847.422546	1263.666382	859.756775	2.963222
846.890381	851.509216	1263.517700	863.917725	3.011712
847.191711	866.369812	1271.468140	869.118896	0.678622
847.493042	868.450195	1271.319580	867.261292	-0.295109
847.794250	867.781433	1275.331909	866.518311	-0.309930
848.095459	864.363586	1272.434082	871.645203	1.784402
848.396606	867.335632	1264.186523	865.998230	-0.337004
848.697693	869.341797	1256.087524	865.923828	-0.883777
848.998657	866.146790	1247.914185	859.533875	-1.732184
849.299622	853.738281	1254.527100	859.682556	1.483144
849.600464	847.199646	1242.564453	866.146790	4.792319
849.901367	845.564941	1240.186646	864.363586	4.763713
850.202087	853.218079	1234.093872	863.992004	2.828724
850.502808	854.555664	1230.527344	858.419250	1.027627
850.803467	852.920959	1225.177490	853.589661	0.179634
851.104065	851.955017	1221.833862	848.314148	-0.984341
851.404663	855.595886	1232.533447	847.051025	-2.266917
851.705139	858.790833	1235.728516	854.481262	-1.143311
852.005615	860.648438	1227.183716	860.871338	0.060813
852.306030	859.682434	1221.685303	862.431641	0.759443
852.606384	861.094238	1215.592651	861.985840	0.251511
852.906616	862.060242	1218.267456	860.425476	-0.458937
853.206909	855.893066	1207.047729	860.574158	1.333057
853.506958	854.258362	1210.614258	855.595886	0.375334
853.807129	856.413269	1211.134277	862.060120	1.591913
854.107178	860.722717	1218.416016	861.465759	0.207732
854.407166	861.911621	1209.425415	871.199402	2.672637
854.707092	862.951843	1212.100220	866.369812	0.978944
855.007019	860.648438	1197.908569	859.162415	-0.440616
855.306763	853.812561	1204.447144	849.800293	-1.144288
855.606567	849.948792	1200.137573	844.376160	-1.591322
855.906250	856.264465	1200.137573	849.131531	-2.074293
856.205933	865.849609	1195.828003	857.379089	-2.566992
856.505493	870.679260	1190.255249	868.450195	-0.697507
856.805054	874.468750	1199.914673	871.645203	-0.867593
857.104492	873.354187	1197.611206	864.066345	-2.864346
857.403931	867.187073	1197.016846	864.066345	-0.946163
857.703308	859.162415	1191.072632	856.190247	-0.895473
858.002563	858.345032	1189.586548	860.054016	0.515933
858.301819	858.047852	1190.403931	861.317139	0.983670
858.601013	857.676270	1186.094360	863.843506	1.877861
858.900208	857.156189	1181.413330	862.951843	1.787364
859.199219	856.264465	1183.642334	853.738281	-0.771642
859.498291	853.143799	1183.716675	858.196472	1.528460
859.797302	859.013855	1181.859009	854.927063	-1.265868
860.096191	864.215027	1177.029419	859.682434	-1.448972
860.395020	867.632874	1169.376343	856.858948	-3.570558
860.693787	868.895996	1162.020386	855.075684	-4.714828
860.992554	865.106506	1162.391724	856.413147	-2.924249
861.291260	874.394348	1168.038696	859.088074	-5.212522
861.589844	869.564758	1179.630005	860.425598	-2.947496
861.888428	875.806152	1176.583618	852.698059	-7.682787
862.186890	871.273682	1173.240112	849.205872	-7.308034
862.485413	864.809326	1172.942749	850.543274	-4.629829
862.783813	860.351135	1172.719849	861.168640	0.261712
863.082153	856.115967	1177.029419	855.521545	-0.185228
863.380371	862.283020	1181.338989	855.001404	-2.282238
863.678589	858.493652	1181.784790	851.286316	-2.229364
863.976746	855.447266	1186.763062	856.636047	0.358806
864.274902	856.338867	1180.521606	854.332703	-0.618838
864.572937	865.626648	1177.029419	851.360596	-4.581222
864.870911	864.512146	1173.537109	851.880676	-4.087524
865.168884	868.673096	1166.552612	850.543274	-6.086294
865.466736	860.722656	1164.546509	853.218079	-2.470042
865.764587	872.982605	1160.608398	854.704102	-6.354960
866.062317	868.747375	1163.803467	856.190247	-4.255845
866.360107	879.372742	1165.512451	851.955017	-9.581936
866.657715	875.360352	1159.419678	851.286316	-8.475002
866.955322	874.468750	1158.082153	860.202637	-5.030127
867.252808	865.329407	1151.915161	862.208740	-1.088912
867.550293	863.917725	1158.007935	857.453430	-2.198065
867.847717	859.311035	1151.246338	855.670166	-1.247149
868.145081	854.629944	1155.333008	857.081848	0.815391
868.442383	847.348328	1149.834595	859.979675	4.175842
868.739624	844.450439	1151.915039	853.812561	3.044943
869.036804	851.880676	1152.658081	855.150085	1.086986
869.333984	855.149963	1156.967651	852.846680	-0.763137
869.631042	860.945618	1164.174927	849.948792	-3.626571
869.928101	859.979675	1164.620850	849.205811	-3.536575
870.224976	864.066345	1159.271118	855.818665	-2.793885
870.521851	866.444031	1167.890259	866.815613	0.123266
870.818726	859.608215	1162.391724	857.527771	-0.687106
871.115479	860.945618	1159.270996	859.013855	-0.647536
871.412231	854.332703	1153.772583	851.360596	-0.992555
871.708862	858.345032	1153.995483	857.750671	-0.201035
872.005493	857.602051	1166.404175	855.001404	-0.842173
872.302063	868.895996	1162.688843	856.636047	-4.172991
872.598572	865.329407	1170.564941	860.574219	-1.557875
872.895020	863.249023	1166.329834	857.676331	-1.838682
873.191406	850.246033	1166.998657	855.372864	1.618560
873.487671	848.908691	1169.970703	851.657715	0.856228
873.783997	848.462830	1173.685913	854.184082	1.759178
874.080200	862.654602	1171.307983	854.852722	-2.527716
874.376343	867.335632	1158.453735	859.682434	-2.628898
874.672424	865.255127	1159.196655	863.248962	-0.682505
874.968445	858.419250	1154.292725	865.255188	2.310426
875.264465	859.385254	1166.627075	859.831055	0.145098
875.560364	858.345032	1162.614624	861.465759	1.025645
875.856201	860.276855	1163.729248	856.115906	-1.371203
876.152039	865.923889	1160.088379	860.797058	-1.742845
876.447754	869.936218	1160.162720	852.029297	-6.169981
876.743469	871.942383	1159.865601	863.397644	-2.967714
877.039063	870.233398	1164.175171	855.893066	-4.878630
877.334595	870.307800	1160.608521	852.252197	-6.219621
877.630127	866.964172	1173.314331	844.673340	-7.276259
877.925537	862.283020	1168.484619	847.719727	-4.756113
878.221008	855.447205	1170.193481	857.676270	0.708210
878.516296	852.400818	1166.404175	854.778503	0.757217
878.811646	855.521484	1180.447266	852.772278	-0.846103
879.106812	861.094238	1198.205688	852.549377	-2.534729
879.401978	862.951721	1218.267334	855.001465	-2.237520
879.697083	854.184082	1249.920410	861.985901	1.971469
879.992126	860.574036	1293.313110	862.134521	0.360607
880.287109	862.654602	1350.452026	867.187073	0.929171
880.582031	871.868164	1428.024048	868.821777	-0.547758
880.876892	862.580322	1588.443726	877.143738	2.006358
881.171753	854.555664	1869.902344	882.419128	2.744232
881.466492	856.933289	2324.486084	905.229980	3.290968
881.761230	862.357422	2904.641846	922.839783	2.961505
882.055786	867.335632	3481.973877	947.656921	3.071985
882.350403	866.444031	3834.912109	957.985046	3.083780
882.644958	860.945618	3864.038330	965.935364	3.496054
882.939453	859.905334	3605.613525	961.848633	3.712823
883.233826	856.190247	3198.880615	943.198730	3.714041
883.528137	856.710388	2781.522217	917.638611	3.165412
883.822449	855.447205	2416.398926	897.131104	2.670416
884.116577	857.750488	2144.302246	890.963928	2.581586
884.410828	861.168457	1926.000977	886.877258	2.414352
884.704956	865.106628	1757.110718	887.174500	2.473965
884.999023	864.289246	1621.136841	870.382080	0.805028
885.292969	865.329529	1520.828125	864.586426	-0.113365
885.586914	865.626709	1450.686401	850.246033	-2.628907
885.880798	876.623535	1400.903442	851.286316	-4.832766
886.174622	874.022949	1370.439453	849.651672	-4.909441
886.468384	871.942383	1345.325073	861.911560	-2.118967
886.762085	860.053955	1317.387207	867.409973	1.608459
887.055664	860.053955	1283.059448	866.889832	1.616025
887.349304	858.939453	1253.189575	859.905457	0.245023
887.642822	849.725891	1237.511841	857.676331	2.050213
887.936340	845.862244	1228.744141	857.230530	2.969136
888.229736	845.119141	1212.100464	855.447266	2.814346
888.523071	851.657715	1188.620728	858.270691	1.962523
888.816284	854.704163	1166.181274	863.769226	2.910347
889.109619	859.088074	1147.679810	862.654602	1.235839
889.402710	860.351135	1147.605591	855.075684	-1.836508
889.695862	861.391418	1140.472534	853.589661	-2.795516
889.988892	861.985840	1136.459961	858.567932	-1.245257
890.281921	867.781555	1116.992798	862.208801	-2.236157
>>>>>End Processed Spectral Data<<<<<
