Jaz Data File
++++++++++++++++++++++++++++++++++++
Date: Fri Jun 04 14:22:20 2021
User: jaz
Dark Spectrum Present: Yes
Reference Spectrum Present: Yes
Processed Spectrum Present: Yes
Spectrometers: JAZA3586
Integration Time (usec): 40000 (JAZA3586)
Spectra Averaged: 10 (JAZA3586)
Boxcar Smoothing: 1 (JAZA3586)
Correct for Electrical Dark: No (JAZA3586)
Strobe/Lamp Enabled: Yes (JAZA3586)
Correct for Detector Non-linearity: No (JAZA3586)
Correct for Stray Light: No (JAZA3586)
Number of Pixels in Processed Spectrum: 2048
>>>>>Begin Processed Spectral Data<<<<<
W	D	R	S	P
191.335022	0.000000	0.000000	0.000000	0.000000
191.713211	254.189621	258.499176	256.938812	63.792927
192.091385	508.230621	516.626831	521.382263	156.637848
192.469528	772.674011	771.187988	784.859680	-820.018921
192.847641	780.624451	773.416992	790.283691	-134.017288
193.225739	795.039124	782.630554	795.039063	0.000492
193.603790	801.949280	798.754211	795.559265	199.996185
193.981842	807.819153	804.549988	800.908997	211.373734
194.359863	808.413574	812.797546	802.766602	-128.809494
194.737854	806.258789	820.896484	813.094727	46.700912
195.115829	811.162781	827.509460	813.911926	16.817760
195.493774	812.871765	818.444519	823.868591	197.331985
195.871704	817.181335	813.614807	817.032715	4.167095
196.249603	820.153381	815.992493	821.936707	-42.859238
196.627457	824.983093	823.794250	810.939941	1181.245483
197.005310	818.815979	818.593079	818.295898	233.324203
197.383133	816.735535	817.850098	820.970886	380.001099
197.760910	822.456848	816.438293	823.422852	-16.050423
198.138687	826.989258	822.902649	820.524902	158.183853
198.516449	818.518799	814.060608	815.398010	70.001236
198.894180	807.596252	813.763428	810.642761	49.398769
199.271866	813.614807	808.562195	808.933777	92.645744
199.649536	817.032715	814.357727	810.939941	227.768265
200.027191	817.404236	811.608582	813.689148	64.101265
200.404816	811.534363	816.958435	815.546692	73.972633
200.782410	810.419861	827.806641	816.363953	34.187424
201.159988	807.819275	844.153259	814.060608	17.177673
201.537537	806.630371	848.760010	816.141113	22.574944
201.915070	810.865540	847.496887	812.203125	3.651478
202.292557	810.568420	843.112976	811.534363	2.968061
202.670029	807.596191	847.050964	805.218567	-6.026203
203.047485	800.537415	843.930237	801.949219	3.253543
203.424911	802.172180	836.722961	801.131897	-3.010882
203.802292	804.772766	831.670410	798.234131	-24.309324
204.179688	805.441406	834.716797	799.868713	-19.035418
204.557037	805.218506	839.100586	801.949219	-9.649015
204.934357	798.754211	847.794006	803.881165	10.454679
205.311661	803.509583	841.924133	801.429138	-5.415771
205.688934	802.395081	844.524719	794.593262	-18.518599
206.066177	807.967773	831.596008	791.026794	-71.698029
206.443390	800.314636	834.493835	787.088684	-38.695911
206.820587	793.998840	842.518555	796.673767	5.513072
207.197769	793.107239	846.159424	800.686096	14.285665
207.574921	797.714050	843.484436	808.264954	23.051811
207.952042	804.326965	831.447449	809.082336	17.534241
208.329147	802.097961	832.116150	811.385742	30.940510
208.706223	808.116516	848.388428	826.766357	46.309799
209.083267	798.011230	843.038757	820.599182	50.164761
209.460297	794.964844	843.187317	812.797546	36.980068
209.837280	780.624329	834.791016	795.707825	27.846443
210.214264	779.584167	848.685730	795.559265	23.118288
210.591217	777.503662	850.543274	797.268127	27.059927
210.968124	777.577942	847.422546	793.330139	22.553205
211.345016	786.419983	840.586731	787.311707	1.646257
211.721893	785.379700	841.181152	785.899841	0.932129
212.098724	797.193909	851.211975	785.528320	-21.595716
212.475555	795.930725	853.292480	790.580994	-9.326303
212.852356	800.240295	847.571106	795.039246	-10.988719
213.229126	792.438538	840.809570	797.416809	10.291844
213.605865	793.478760	844.153137	794.593262	2.199340
213.982590	793.032959	851.657776	791.472595	-2.661610
214.359283	793.701660	847.496826	791.323914	-4.420001
214.735931	791.844055	837.242981	788.574707	-7.201378
215.112579	788.946289	830.778748	785.528320	-8.170614
215.489197	784.711121	830.481506	787.237305	5.519255
215.865799	783.819397	833.082092	792.141296	16.892902
216.242355	790.432373	835.979919	791.398254	2.120600
216.618896	796.450867	840.586731	782.779114	-30.976515
216.995407	792.810059	842.444336	786.345703	-13.023974
217.371902	790.729553	842.370056	792.512756	3.453110
217.748367	795.113464	843.484558	798.754211	7.526700
218.124802	799.868713	843.335938	790.432312	-21.709234
218.501236	800.463196	849.205872	790.878235	-19.664413
218.877609	794.147461	847.571106	796.748108	4.867970
219.253983	792.884277	853.886902	800.017395	11.693132
219.630295	790.358093	855.224304	797.268250	10.652937
220.006592	796.970947	859.979675	794.741882	-3.537708
220.382889	796.822449	855.224304	797.193909	0.636041
220.759140	797.862610	848.239807	798.531433	1.327631
221.135391	791.101074	843.112976	793.924561	5.428539
221.511581	789.689270	848.537109	794.890442	8.838340
221.887772	783.224915	852.475098	798.902832	22.639532
222.263931	780.401550	861.168518	799.794434	24.010910
222.640060	781.441711	861.614441	799.274414	22.242853
223.016159	783.150696	864.215027	786.642883	4.307921
223.392212	780.178528	858.642273	786.568665	8.144063
223.768265	773.862854	863.100403	789.689392	17.735291
224.144302	776.389160	862.134460	805.515808	33.968800
224.520294	784.933899	861.391418	810.568359	33.527718
224.896286	794.593323	863.174744	812.723145	26.435471
225.272217	799.274414	869.638977	812.500305	18.796238
225.648148	803.361023	874.691589	805.515808	3.020844
226.024048	798.902832	879.447021	806.110168	8.948301
226.399902	792.289856	886.208496	797.119629	5.142508
226.775772	786.791504	895.199158	791.026794	3.906819
227.151581	784.933899	897.279602	789.317688	3.902053
227.527374	786.568665	909.613831	789.540710	2.415411
227.903137	788.797668	932.647705	801.354797	8.729320
228.278870	790.283691	952.486511	793.553040	2.015593
228.654572	791.101074	975.891907	800.314636	4.985941
229.030273	794.518982	997.439697	801.131897	3.258866
229.405930	796.228027	1022.925598	800.091736	1.704345
229.781555	795.113464	1032.361938	798.754211	1.534571
230.157181	788.277588	1032.510620	798.011230	3.985392
230.532761	787.385925	1028.869751	800.834717	5.569231
230.908325	795.187683	1018.095886	796.970947	0.799999
231.283859	798.457031	1006.876160	794.370361	-1.960794
231.659332	802.023621	993.798828	788.277527	-7.167816
232.034821	798.902832	981.687500	788.351868	-5.772346
232.410263	799.571533	970.393555	792.067078	-4.393143
232.785690	791.918457	961.328613	801.429199	5.614033
233.161087	788.500488	956.350281	803.583984	8.986306
233.536469	780.698730	952.709473	798.011230	10.064778
233.911804	781.664734	962.517395	797.862610	8.956393
234.287140	785.156921	978.195313	790.358093	2.694372
234.662430	790.209473	987.631836	787.608887	-1.317270
235.037704	793.478760	994.393372	786.048523	-3.698206
235.412933	790.283752	994.541992	796.376648	2.982937
235.788162	789.837891	1000.634766	806.853271	8.071932
236.163345	785.602722	998.925781	805.292908	9.230219
236.538513	790.506653	998.331360	802.246521	5.648928
236.913635	783.670837	1002.566650	801.949219	8.350266
237.288742	792.661438	1010.442688	802.840881	4.674160
237.663834	789.912292	1017.872986	800.686096	4.726167
238.038879	792.661438	1014.157776	798.679993	2.717225
238.413910	793.478760	1016.981262	801.206238	3.457446
238.788910	794.147461	1023.891418	799.200012	2.199210
239.163879	799.200134	1040.758179	799.497253	0.123001
239.538834	796.005066	1051.383423	794.964844	-0.407326
239.913757	801.057617	1072.782715	797.565430	-1.285191
240.288651	797.416809	1088.534790	795.930725	-0.510475
240.663528	789.912292	1113.946411	799.125793	2.843374
241.038361	790.209473	1148.348511	802.246521	3.360999
241.413177	795.336365	1202.886719	803.658203	2.041917
241.787979	801.354797	1269.833618	804.921387	0.761313
242.162735	793.998840	1326.898071	810.939941	3.179044
242.537476	785.379700	1375.269165	812.574524	4.610156
242.912170	787.831787	1403.578491	815.843933	4.549297
243.286865	792.958679	1411.008789	813.020325	3.245958
243.661514	802.840881	1390.055298	815.026428	2.075144
244.036148	804.401306	1359.145386	810.865540	1.165264
244.410751	797.565430	1324.594604	811.088562	2.565917
244.785339	795.113464	1318.947632	810.494141	2.936173
245.159882	790.655273	1326.526489	821.342285	5.726565
245.534378	794.964844	1368.135864	819.707581	4.316816
245.908890	794.370422	1433.522461	819.781921	3.975814
246.283356	796.228027	1546.685547	812.277405	2.138612
246.657791	790.655273	1671.439819	814.655090	2.724823
247.032196	780.104309	1786.460327	816.884094	3.654749
247.406586	780.847351	1854.224487	817.775696	3.440388
247.780960	786.494324	1884.762817	821.936707	3.227114
248.155289	789.094910	1863.214844	813.837646	2.303536
248.529602	787.683167	1786.088867	816.586914	2.894990
248.903870	785.528320	1686.968872	806.035828	2.274971
249.278122	793.998840	1594.536499	808.042053	1.754223
249.652344	793.701660	1526.772339	796.673828	0.405441
250.026550	791.101074	1469.856445	797.788391	0.985232
250.400711	790.283691	1430.253052	795.633545	0.835955
250.774857	797.193848	1416.730103	802.915222	0.923493
251.148987	800.314636	1439.466797	804.698486	0.685885
251.523071	794.741882	1464.952515	811.088562	2.439036
251.897125	790.506653	1506.859009	821.193665	4.283787
252.271164	788.203308	1516.890015	823.794250	4.884258
252.645187	787.831726	1535.242798	826.171936	5.129735
253.019165	788.054626	1518.821899	820.896484	4.494161
253.393112	793.181458	1501.286499	823.497131	4.281240
253.767044	796.376526	1464.803833	819.113220	3.401521
254.140930	793.998840	1436.642944	815.026611	3.272071
254.514801	794.741882	1418.215820	811.385742	2.669536
254.888657	799.125793	1410.191406	813.391907	2.334629
255.262466	803.435303	1402.538086	810.568359	1.190623
255.636276	802.469421	1404.767212	813.168945	1.776451
256.010010	797.193848	1419.033325	814.357849	2.760198
256.383759	794.296082	1455.664673	821.490906	4.111901
256.757446	788.649109	1505.967651	820.227722	4.402314
257.131134	792.661438	1556.642090	819.856201	3.559614
257.504791	787.014404	1627.898438	818.964600	3.799596
257.878418	789.540710	1710.820190	826.989258	4.064841
258.252014	783.522217	1819.747681	832.413391	4.718198
258.625580	782.259033	1943.164673	837.466003	4.755509
258.999115	776.760559	2099.274658	833.007813	4.253055
259.372650	779.361267	2286.368896	834.716797	3.673208
259.746124	777.800842	2457.859619	836.054199	3.467340
260.119598	786.345703	2567.307617	847.868347	3.454462
260.493042	785.751282	2581.499756	846.233704	3.368090
260.866425	802.840881	2511.208984	842.295654	2.309501
261.239838	804.178406	2382.145264	836.277161	2.034184
261.613159	808.190735	2232.276855	835.757019	1.935717
261.986511	803.063782	2116.364502	836.054199	2.512023
262.359802	800.686218	2029.355957	833.230774	2.648764
262.733063	801.503479	1969.319336	832.933533	2.691353
263.106293	797.491150	1930.904907	831.819031	3.028716
263.479523	793.330139	1908.316772	833.602234	3.611891
263.852692	798.011230	1913.666504	833.379395	3.170170
264.225861	795.187744	1891.970093	838.134766	3.915729
264.598969	795.410645	1888.775024	836.425781	3.751278
264.972076	795.187744	1894.645020	838.506165	3.939982
265.345154	792.958679	1943.387695	836.945801	3.823541
265.718201	794.147461	1994.285034	838.431824	3.689940
266.091217	788.649109	2052.241211	833.007751	3.510519
266.464203	795.410645	2117.627686	841.998352	3.523454
266.837158	802.320740	2175.137939	836.202820	2.468069
267.210114	802.989502	2221.131348	840.586731	2.651161
267.583038	796.971008	2232.648193	838.357605	2.882723
267.955902	789.689270	2247.731689	832.859192	2.960814
268.328766	793.255859	2259.322998	841.478271	3.289236
268.701569	793.701660	2281.910645	838.060364	2.980677
269.074371	788.500488	2299.891846	852.920898	4.262325
269.447144	785.082581	2326.121094	847.942688	4.079074
269.819885	782.556335	2375.606689	850.766174	4.281713
270.192596	780.921631	2488.472656	850.989075	4.103388
270.565277	776.017578	2635.814697	853.738281	4.178988
270.937927	781.367371	2794.897217	861.688660	3.989079
271.310577	784.339539	2921.508789	866.444031	3.841740
271.683136	787.014465	3005.322266	871.348083	3.801709
272.055725	781.738953	3035.117432	865.700989	3.726051
272.428284	786.568604	3011.043701	859.162415	3.263413
272.800812	789.094910	2948.703369	845.639343	2.618273
273.173279	797.639709	2868.828125	846.976746	2.382064
273.545776	805.590088	2817.781982	843.707336	1.894315
273.918152	803.361023	2766.810547	857.230469	2.743613
274.290558	804.029724	2730.699219	847.645508	2.263792
274.662964	791.101074	2703.207275	853.292480	3.252508
275.035278	793.850281	2721.634521	846.010742	2.705721
275.407593	792.884338	2763.763916	849.354431	2.865223
275.779907	792.809998	2820.605469	850.989075	2.869080
276.152161	782.184753	2866.822021	852.995300	3.396780
276.524384	773.268372	2917.942139	860.871399	4.084678
276.896606	775.348877	2942.164795	868.153015	4.282973
277.268799	779.658386	2960.814697	872.759766	4.268442
277.640930	787.534485	2968.170898	877.663757	4.133163
278.013031	791.026672	2972.331787	867.930115	3.525570
278.385162	798.605652	2976.343994	865.255188	3.060493
278.757233	791.621155	2979.836182	860.351257	3.140921
279.129272	793.255859	3000.938232	870.604980	3.503634
279.501282	787.311584	3041.135986	869.341858	3.639603
279.873230	786.791504	3120.120117	877.886719	3.904088
280.245178	786.048523	3222.509033	877.069336	3.735780
280.617126	790.358093	3351.647217	889.032043	3.852511
280.988983	794.073181	3467.410889	890.518066	3.607658
281.360870	800.166016	3585.700928	894.456238	3.384995
281.732697	798.902832	3684.077393	897.205383	3.407161
282.104492	803.881165	3740.324463	905.675964	3.466602
282.476288	792.735779	3760.534912	907.236145	3.858090
282.848053	788.054688	3738.466797	900.994812	3.827944
283.219757	783.670715	3739.804443	883.533630	3.378160
283.591461	786.865906	3716.993408	882.196228	3.253453
283.963135	792.512878	3734.380615	881.676086	3.030837
284.334747	793.032959	3773.835205	887.546082	3.170728
284.706360	793.701660	3871.617432	893.638855	3.246911
285.077942	791.992676	3994.514404	900.771912	3.396674
285.449524	804.326904	4092.445313	911.694336	3.265315
285.821014	807.521973	4124.172363	906.567444	2.986310
286.192535	808.413574	4145.943359	904.858582	2.889712
286.563995	800.983398	4137.770020	896.462341	2.861404
286.935425	794.444763	4136.952637	897.874084	3.094363
287.306824	796.822449	4048.086182	900.474609	3.188058
287.678223	795.856445	3962.489502	897.874023	3.221642
288.049561	796.079407	3906.093994	898.319885	3.287460
288.420898	789.466492	3900.298584	894.976318	3.391691
288.792145	780.475769	3922.069092	907.459167	4.042006
289.163452	777.800842	3988.867188	909.762512	4.109590
289.534668	782.036133	4109.832031	913.106140	3.938643
289.905914	786.122742	4240.456055	907.459167	3.512586
290.277039	792.512756	4353.841797	909.168152	3.275614
290.648193	795.262024	4399.835449	913.626282	3.283724
291.019318	792.661438	4422.572266	916.969910	3.424560
291.390381	790.655273	4354.288086	918.381653	3.584162
291.761475	789.317871	4281.843262	914.443542	3.582670
292.132507	793.775940	4230.351074	910.876953	3.407492
292.503510	789.986511	4210.958496	910.802734	3.531635
292.874481	788.500488	4251.676270	921.799500	3.849040
293.245422	790.060791	4333.260254	929.452698	3.934069
293.616364	797.119568	4481.419922	932.424805	3.672481
293.987213	802.915222	4625.418457	924.325867	3.176208
294.358093	803.138123	4747.126953	915.855286	2.857948
294.728943	799.200012	4871.286621	920.536377	2.979710
295.099731	794.296082	4997.675293	924.474426	3.096992
295.470490	793.627258	5099.395996	938.963379	3.375382
295.841248	790.878113	5193.760254	939.334961	3.371810
296.211975	786.865906	5309.077637	946.170837	3.522722
296.582642	776.612061	5440.816406	943.050110	3.568413
296.953308	783.373718	5522.771973	943.124451	3.370696
297.323883	784.116699	5518.239746	941.861145	3.332073
297.694519	791.323975	5426.104980	949.514465	3.413117
298.065063	789.986572	5297.784180	944.090332	3.418604
298.435608	793.553040	5109.946777	941.935608	3.437651
298.806122	795.559265	4894.691895	926.703552	3.199318
299.176575	799.200134	4679.214355	928.709717	3.337864
299.547028	798.902893	4542.793945	917.267090	3.161529
299.917450	794.147461	4493.679688	915.409485	3.277766
300.287872	789.912292	4486.473145	913.106140	3.332661
300.658234	785.454041	4490.039551	914.146301	3.473864
301.028564	790.358093	4465.816406	918.976074	3.499373
301.398865	785.379700	4427.327637	911.174255	3.454046
301.769135	783.150635	4367.067871	910.505554	3.553512
302.139374	784.413818	4322.932129	901.589172	3.311424
302.509583	784.785339	4274.932617	907.830750	3.525508
302.879791	796.227844	4222.103516	904.264160	3.153539
303.249939	790.283691	4163.404297	909.019531	3.520059
303.620087	794.667542	4114.661621	900.920471	3.200395
303.990173	785.454102	4098.835449	906.641785	3.657523
304.360260	787.385986	4096.680176	901.663513	3.453230
304.730286	783.745117	4080.928467	907.830627	3.763379
305.100281	790.357971	4057.300049	907.607727	3.588976
305.470276	790.803772	4050.092773	910.431213	3.670354
305.840179	791.918457	4085.163818	900.697571	3.303098
306.210144	783.373596	4117.634277	893.341614	3.298123
306.579987	787.385925	4157.979980	893.713074	3.154552
306.949890	787.311707	4197.955078	903.149475	3.396361
307.319702	792.066956	4272.852051	913.997742	3.502968
307.689484	788.574890	4363.947266	913.477722	3.493422
308.059265	786.717285	4456.157227	916.449707	3.535483
308.429016	788.426208	4552.898926	912.734619	3.302147
308.798737	787.014465	4624.898926	918.307373	3.420971
309.168396	793.107239	4692.885254	921.799561	3.299991
309.538055	795.856445	4719.337402	925.366028	3.300885
309.907684	806.110291	4732.637207	927.520813	3.092059
310.277313	810.271179	4748.909668	927.372253	2.973136
310.646851	809.825378	4753.962402	930.121521	3.049999
311.016388	802.766602	4740.811035	924.400208	3.088680
311.385895	798.011230	4683.671875	920.239258	3.145618
311.755371	795.484863	4622.669434	920.313477	3.261630
312.124817	800.611816	4568.725098	916.226868	3.068248
312.494232	803.361023	4514.410156	915.186584	3.013314
312.863617	800.388977	4481.791504	908.722229	2.942717
313.232971	803.881165	4484.317871	913.031738	2.965696
313.602295	799.868835	4552.750488	918.753113	3.167813
313.971619	805.292969	4637.901855	918.976074	2.966207
314.340820	795.113464	4676.538574	921.428040	3.254335
314.710083	796.896667	4663.981934	923.657166	3.277934
315.079285	791.992676	4597.109375	926.852234	3.544163
315.448486	795.930725	4525.332520	923.805725	3.428834
315.817596	792.958679	4393.816895	917.341370	3.454251
316.186707	793.924561	4273.520996	917.861511	3.561820
316.555786	793.701660	4167.268066	915.037903	3.596676
316.924866	794.444763	4118.896973	909.613953	3.464306
317.293884	795.707825	4106.859863	900.474609	3.164058
317.662872	789.466492	4114.067383	902.480774	3.399334
318.031830	781.738953	4150.921387	903.521057	3.614589
318.400757	779.063965	4180.865723	906.195984	3.737197
318.769684	778.915344	4228.642090	904.858459	3.650814
319.138550	787.980408	4240.976074	909.019470	3.505335
319.507416	786.494324	4222.994629	910.282532	3.602159
319.876190	792.215637	4173.138184	904.338379	3.316336
320.244995	793.627380	4100.841309	897.651123	3.145359
320.613770	796.822327	4049.126709	891.484070	2.910605
320.982483	795.930847	4028.916016	892.004150	2.971659
321.351166	783.819519	4049.646484	885.316895	3.107862
321.719818	785.528381	4095.937500	898.394104	3.409419
322.088440	783.299316	4196.766113	909.242371	3.689594
322.457062	796.005066	4347.377930	918.158691	3.439617
322.825623	794.073181	4517.531250	916.524109	3.288635
323.194183	793.701660	4642.954102	917.044189	3.204324
323.562653	787.534607	4741.404785	926.257629	3.508538
323.931183	789.169250	4776.327637	928.412415	3.492291
324.299591	794.370422	4770.754883	931.979004	3.460646
324.668060	796.005066	4713.764648	929.824219	3.415706
325.036407	799.125732	4631.734863	930.567200	3.429556
325.404755	795.633545	4552.824707	920.759277	3.330300
325.773102	797.862610	4467.600098	916.895508	3.243635
326.141388	791.249695	4400.504395	909.539612	3.277406
326.509674	791.398254	4316.096680	909.019470	3.337058
326.877899	793.255859	4243.725586	917.267090	3.594039
327.246124	795.484924	4201.373047	920.164856	3.660717
327.614288	795.336365	4155.528320	923.731445	3.821064
327.982422	787.608826	4145.200684	915.483826	3.808533
328.350525	784.413818	4133.015137	914.592224	3.887546
328.718628	788.500488	4172.692871	911.694397	3.640275
329.086700	793.701660	4214.450684	908.350769	3.351579
329.454712	796.748047	4258.140625	907.459167	3.198456
329.822693	794.519043	4301.830566	911.991699	3.349365
330.190674	787.014404	4348.789551	909.093811	3.427488
330.558563	780.401550	4395.080566	905.378662	3.457489
330.926483	771.485168	4448.503906	902.555176	3.564573
331.294312	774.382996	4518.051270	907.979309	3.568594
331.662231	785.082520	4620.886230	915.929688	3.411206
332.029999	790.729492	4715.622559	914.889465	3.163398
332.397766	795.410583	4809.466309	921.056580	3.130151
332.765503	786.940125	4869.949219	924.623047	3.372094
333.133240	787.534485	4906.356934	933.985168	3.555645
333.500916	787.683105	4891.273438	939.260681	3.693779
333.868561	796.599426	4868.982910	932.350525	3.333456
334.236176	795.262024	4839.707520	932.424805	3.391387
334.603790	797.045349	4816.302246	924.697327	3.176009
334.971344	794.147461	4785.317871	932.499084	3.466442
335.338867	799.794495	4754.185059	932.127625	3.346486
335.706360	804.772766	4748.538574	927.669434	3.116226
336.073853	800.091736	4746.012207	924.177246	3.144653
336.441284	793.107239	4775.956055	919.421875	3.171464
336.808655	780.698730	4795.869141	932.573425	3.782522
337.176086	783.893738	4840.524902	937.848877	3.795148
337.543396	790.432373	4853.899902	941.043945	3.706479
337.910706	789.540710	4877.602051	939.260681	3.662371
338.277954	793.701660	4866.456543	932.722107	3.413425
338.645264	789.986572	4830.865723	935.322693	3.596646
339.012421	796.153625	4766.445313	932.424866	3.432273
339.379669	792.735657	4678.099121	934.431091	3.646903
339.746796	798.828552	4606.545410	929.378418	3.428560
340.113953	794.147461	4551.338379	926.480652	3.522131
340.481018	796.227966	4571.697754	919.124695	3.255137
340.848114	789.689270	4595.548828	915.929626	3.317000
341.215118	795.113464	4650.755859	913.106140	3.060260
341.582153	787.608826	4749.132813	920.090515	3.344210
341.949066	787.460266	4890.382324	929.750000	3.468010
342.316010	779.509827	5080.226074	938.740540	3.702423
342.682922	785.008301	5253.648438	948.102722	3.649755
343.049835	783.150696	5506.648438	957.762024	3.696653
343.416656	780.401550	5769.829590	967.272766	3.745343
343.783478	779.435547	6029.442871	978.046692	3.783064
344.150269	779.881348	6219.583496	983.619385	3.745389
344.516998	786.419983	6304.734375	982.653503	3.556041
344.883728	789.020691	6260.300781	980.424500	3.498337
345.250427	788.797668	6172.252441	975.669006	3.471216
345.617065	785.082520	6023.052734	966.009705	3.454147
345.983704	783.968018	5913.976563	964.300720	3.515251
346.350281	785.825500	5774.064453	959.991211	3.491527
346.716827	793.478699	5640.542969	957.019043	3.374008
347.083405	789.392090	5516.531250	944.536316	3.281990
347.449860	791.918457	5425.138672	949.960266	3.411057
347.816376	796.525208	5408.346191	955.533020	3.447832
348.182770	797.565430	5411.244141	959.248108	3.504420
348.549194	795.856445	5454.785645	956.721741	3.452838
348.915558	791.918396	5512.146973	959.322449	3.546524
349.281921	792.364258	5587.713379	963.483398	3.568440
349.648193	791.101074	5616.171387	957.316223	3.444823
350.014526	790.655273	5640.170410	957.093262	3.432054
350.380737	794.073181	5653.100098	952.189270	3.254069
350.746948	803.509583	5691.143066	957.613464	3.152935
351.113159	805.812988	5739.291016	962.517395	3.176347
351.479309	805.738708	5818.274902	967.421387	3.225566
351.845428	797.416809	5930.769043	974.480164	3.449274
352.211517	795.484924	6044.377441	976.634949	3.451205
352.577576	793.330139	6161.033203	982.430603	3.522931
352.943604	792.364258	6279.322754	982.727722	3.469380
353.309601	789.466492	6407.717285	986.294250	3.503364
353.675537	788.277588	6563.010254	989.563721	3.485636
354.041473	785.528320	6712.656250	996.250977	3.555224
354.407379	790.803894	6824.705566	994.690613	3.379019
354.773254	796.896667	6941.731934	1004.275574	3.374849
355.139038	799.274414	7091.600098	1010.517029	3.357147
355.504913	792.364258	7337.244629	1021.736633	3.504608
355.870636	786.197083	7589.502441	1024.114380	3.497084
356.236389	783.224915	7860.633301	1027.755249	3.455083
356.602081	791.844055	8119.652344	1041.055542	3.400901
356.967804	798.011230	8311.055664	1053.984253	3.407048
357.333405	805.070007	8427.414063	1056.881958	3.303602
357.699036	797.788269	8450.522461	1051.978027	3.321555
358.064606	791.249695	8441.160156	1045.439331	3.322779
358.430176	791.323975	8383.724609	1043.061523	3.315652
358.795654	797.862610	8361.136719	1044.324707	3.258669
359.161163	803.881104	8471.996094	1047.965454	3.183107
359.526581	800.760437	8786.817383	1053.761108	3.168030
359.892029	798.605652	9283.233398	1065.129395	3.141254
360.257416	792.587097	9814.051758	1088.460449	3.279660
360.622772	794.296082	10289.366211	1112.683228	3.353184
360.988098	788.797668	10623.059570	1131.853394	3.488373
361.353394	792.141296	10833.335938	1135.419800	3.418702
361.718658	789.243469	10734.142578	1130.441528	3.430885
362.083893	793.701660	10417.835938	1118.107300	3.370751
362.449097	793.924622	9852.318359	1092.027100	3.290898
362.814209	796.005066	9243.183594	1072.188232	3.269531
363.179382	792.958679	8607.672852	1053.018188	3.327818
363.544434	787.980286	8123.590332	1044.844849	3.501611
363.909546	782.556213	7814.343262	1032.882202	3.559920
364.274536	782.036133	7644.561035	1023.891602	3.524293
364.639587	780.624329	7508.513184	1024.485962	3.624638
365.004517	788.426208	7427.671875	1024.634644	3.557760
365.369507	781.218811	7368.601074	1018.244568	3.598178
365.734344	783.076355	7374.619141	1003.755554	3.347914
366.099274	780.029968	7334.941406	995.136414	3.281607
366.464081	788.351868	7298.979004	1006.281738	3.347295
366.828918	790.580994	7218.435059	1008.362244	3.388087
367.193665	790.432373	7162.039551	1009.030945	3.430823
367.558411	795.262024	7091.080078	1003.383972	3.305717
367.923126	792.364258	7013.953613	1004.572754	3.410841
368.287781	791.175476	6942.994629	1000.857605	3.408457
368.652435	788.649109	6911.193359	998.108398	3.421115
369.017059	791.918457	6929.769043	997.216797	3.344792
369.381653	792.587097	6966.028809	1002.863953	3.406153
369.746185	789.837891	7009.867188	1000.634766	3.389001
370.110687	790.729553	7073.099121	1003.606873	3.388488
370.475220	792.512878	7162.485840	1007.693420	3.378045
370.839661	790.283691	7224.305176	1011.780090	3.442581
371.204041	790.580994	7290.210938	1009.551086	3.368963
371.568451	791.695496	7302.471191	1002.566589	3.238801
371.932770	791.026794	7311.091309	1000.783386	3.217094
372.297150	793.924561	7240.503418	1006.876221	3.303328
372.661377	793.998840	7225.345215	1014.900879	3.434771
373.025696	797.565430	7241.171875	1012.671875	3.338293
373.389862	790.580994	7301.802246	1010.145508	3.372094
373.754059	790.432373	7363.399902	1016.386902	3.437633
374.118225	791.844055	7463.485840	1028.275391	3.543825
374.482361	794.147461	7624.350098	1036.151489	3.543146
374.846436	791.918396	7830.466309	1033.253540	3.428763
375.210510	791.844055	8088.965332	1040.312378	3.405019
375.574524	799.645813	8373.916992	1050.640503	3.313780
375.938538	800.611816	8667.114258	1065.723877	3.370139
376.302460	808.264954	8930.369141	1072.262573	3.250360
376.666412	800.611816	9112.411133	1068.696045	3.225345
377.030304	793.330139	9166.355469	1071.222290	3.318898
377.394196	786.717224	9073.848633	1061.637329	3.317434
377.757996	786.717224	8901.391602	1062.231812	3.395264
378.121796	791.918396	8637.170898	1052.126587	3.316760
378.485565	787.683105	8357.496094	1050.120483	3.466894
378.849304	786.642883	8080.420410	1051.309204	3.628659
379.212982	792.810059	7923.122559	1039.123535	3.454456
379.576630	797.936951	7840.273926	1042.244263	3.469123
379.940277	805.292908	7815.753906	1028.498291	3.183890
380.303864	807.521973	7803.049316	1030.727417	3.190688
380.667450	803.732483	7809.662109	1026.714966	3.182768
381.030945	799.794495	7799.928223	1031.619019	3.311716
381.394501	789.615051	7846.515625	1034.888306	3.475651
381.757935	793.553040	7882.701660	1033.179321	3.380184
382.121399	796.525208	7976.768066	1032.213379	3.282454
382.484741	797.936951	8084.283691	1041.203979	3.338670
382.848145	799.868835	8216.766602	1048.114258	3.347025
383.211487	794.964844	8340.554688	1062.751831	3.548921
383.574768	798.085632	8442.794922	1063.494751	3.471801
383.938019	795.187744	8502.014648	1066.392578	3.519021
384.301270	795.484863	8551.500000	1063.494873	3.455512
384.664459	798.308411	8558.707031	1059.408081	3.364514
385.027649	795.113464	8592.069336	1055.247192	3.336350
385.390778	794.147461	8669.938477	1058.442261	3.355787
385.753876	792.289856	8757.319336	1062.826050	3.396550
386.116943	794.147461	8860.450195	1066.095337	3.371407
386.479980	792.884277	8885.044922	1056.807617	3.261469
386.842987	790.878174	8928.214844	1053.092407	3.222359
387.205994	792.587097	8927.545898	1051.755005	3.185854
387.568909	790.655273	8929.106445	1058.368042	3.289480
387.931793	792.958679	8852.872070	1066.764160	3.397127
388.294678	796.450867	8820.921875	1066.615601	3.366760
388.657471	797.045227	8804.500977	1068.918945	3.395257
389.020294	795.039063	8865.280273	1065.055176	3.345824
389.383057	789.317810	8988.995117	1063.643433	3.345566
389.745819	792.958679	9171.036133	1061.265747	3.202490
390.108521	793.850342	9386.068359	1074.120117	3.261903
390.471191	789.020569	9624.877930	1085.785522	3.358644
390.833801	784.339539	9859.674805	1092.547241	3.396103
391.196442	778.915466	10041.790039	1093.884644	3.400339
391.558960	786.940125	10119.288086	1099.977539	3.354326
391.921509	787.385925	10079.833008	1100.200317	3.366329
392.284027	796.005066	10005.456055	1097.896973	3.278066
392.646484	793.850281	9938.583008	1096.708130	3.311828
393.008911	797.639648	9924.911133	1097.451172	3.284788
393.371307	795.336243	9962.508789	1097.674072	3.298049
393.733673	800.091614	9949.059570	1094.479126	3.217713
394.096008	801.652039	9896.007813	1099.903198	3.279520
394.458344	796.822327	9786.188477	1102.429443	3.399652
394.820587	797.045227	9613.434570	1100.571899	3.442755
395.182831	798.308411	9408.433594	1088.980591	3.375935
395.545013	802.766602	9164.125977	1077.315063	3.283539
395.907196	797.268250	8978.517578	1070.776489	3.343111
396.269287	789.317810	8843.659180	1061.265747	3.376414
396.631409	791.621155	8792.315430	1062.751831	3.388839
396.993469	789.243469	8751.002930	1057.996460	3.375548
397.355530	791.026672	8757.317383	1065.129517	3.440784
397.717499	786.717224	8779.609375	1057.253540	3.384711
398.079468	788.351868	8823.374023	1063.197632	3.420598
398.441376	790.060852	8815.423828	1063.049072	3.401569
398.803284	789.540710	8791.200195	1060.299805	3.383787
399.165131	788.797668	8777.528320	1053.463989	3.312996
399.526978	791.472595	8772.550781	1047.742676	3.210971
399.888763	790.432373	8767.572266	1047.222534	3.219076
400.250519	791.918396	8765.492188	1046.925415	3.198152
400.612244	788.797668	8769.875977	1047.742676	3.244487
400.973938	791.769775	8815.646484	1052.869629	3.254036
401.335602	797.045349	8884.004883	1056.956299	3.213951
401.697205	797.193848	9031.644531	1066.541382	3.270983
402.058807	795.113464	9193.178711	1080.287354	3.395709
402.420349	780.995911	9435.777344	1098.194214	3.665007
402.781860	779.138367	9649.842773	1109.116699	3.719866
403.143341	782.853455	9839.612305	1116.249634	3.681186
403.504822	784.859619	9996.092773	1119.221924	3.629941
403.866241	787.088684	10170.408203	1124.200317	3.592669
404.227631	784.785339	10316.264648	1127.172363	3.592171
404.588959	791.472595	10366.938477	1130.887329	3.544629
404.950287	793.181458	10313.811523	1140.621094	3.649335
405.311554	797.045349	10223.311523	1137.723267	3.614134
405.672821	797.119629	10116.910156	1132.299194	3.596428
406.034027	799.348633	9975.214844	1122.193970	3.518418
406.395203	799.794617	9822.077148	1122.491089	3.576661
406.756348	791.249695	9674.214844	1123.977173	3.745681
407.117493	789.243469	9620.790039	1121.599487	3.763282
407.478516	788.797668	9599.688477	1130.144409	3.874146
407.839600	803.138000	9660.988281	1142.107056	3.826764
408.200592	806.110168	9765.160156	1155.778687	3.902964
408.561554	801.800598	9886.050781	1164.026367	3.987404
408.922485	786.940125	10024.253906	1162.763306	4.068533
409.283417	789.392090	10123.968750	1165.140991	4.025345
409.644257	793.032959	10246.790039	1171.085205	3.998963
410.005096	800.091736	10339.372070	1176.955078	3.950648
410.365906	788.946289	10343.533203	1190.626709	4.204059
410.726715	782.481934	10323.471680	1186.242798	4.231855
411.087433	780.921570	10225.244141	1188.323364	4.313722
411.448120	786.865784	10197.231445	1177.772461	4.154001
411.808807	785.899902	10141.133789	1179.035645	4.202308
412.169434	790.506653	10086.149414	1180.893188	4.199672
412.530029	784.636719	10128.352539	1184.534058	4.279853
412.890564	788.649109	10192.772461	1190.849731	4.276854
413.251099	786.568604	10326.443359	1199.840332	4.332046
413.611572	789.392090	10449.637695	1205.710327	4.309603
413.972076	793.032898	10584.719727	1212.991821	4.288933
414.332489	793.181580	10718.984375	1213.809204	4.237719
414.692871	797.788330	10903.403320	1229.858521	4.275546
415.053223	800.537537	11057.656250	1239.220825	4.276866
415.413574	804.401184	11311.401367	1257.350708	4.310931
415.773834	797.639648	11485.195313	1260.174194	4.327786
416.134094	791.249695	11770.739258	1276.595093	4.420474
416.494263	796.748108	12007.914063	1292.644409	4.423236
416.854462	801.800720	12371.997070	1321.250977	4.489554
417.214630	799.868835	12754.805664	1340.569702	4.522825
417.574738	790.729553	13166.739258	1366.872925	4.655324
417.934784	790.432312	13595.762695	1382.104858	4.620518
418.294861	789.837891	14109.268555	1403.726929	4.608974
418.654846	788.426208	14677.610352	1428.543945	4.608749
419.014832	790.952454	15264.825195	1451.577759	4.564261
419.374756	786.122803	15889.637695	1485.236938	4.628818
419.734680	788.723389	16549.447266	1516.964355	4.620606
420.094543	787.014404	17125.515625	1546.165405	4.646393
420.454376	798.679932	17469.312500	1562.214722	4.580119
420.814148	796.748047	17644.072266	1568.084595	4.578392
421.173920	797.045227	17772.392578	1574.400391	4.579318
421.533691	790.580872	17883.773438	1582.944946	4.635553
421.893341	791.546875	17930.287109	1580.641602	4.604158
422.253021	792.884460	17890.535156	1587.477539	4.647382
422.612640	791.695496	17822.027344	1579.007202	4.622997
422.972260	788.872009	17830.201172	1586.362915	4.679746
423.331757	786.642883	17898.187500	1588.666504	4.687032
423.691315	783.002136	18080.824219	1596.022461	4.700131
424.050781	782.333313	18137.742188	1590.524048	4.656708
424.410248	775.943298	18038.619141	1578.784180	4.650733
424.769653	794.741882	17754.560547	1574.697632	4.598845
425.128998	803.138123	17402.439453	1563.997925	4.583686
425.488373	801.949280	16938.865234	1551.440796	4.644577
425.847656	788.723389	16504.269531	1532.493652	4.732704
426.206940	782.779114	16101.250977	1520.233765	4.814153
426.566193	788.872009	15763.694336	1503.441284	4.771805
426.925385	789.614990	15356.366211	1478.029785	4.725932
427.284576	787.757507	14952.976563	1444.147827	4.633817
427.643677	797.416748	14605.463867	1430.624634	4.585789
428.002777	794.741943	14373.415039	1418.513306	4.593758
428.361847	803.583923	14155.561523	1420.742554	4.622226
428.720856	792.066956	13972.106445	1412.940552	4.710711
429.079865	801.652039	13833.903320	1414.872437	4.705407
429.438812	793.627380	13812.801758	1409.671265	4.731820
429.797760	796.302246	13802.324219	1411.677368	4.731463
430.156616	788.797668	13676.901367	1404.841431	4.779941
430.515503	790.209473	13562.028320	1406.401855	4.824625
430.874268	793.701660	13508.605469	1403.503906	4.795964
431.233093	796.673767	13637.000000	1405.658813	4.742754
431.591827	794.816162	13787.389648	1413.832153	4.764383
431.950562	789.763672	13915.710938	1424.308960	4.834282
432.309204	785.156921	14027.016602	1438.054810	4.930561
432.667877	784.339539	14153.554688	1444.147583	4.935279
433.026459	798.679993	14264.859375	1443.627563	4.789388
433.385010	797.714050	14357.366211	1441.026978	4.744317
433.743561	803.583923	14416.734375	1450.017578	4.748597
434.102051	793.627380	14466.293945	1453.509766	4.826289
434.460510	793.775940	14511.766602	1456.853394	4.833634
434.818939	786.122803	14477.959961	1445.559448	4.816276
435.177338	779.435547	14465.848633	1441.621460	4.838272
435.535675	780.252930	14420.894531	1439.764038	4.834898
435.894012	785.156799	14409.303711	1441.398438	4.816754
436.252289	792.067078	14556.273438	1466.141235	4.897298
436.610535	801.800720	14608.062500	1471.045288	4.847399
436.968719	801.949280	14878.747070	1491.849976	4.900978
437.326935	793.775940	15055.515625	1480.630249	4.816063
437.685028	779.138367	15353.840820	1491.998535	4.891079
438.043152	780.029968	15548.289063	1488.729370	4.798801
438.401215	780.921570	15822.094727	1500.989258	4.787311
438.759277	788.872009	16157.719727	1515.181152	4.725853
439.117249	789.837891	16648.787109	1549.508911	4.790173
439.475250	789.763611	17088.734375	1577.595337	4.833629
439.833130	792.141296	17518.648438	1598.771606	4.822467
440.191071	793.998840	17697.273438	1595.650879	4.742584
440.548889	804.104004	17777.222656	1592.901733	4.647335
440.906708	803.361023	17735.613281	1585.694336	4.620374
441.264496	803.212402	17564.345703	1581.756348	4.644936
441.622223	790.729553	17307.554688	1573.062866	4.736584
441.979950	788.649109	17008.337891	1568.530396	4.808239
442.337616	788.500488	16772.947266	1556.864868	4.806950
442.695251	791.769775	16519.126953	1554.487305	4.849623
443.052887	791.546875	16381.668945	1550.549194	4.868482
443.410461	790.432312	16429.296875	1555.453125	4.891793
443.768005	798.308411	16669.220703	1558.499634	4.789840
444.125458	803.806824	16954.767578	1565.855469	4.718287
444.482941	805.144287	17296.113281	1578.561157	4.689942
444.840393	801.206238	17714.736328	1599.886230	4.722137
445.197754	799.423035	18132.318359	1617.273071	4.718485
445.555084	792.141296	18482.058594	1635.922974	4.769845
445.912415	792.810059	18773.250000	1638.003418	4.700627
446.269714	786.642883	18933.373047	1648.405884	4.748861
446.626953	783.522156	18965.250000	1645.805176	4.742580
446.984161	776.463379	18825.412109	1649.743164	4.838397
447.341309	777.800964	18604.212891	1638.152222	4.826272
447.698456	787.608826	18347.275391	1628.790039	4.790417
448.055542	793.627441	18128.082031	1624.257446	4.791786
448.412598	792.289978	17840.232422	1621.433960	4.863601
448.769653	785.528320	17509.214844	1608.653931	4.921915
449.126617	785.305481	17107.236328	1580.344727	4.870988
449.483582	785.677002	16816.638672	1563.923706	4.854648
449.840515	791.472656	16549.074219	1552.629517	4.830410
450.197388	790.878174	16312.270508	1538.140625	4.814404
450.554230	795.336243	16178.081055	1528.629883	4.766988
450.911041	792.438538	16097.758789	1514.661011	4.718768
451.267822	791.101074	16192.346680	1531.899292	4.809989
451.624573	787.980286	16184.543945	1541.410034	4.893493
451.981262	788.203308	16204.085938	1546.759766	4.920617
452.337921	795.856445	16021.524414	1535.168457	4.855695
452.694580	788.500427	15759.237305	1508.791016	4.811324
453.051147	795.113464	15515.523438	1505.001587	4.822475
453.407715	787.757507	15193.567383	1493.112915	4.896326
453.764221	799.794495	15083.303711	1486.277344	4.806122
454.120728	793.330139	14795.083008	1467.850220	4.817398
454.477142	797.714050	14752.433594	1464.729492	4.779856
454.833557	798.382751	14650.416992	1462.054688	4.791152
455.189911	795.856445	14652.942383	1458.636719	4.782970
455.546265	799.422913	14692.768555	1460.568726	4.758723
455.902557	796.153625	14717.140625	1473.497437	4.865631
456.258820	799.348633	14896.061523	1489.398071	4.895109
456.615051	791.769836	15114.362305	1488.580688	4.865117
456.971252	793.181580	15405.851563	1494.079102	4.796505
457.327393	795.262024	15893.723633	1523.502930	4.823279
457.683502	798.382751	16505.011719	1554.784546	4.815813
458.039612	801.429199	17371.158203	1601.446655	4.828187
458.395630	793.107239	18223.111328	1635.402832	4.832447
458.751648	786.197083	18970.302734	1682.362183	4.928288
459.107605	777.354980	19673.578125	1715.129883	4.962764
459.463562	783.224915	19990.775391	1723.749023	4.896637
459.819458	793.998840	19995.455078	1718.621948	4.815380
460.175323	800.908997	19547.560547	1689.643921	4.740766
460.531158	797.788269	18935.380859	1661.557495	4.762315
460.886932	793.255859	18247.335938	1622.102905	4.748730
461.242676	784.339539	17574.599609	1588.220703	4.787783
461.598419	788.277588	16994.962891	1561.546021	4.771293
461.954102	785.825623	16456.642578	1541.187012	4.820179
462.309723	793.330139	16003.320313	1519.862183	4.776677
462.665344	800.760437	15698.753906	1498.091431	4.680704
463.020905	810.345459	15495.385742	1489.175171	4.622593
463.376373	810.494080	15449.541992	1496.085327	4.683305
463.731873	803.732483	15421.530273	1503.218384	4.785166
464.087341	793.107239	15449.171875	1500.617798	4.827425
464.442749	795.633545	15524.291992	1500.840698	4.787993
464.798126	796.005066	15624.823242	1500.617798	4.751645
465.153503	792.884338	15824.770508	1506.264648	4.745780
465.508820	787.014404	16032.149414	1519.119141	4.802219
465.864105	788.203308	16202.824219	1532.567993	4.828952
466.219330	793.255859	16465.558594	1550.028931	4.828729
466.574524	795.930725	16508.060547	1547.577148	4.783861
466.929657	797.342468	16438.658203	1542.375854	4.763240
467.284790	800.388916	16225.039063	1538.883667	4.787757
467.639893	798.977112	16025.983398	1529.298462	4.796224
467.994934	796.227966	15830.790039	1520.307983	4.816103
468.349945	797.936951	15607.286133	1505.001587	4.774447
468.704926	797.119629	15450.656250	1496.902710	4.775523
469.059875	798.085510	15294.917969	1488.729492	4.764103
469.414764	792.067078	15247.512695	1485.459961	4.796759
469.769653	789.615051	15213.110352	1480.110352	4.787295
470.124451	786.197083	15274.410156	1485.980103	4.830016
470.479248	780.921570	15272.403320	1490.438354	4.896096
470.834015	784.636719	15319.585938	1492.221558	4.868162
471.188721	789.689270	15533.132813	1492.741699	4.768577
471.543365	796.599426	15840.299805	1502.995483	4.695627
471.898010	794.147461	16075.245117	1520.456543	4.752990
472.252625	788.946289	16315.985352	1538.363647	4.826531
472.607178	787.608887	16540.900391	1540.592651	4.779850
472.961700	789.689270	16636.007813	1534.128296	4.697867
473.316193	789.094910	16692.923828	1539.923828	4.721057
473.670654	790.432373	16609.554688	1542.301636	4.752914
474.025055	788.872070	16664.986328	1558.871094	4.850047
474.379456	794.741943	16694.929688	1556.641968	4.791768
474.733795	800.388855	16834.693359	1568.753296	4.792004
475.088104	805.961609	17098.693359	1573.731567	4.712347
475.442383	799.125732	17368.333984	1593.050293	4.791566
475.796570	797.936951	17636.568359	1607.985352	4.810655
476.150787	792.884277	17993.591797	1630.499023	4.869653
476.504944	792.958679	18348.685547	1647.217163	4.865982
476.859070	788.054626	18687.208984	1656.876465	4.853982
477.213135	789.689270	18925.349609	1662.523438	4.812806
477.567200	792.587097	19201.162109	1670.919556	4.771323
477.921173	788.574768	19456.689453	1684.888550	4.801308
478.275146	785.899902	19708.351563	1707.104980	4.868318
478.629089	792.141296	19961.128906	1712.454712	4.801054
478.983002	799.348633	20382.869141	1735.042969	4.777968
479.336823	806.927551	20902.320313	1754.807495	4.716902
479.690643	797.936951	21522.082031	1786.683228	4.770987
480.044403	793.255859	22258.718750	1816.850220	4.768564
480.398163	788.203308	23285.583984	1864.998169	4.786313
480.751862	789.540771	24681.728516	1941.158569	4.820060
481.105499	792.289856	26583.505859	2037.083374	4.826424
481.459137	795.039063	29332.853516	2183.608398	4.865717
481.812744	795.856445	33042.644531	2375.011963	4.897094
482.166290	791.101074	37643.320313	2613.598389	4.945421
482.519806	789.912292	42571.445313	2855.528076	4.943849
482.873291	783.299316	47115.128906	3085.346436	4.968608
483.226715	785.379822	50464.394531	3243.165283	4.947331
483.580139	780.327209	51982.261719	3308.699951	4.938042
483.933502	783.522156	51798.511719	3262.632080	4.859571
484.286804	789.020508	50108.863281	3143.153564	4.773197
484.640106	787.980286	47482.562500	2974.858154	4.683365
484.993347	793.330139	44534.824219	2819.119873	4.631277
485.346558	797.491150	42054.746094	2704.544678	4.622347
485.699738	803.955505	40741.515625	2657.585205	4.641319
486.052887	800.166016	40596.480469	2681.287842	4.726875
486.405975	793.775940	41356.300781	2737.386475	4.791641
486.759064	792.958679	42298.902344	2796.382813	4.826837
487.112061	796.302307	42929.585938	2810.426514	4.780364
487.464996	796.450928	42871.628906	2787.243896	4.731514
487.817963	796.525208	41983.937500	2726.835449	4.686651
488.170868	801.280579	40385.460938	2633.734131	4.629258
488.523743	802.617981	38420.527344	2534.837402	4.604774
488.876587	804.252625	36543.566406	2445.748291	4.592969
489.229401	797.565430	35260.656250	2406.665283	4.669053
489.582153	787.237305	34810.003906	2399.309326	4.738216
489.934845	785.008240	35222.910156	2436.980713	4.796960
490.287537	792.066956	36160.386719	2489.884033	4.800389
490.640198	802.172180	37354.281250	2547.617432	4.775225
490.992798	797.193848	38128.667969	2567.753662	4.742807
491.345337	788.500488	38209.730469	2560.694824	4.735799
491.697876	785.231140	37273.070313	2501.029541	4.702384
492.050354	789.614990	35642.644531	2416.844482	4.668832
492.402832	788.574768	33370.613281	2296.920166	4.629377
492.755219	798.085510	30888.087891	2185.837402	4.612003
493.107605	792.289978	28486.697266	2085.083008	4.668065
493.459930	789.317810	26577.710938	1991.833008	4.663009
493.812225	783.299316	25162.689453	1922.880249	4.674362
494.164490	790.580994	24263.107422	1877.481323	4.630521
494.516724	793.701721	23747.224609	1862.843384	4.657854
494.868896	788.946289	23569.492188	1873.840210	4.762370
495.221039	785.379700	23709.330078	1885.208618	4.797728
495.573120	791.621155	23935.062500	1898.360229	4.782085
495.925201	791.175293	24227.000000	1904.453003	4.750325
496.277222	792.661377	24387.119141	1913.666504	4.751138
496.629211	784.636719	24452.802734	1918.570435	4.790966
496.981140	789.169189	24351.750000	1913.666504	4.772386
497.333069	788.277527	24134.337891	1901.852539	4.769862
497.684967	793.998840	23824.423828	1877.035278	4.702633
498.036804	788.351868	23407.212891	1849.023071	4.689322
498.388580	795.633545	22975.884766	1829.109985	4.659444
498.740326	792.141296	22533.189453	1807.413696	4.669841
499.092072	800.166016	22130.320313	1794.856445	4.663306
499.443756	789.689270	21742.462891	1763.798218	4.649069
499.795410	792.884338	21373.251953	1759.042847	4.694564
500.147003	789.020691	21076.634766	1738.906616	4.682098
500.498566	798.531433	20809.964844	1734.597046	4.677654
500.850098	799.645813	20630.150391	1721.222534	4.647268
501.201599	797.119568	20463.935547	1722.262695	4.704082
501.553009	797.491028	20357.236328	1715.946899	4.695643
501.904449	794.964844	20312.654297	1705.767578	4.666550
502.255859	795.707825	20416.380859	1704.950195	4.634104
502.607178	792.958679	20534.373047	1710.448608	4.647539
502.958405	791.323975	20642.484375	1722.634399	4.691466
503.309692	800.760437	20629.779297	1720.553833	4.638623
503.660919	796.525208	20686.695313	1718.770508	4.636689
504.012115	797.491028	20708.388672	1715.575562	4.610965
504.363251	787.831726	20715.001953	1721.148071	4.683637
504.714294	786.122803	20625.468750	1720.479492	4.709614
505.065369	780.847229	20554.138672	1726.126465	4.780586
505.416443	776.314758	20432.802734	1721.742676	4.809750
505.767395	783.373596	20377.966797	1727.389648	4.817737
506.118317	789.392090	20309.982422	1709.334106	4.712675
506.469238	797.639648	20432.505859	1707.104980	4.631889
506.820160	795.633484	20569.072266	1708.145142	4.614835
507.170929	798.679932	20790.794922	1736.751587	4.692208
507.521729	794.964844	20995.498047	1749.977661	4.727662
507.872498	793.330078	21235.125000	1766.844360	4.762372
508.223236	795.707825	21518.515625	1772.937134	4.715718
508.573883	792.958679	21727.158203	1784.156860	4.734828
508.924500	789.689270	21911.873047	1778.286987	4.680377
509.275116	784.488098	22025.333984	1779.624390	4.685012
509.625702	790.432312	22217.255859	1786.014526	4.646429
509.976196	793.107239	22361.626953	1796.268188	4.651042
510.326660	801.503418	22581.337891	1817.890259	4.666642
510.677124	801.503479	22719.099609	1830.744751	4.695959
511.027557	802.097839	22918.896484	1845.976929	4.719847
511.377869	792.958679	23040.603516	1848.503052	4.744522
511.728180	791.918457	23117.062500	1858.311157	4.776644
512.078430	787.385925	23126.945313	1860.465820	4.803496
512.428650	787.608887	23030.275391	1848.948853	4.771640
512.778931	787.683105	22883.751953	1823.314453	4.686948
513.129028	790.655273	22692.646484	1805.184570	4.632133
513.479126	793.032898	22562.169922	1789.803833	4.578826
513.829285	788.797668	22453.539063	1793.518921	4.637587
514.179382	791.621155	22399.296875	1796.713989	4.651555
514.529297	785.899902	22325.664063	1809.419800	4.751770
514.879272	792.364258	22431.619141	1809.642700	4.701079
515.229187	790.060852	22547.455078	1818.261719	4.725754
515.579163	792.289856	22865.919922	1827.921265	4.691713
515.928955	786.865906	23245.976563	1850.880737	4.737565
516.278748	789.615051	23841.810547	1876.440918	4.714631
516.628540	790.729553	24612.849609	1916.564453	4.726007
516.978333	794.370361	25478.031250	1954.904663	4.701630
517.327942	785.231140	26366.396484	1999.189087	4.745515
517.677612	779.212646	27089.212891	2029.430176	4.751872
518.027222	777.132141	27580.279297	2045.108276	4.730699
518.376831	780.029968	27763.287109	2046.668579	4.694165
518.726379	787.980286	27648.931641	2034.780151	4.641682
519.075867	790.358093	27181.642578	2023.708984	4.673326
519.425293	800.091614	26588.484375	1987.523438	4.604521
519.774658	800.983337	25897.248047	1951.635254	4.584952
520.124084	797.491028	25328.458984	1915.821411	4.558851
520.473389	796.079285	24804.328125	1903.635742	4.613233
520.822693	792.661377	24403.166016	1894.570801	4.667030
521.171997	789.689270	24197.052734	1883.276733	4.671980
521.521240	783.596436	24092.359375	1880.824707	4.707364
521.870361	785.899841	24171.492188	1887.066040	4.708738
522.219482	786.865784	24352.718750	1902.892578	4.735779
522.568604	783.522217	24658.919922	1914.038086	4.735066
522.917664	791.992676	25019.880859	1928.973022	4.692858
523.266724	799.125793	25513.845703	1950.297852	4.657840
523.615662	811.980164	26249.070313	1990.867188	4.634520
523.964600	804.921387	27226.150391	2047.931641	4.704589
524.313538	801.949219	28397.162109	2109.305664	4.737620
524.662354	794.593262	29640.396484	2157.156494	4.723610
525.011169	797.936951	30912.162109	2219.125000	4.719325
525.359985	792.884338	32137.486328	2269.873779	4.712101
525.708740	791.769836	33415.792969	2329.613037	4.713837
526.057434	789.169189	34806.664063	2388.683838	4.702035
526.406067	791.621155	36602.859375	2483.865479	4.725456
526.754700	793.404480	38985.449219	2622.663330	4.789633
527.103333	794.221863	42096.054688	2781.893799	4.812551
527.451782	794.221741	45507.074219	2955.464844	4.833606
527.800293	789.615051	48449.160156	3097.383057	4.842195
528.148743	785.899902	50321.292969	3187.512451	4.848276
528.497131	793.404480	50704.027344	3182.459961	4.786667
528.845642	797.045227	49642.390625	3099.760986	4.714300
529.193909	797.565430	47371.699219	2948.480469	4.618261
529.542175	797.936951	44232.781250	2781.745361	4.567320
529.890503	801.057617	40904.539063	2611.592285	4.514657
530.238770	803.063904	37781.816406	2475.395264	4.522411
530.586914	802.320801	35554.371094	2370.999756	4.513917
530.934998	801.280518	34190.839844	2322.331299	4.555469
531.283142	798.011230	33936.800781	2321.959961	4.598686
531.631226	795.856445	34296.425781	2362.083496	4.675225
531.979248	795.782166	35308.429688	2423.605957	4.716600
532.327148	795.707825	36432.035156	2474.206299	4.710077
532.675110	790.209412	37362.828125	2511.952148	4.707737
533.023071	790.283691	37677.574219	2507.939697	4.656498
533.370850	795.187744	37141.851563	2476.732666	4.626408
533.718689	795.782166	36110.605469	2423.234375	4.608411
534.066467	793.032959	34645.500000	2352.052734	4.605336
534.414246	789.169189	33205.960938	2283.025391	4.608279
534.761963	796.896667	31984.796875	2225.440918	4.580443
535.109619	797.713928	31261.087891	2193.862061	4.583039
535.457153	798.977234	30937.052734	2186.803467	4.604893
535.804749	789.392090	30897.375000	2187.323486	4.643059
536.152344	786.568604	30823.369141	2176.995605	4.629078
536.499817	785.528320	30579.359375	2156.785156	4.602486
536.847229	790.580872	30037.468750	2126.841309	4.568898
537.194641	792.141296	29333.970703	2101.429688	4.587261
537.542114	794.816162	28559.884766	2056.327881	4.543521
537.889404	800.611816	27831.570313	2029.430176	4.545967
538.236694	802.172180	27370.521484	2015.387085	4.566391
538.583984	799.051453	27407.005859	2032.996948	4.637506
538.931213	790.952454	28007.224609	2066.730225	4.687555
539.278381	785.528320	29218.281250	2135.237305	4.747022
539.625488	780.178528	30887.865234	2219.719482	4.781307
539.972595	785.305481	33144.582031	2330.133301	4.773988
540.319641	796.079346	35394.027344	2427.024170	4.713993
540.666687	805.144287	37369.437500	2515.815918	4.678531
541.013611	807.670593	38583.027344	2564.335693	4.650294
541.360596	801.800598	38931.285156	2572.434570	4.643740
541.707458	799.645813	38431.968750	2536.695068	4.615844
542.054260	798.159851	37300.339844	2477.178467	4.599776
542.401062	794.370361	35850.171875	2391.433350	4.555774
542.747864	791.621155	34117.207031	2304.796143	4.540580
543.094666	791.175354	32305.414063	2205.899170	4.489158
543.441284	797.714050	30511.298828	2135.608643	4.502636
543.787903	803.509583	29075.623047	2072.228760	4.487529
544.134460	798.457031	27851.929688	2013.455078	4.491098
544.481079	800.240295	27040.023438	1978.458496	4.490198
544.827637	800.686218	26407.335938	1962.260620	4.536222
545.174072	803.955505	26010.632813	1957.059448	4.574597
545.520508	812.426025	25838.697266	1955.127441	4.566008
545.866943	806.704590	25783.787109	1945.691040	4.560126
546.213318	807.150391	25806.226563	1945.765259	4.554628
546.559631	800.537537	25575.740234	1924.291626	4.535802
546.905823	807.299011	25186.318359	1908.242554	4.515947
547.252136	802.097839	24524.953125	1876.663696	4.529665
547.598389	796.599426	23764.611328	1836.168823	4.526162
547.944458	793.998840	22882.041016	1782.299438	4.474369
548.290588	793.478760	21942.634766	1742.101563	4.485393
548.636658	791.546875	21072.029297	1706.436157	4.511181
548.982727	786.122742	20333.832031	1680.876343	4.577281
549.328735	786.271423	19776.337891	1661.334595	4.608005
549.674622	790.283691	19332.529297	1645.508179	4.612302
550.020569	786.865784	19028.927734	1632.505249	4.635657
550.366455	785.082520	18834.849609	1612.071899	4.581717
550.712280	780.550110	18732.013672	1609.396973	4.617155
551.058044	786.865906	18749.326172	1602.189575	4.539042
551.403748	793.998840	18874.525391	1605.310181	4.487211
551.749512	795.262024	19040.888672	1613.112183	4.482445
552.095154	795.187683	19169.283203	1630.870483	4.548157
552.440735	796.302246	19198.189453	1650.040527	4.639406
552.786316	794.296143	19168.320313	1643.427612	4.621369
553.131897	797.268250	19017.929688	1635.254272	4.599098
553.477417	798.159851	18811.146484	1616.752930	4.544461
553.822815	799.497314	18492.537109	1613.706665	4.601862
554.168213	802.469421	18172.216797	1590.524048	4.536938
554.513672	794.221863	17880.578125	1572.022827	4.552176
554.859009	795.856445	17625.720703	1550.623413	4.484689
555.204285	791.472595	17413.511719	1541.558594	4.512599
555.549500	796.748047	17224.335938	1532.567993	4.479172
555.894714	795.262024	17057.080078	1531.973633	4.530315
556.239990	793.404480	16914.939453	1534.871460	4.599233
556.585022	792.884338	16801.033203	1529.595703	4.602102
556.930115	796.227966	16728.216797	1523.279907	4.563472
557.275146	792.735779	16646.482422	1514.883789	4.555062
557.620178	790.209473	16567.423828	1511.243164	4.570095
557.965149	785.602600	16473.728516	1505.818970	4.590837
558.310059	786.197083	16396.306641	1507.156372	4.618541
558.654968	788.203308	16291.987305	1504.481567	4.620022
558.999756	789.466492	16290.797852	1502.401001	4.599183
559.344604	791.026794	16347.713867	1501.435059	4.566578
559.689331	783.522217	16430.263672	1509.162476	4.637645
560.033997	790.209473	16436.505859	1502.995483	4.555621
560.378723	794.593262	16491.861328	1509.534058	4.554556
560.723389	792.735657	16508.802734	1510.945923	4.569911
561.067932	779.807129	16582.212891	1518.599121	4.675187
561.412476	777.280762	16535.552734	1516.072632	4.688280
561.757019	782.927795	16526.484375	1511.911743	4.630364
562.101501	794.221863	16453.892578	1513.620728	4.593959
562.445862	791.546875	16392.517578	1498.760132	4.533136
562.790222	792.215637	16322.672852	1490.512573	4.496306
563.134644	792.810059	16277.200195	1489.769531	4.501046
563.478943	796.227966	16327.354492	1494.376343	4.495156
563.823181	798.605652	16412.431641	1507.453613	4.539874
564.167358	791.769836	16606.361328	1515.181030	4.574327
564.511536	796.971008	16879.275391	1530.338867	4.560092
564.855774	790.803894	17206.949219	1547.799927	4.611290
565.199768	792.141357	17553.646484	1556.567749	4.560607
565.543823	784.636719	17826.634766	1574.697632	4.635964
565.887817	791.546875	18060.687500	1579.973022	4.565520
566.231812	788.277527	18136.031250	1582.870728	4.580381
566.575745	790.432312	18073.392578	1566.821411	4.492223
566.919617	789.614990	17851.005859	1550.697876	4.460849
567.263428	791.472595	17559.294922	1540.666992	4.468048
567.607239	789.317810	17319.517578	1541.632813	4.551155
567.950989	789.020569	17151.445313	1533.013672	4.546961
568.294678	788.500488	17047.123047	1536.728882	4.602040
568.638367	794.667664	16960.412109	1521.050903	4.493349
568.981995	792.289978	16892.052734	1530.710327	4.586529
569.325623	800.091797	16915.087891	1532.493530	4.544846
569.669128	791.546875	16981.587891	1540.666992	4.627043
570.012573	787.014404	17172.029297	1540.518188	4.598737
570.356140	790.432373	17399.095703	1540.295288	4.514890
570.699524	792.587097	17658.859375	1558.276733	4.539768
571.042908	803.212402	17916.541016	1569.942261	4.480308
571.386230	795.707825	18143.685547	1580.493164	4.523786
571.729492	796.896667	18298.531250	1581.830444	4.484917
572.072815	794.370422	18320.970703	1579.973022	4.482345
572.416016	795.559265	18224.527344	1572.319824	4.456721
572.759094	791.398254	18087.066406	1566.524414	4.481620
573.102234	792.512878	17938.906250	1556.716309	4.456934
573.445374	791.992676	17768.232422	1555.750366	4.498980
573.788391	789.466492	17610.488281	1549.137573	4.516201
574.131409	792.661438	17462.775391	1551.292114	4.550843
574.474365	783.373596	17393.896484	1542.970337	4.572985
574.817261	783.596497	17321.078125	1534.796997	4.542411
575.160156	775.051697	17226.267578	1524.617554	4.556294
575.502930	787.311707	17007.742188	1518.301758	4.506601
575.845703	792.066956	16764.031250	1504.630005	4.461337
576.188477	797.268250	16447.947266	1501.435059	4.499273
576.531250	794.221741	16175.106445	1484.642578	4.488824
576.873901	798.679993	15806.121094	1473.720215	4.498037
577.216431	793.404480	15494.867188	1448.754517	4.457720
577.559082	786.197083	15136.727539	1435.528442	4.524790
577.901611	782.036133	14875.703125	1424.606079	4.559281
578.244080	784.562439	14590.973633	1418.884766	4.594404
578.586487	794.816162	14388.424805	1410.859985	4.531864
578.928955	843.038635	14207.348633	1416.358398	4.289932
579.271301	849.651611	14046.334961	1404.395630	4.203662
579.613647	845.862122	13830.485352	1398.525879	4.256294
579.955872	793.850281	13622.214844	1378.761353	4.559514
580.298157	784.859619	13490.252930	1369.547852	4.601890
580.640320	780.921631	13442.402344	1353.572754	4.522782
580.982483	793.701660	13405.102539	1345.250732	4.373416
581.324524	799.497253	13344.545898	1341.907227	4.323698
581.666626	803.732605	13259.765625	1348.594360	4.374280
582.008728	789.837891	13228.039063	1348.148560	4.488677
582.350647	780.772949	13179.519531	1349.114502	4.583863
582.692566	783.373596	13139.543945	1351.343628	4.596651
583.034424	789.912292	13052.239258	1352.012329	4.583959
583.376343	794.444641	12991.756836	1340.049561	4.473157
583.718201	786.642883	12979.496094	1331.058960	4.465043
584.059937	780.698730	12963.448242	1323.034302	4.451668
584.401611	772.748291	12923.843750	1328.978516	4.577614
584.743347	777.132141	12892.265625	1332.247681	4.582001
585.085022	783.447937	12815.213867	1327.492432	4.521735
585.426514	799.051453	12794.333008	1332.173462	4.444431
585.768127	789.986511	12751.981445	1335.517212	4.560533
586.109619	791.101074	12747.449219	1340.866943	4.598109
586.451172	786.717285	12715.796875	1336.631714	4.609865
586.792542	799.348694	12738.682617	1328.458252	4.431651
587.133850	794.221863	12811.200195	1331.876221	4.474123
587.475220	794.296143	12912.178711	1335.145630	4.463234
587.816589	785.825684	12971.323242	1341.758545	4.562250
588.157776	787.757507	13050.159180	1341.684204	4.517278
588.498962	787.460266	13084.411133	1340.421021	4.496730
588.840210	789.614990	13143.706055	1341.164063	4.464506
589.181335	794.296082	13179.890625	1340.495239	4.409955
589.522400	791.398254	13231.604492	1342.873047	4.433004
589.863403	798.382751	13244.385742	1341.015503	4.359896
590.204407	797.491150	13204.335938	1338.117676	4.357486
590.545410	790.135071	13169.711914	1343.690430	4.471521
590.886353	793.924500	13055.359375	1337.523315	4.433403
591.227112	798.457031	12936.624023	1324.743286	4.335797
591.567932	803.509583	12839.733398	1301.040771	4.133615
591.908752	789.912170	12769.221680	1292.644531	4.196672
592.249512	784.042297	12792.551758	1301.114868	4.305884
592.590149	783.596436	12769.889648	1312.780518	4.414910
592.930786	786.791504	12840.997070	1315.826782	4.388803
593.271423	782.704834	12891.820313	1319.096191	4.429649
593.612000	784.339539	12971.917969	1328.086914	4.461488
593.952576	775.274597	13119.706055	1338.786499	4.564908
594.292969	771.485168	13231.010742	1350.897827	4.650359
594.633484	773.268372	13435.640625	1355.504517	4.598160
594.973877	782.630554	13611.589844	1371.850952	4.592893
595.314209	786.791504	13883.018555	1381.287476	4.539445
595.654480	788.203308	14181.120117	1387.306030	4.473280
595.994812	787.014404	14499.209961	1385.522827	4.364789
596.335022	789.912170	14751.541992	1401.572266	4.381008
596.675171	790.135071	14814.625977	1410.711548	4.424948
597.015320	795.782227	14711.418945	1418.587524	4.475579
597.355408	797.342529	14443.186523	1395.107910	4.380568
597.695496	792.810059	14122.273438	1374.451660	4.363579
598.035461	793.330139	13729.286133	1345.770874	4.270583
598.375366	792.364258	13331.468750	1326.229248	4.257601
598.715271	798.382751	12954.085938	1312.557617	4.229907
599.055176	794.221741	12605.828125	1311.294434	4.377666
599.395081	789.020569	12367.985352	1303.121216	4.439953
599.734802	783.968018	12155.776367	1299.851929	4.536516
600.074524	785.528320	12021.065430	1286.254517	4.456629
600.414246	792.289856	11927.593750	1291.604248	4.484066
600.753906	802.395081	11933.090820	1288.706421	4.369101
601.093506	802.543640	11989.413086	1291.232666	4.368416
601.433044	803.063782	12093.659180	1297.548462	4.379615
601.772583	799.794434	12284.915039	1310.179810	4.443883
602.112122	808.636536	12534.348633	1323.925903	4.394525
602.451538	807.224792	12868.860352	1335.591309	4.380554
602.790894	793.627380	13213.252930	1346.662476	4.452913
603.130310	783.002014	13644.877930	1358.253784	4.472534
603.469604	782.927734	14017.059570	1376.086426	4.482037
603.808838	789.020569	14360.338867	1383.145142	4.377796
604.148010	782.036133	14573.883789	1398.971680	4.473190
604.487305	777.577942	14688.237305	1397.411255	4.455815
604.826416	780.847351	14636.893555	1408.333618	4.528610
605.165527	782.036133	14424.386719	1393.696167	4.483539
605.504456	788.351868	14090.098633	1379.801392	4.446405
605.843445	788.054688	13659.663086	1349.783203	4.364089
606.182434	795.559265	13226.848633	1333.213501	4.325008
606.521423	791.398254	12858.457031	1318.798950	4.370582
606.860229	794.073181	12554.187500	1311.814575	4.402520
607.199036	793.924561	12355.354492	1300.000366	4.377277
607.537903	795.707825	12254.897461	1296.285278	4.368350
607.876648	793.627380	12276.890625	1295.839355	4.373425
608.215271	795.930847	12412.938477	1309.659668	4.422213
608.553955	796.005066	12609.468750	1313.003418	4.376348
608.892578	796.822449	12803.398438	1315.901245	4.323287
609.231140	796.302246	12937.441406	1311.888916	4.246609
609.569641	792.810059	12954.828125	1315.009644	4.293692
609.908081	791.769714	12901.405273	1312.929077	4.303675
610.246521	792.810059	12748.117188	1309.213867	4.319453
610.584961	797.936829	12511.092773	1303.046753	4.312330
610.923340	794.667664	12217.225586	1294.724976	4.377805
611.261597	798.011230	11881.450195	1282.984985	4.375661
611.599854	801.280518	11593.156250	1264.706665	4.294213
611.938110	805.070007	11354.941406	1251.480835	4.231434
612.276245	794.890564	11172.083008	1236.322998	4.253871
612.614319	793.701660	11000.815430	1225.920532	4.234487
612.952393	797.714050	10840.469727	1221.833862	4.223142
613.290466	806.556091	10694.390625	1224.880371	4.230696
613.628479	804.847168	10553.215820	1219.084839	4.249302
613.966370	798.977112	10426.530273	1217.895996	4.351250
614.304260	792.364258	10303.854492	1201.177734	4.298101
614.642151	787.014404	10199.311523	1205.041626	4.441288
614.979980	784.265198	10128.872070	1193.970459	4.384404
615.317749	784.116516	10097.368164	1194.044800	4.401559
615.655396	783.373535	10067.349609	1189.735229	4.377022
615.993164	779.584167	10076.340820	1191.815674	4.434143
616.330811	780.624329	10059.473633	1196.645386	4.483541
616.668396	785.899902	10065.343750	1188.843384	4.342324
617.005859	794.147461	10050.854492	1188.620605	4.261485
617.343445	792.215576	10060.215820	1190.106689	4.293171
617.680908	792.587097	10087.411133	1190.626831	4.282381
618.018311	789.614990	10107.993164	1190.775391	4.305046
618.355652	790.209473	10119.213867	1191.815674	4.304921
618.692993	791.323914	10066.829102	1201.697876	4.424276
619.030273	796.896667	10019.647461	1198.131348	4.350488
619.367554	798.308411	9985.765625	1184.162476	4.199792
619.704712	795.336426	9995.350586	1171.308105	4.086643
620.041870	795.485046	9967.264648	1172.199707	4.107324
620.379028	794.370422	9874.459961	1177.177979	4.215900
620.716064	795.484924	9790.200195	1187.357422	4.356697
621.053040	795.559265	9760.034180	1190.849731	4.409522
621.389954	795.262024	9743.166992	1192.484375	4.439278
621.726929	799.497314	9723.773438	1188.249146	4.356116
622.063843	798.902893	9677.334961	1184.162476	4.339275
622.400635	798.902832	9668.046875	1188.843506	4.396598
622.737427	788.128967	9707.129883	1183.567993	4.433670
623.074219	785.751221	9748.442383	1180.447388	4.403769
623.410889	784.710999	9789.903320	1168.633179	4.263342
623.747559	788.128967	9805.209961	1171.085205	4.247009
624.084167	787.683167	9823.191406	1180.150146	4.343607
624.420715	788.723450	9896.379883	1191.592773	4.423414
624.757324	786.419983	9976.626953	1192.335815	4.416830
625.093750	788.203308	10106.062500	1198.280151	4.400977
625.430176	791.026672	10270.270508	1198.874390	4.302534
625.766602	799.051453	10428.833008	1217.821655	4.348699
626.102905	789.912292	10631.828125	1224.954590	4.420301
626.439209	789.466492	10758.587891	1236.174438	4.480916
626.775452	783.596497	10855.181641	1232.087769	4.453036
627.111694	787.385925	10832.964844	1223.988770	4.346219
627.447876	784.710999	10758.885742	1224.508911	4.409367
627.783997	784.190918	10636.360352	1225.772095	4.482070
628.120056	792.364258	10532.411133	1222.725586	4.418473
628.456055	798.977112	10348.437500	1210.168457	4.305912
628.792053	803.286682	10206.742188	1189.363647	4.105693
629.128052	791.621155	10030.718750	1182.825073	4.234222
629.463928	784.488098	9949.581055	1179.407104	4.308947
629.799744	782.184753	9853.877930	1183.865234	4.427845
630.135559	791.398376	9752.529297	1176.063477	4.292595
630.471375	792.884338	9644.493164	1163.729248	4.189577
630.807068	799.125732	9560.902344	1156.893433	4.083278
631.142700	803.435303	9504.730469	1159.345459	4.090312
631.478333	805.515808	9457.102539	1167.816040	4.187674
631.813965	800.463196	9408.508789	1166.849976	4.256330
632.149475	793.478760	9348.099609	1154.069946	4.215163
632.484924	797.268127	9341.709961	1146.416626	4.086265
632.820435	797.045227	9299.356445	1148.274292	4.130983
633.155884	797.639709	9322.464844	1160.757080	4.259529
633.491150	795.113464	9322.761719	1166.998413	4.360932
633.826477	802.841003	9347.653320	1174.280151	4.346955
634.161804	807.001892	9321.423828	1172.199585	4.289166
634.497009	808.859375	9260.570313	1168.707397	4.257694
634.832153	797.342529	9172.224609	1153.549683	4.253280
635.167297	790.580994	9064.485352	1147.085327	4.308780
635.502380	781.070251	8947.905273	1136.014160	4.346162
635.837463	785.676941	8860.525391	1137.871826	4.361629
636.172424	791.844055	8769.801758	1130.961792	4.250684
636.507324	796.079346	8699.436523	1136.088501	4.302085
636.842224	795.484924	8631.153320	1132.373535	4.299424
637.177124	787.088684	8557.816406	1128.955566	4.399419
637.511963	786.642883	8462.113281	1117.810181	4.314619
637.846741	780.550049	8370.499023	1113.352051	4.384772
638.181396	784.562439	8286.907227	1109.785278	4.334949
638.516113	786.568604	8251.762695	1111.940186	4.358515
638.850769	788.797668	8192.171875	1107.482056	4.304583
639.185303	787.980408	8133.844238	1103.841187	4.299845
639.519836	785.751221	8042.601074	1104.361450	4.390476
639.854370	781.515930	7982.192871	1104.212891	4.481481
640.188843	785.528320	7944.595215	1097.971313	4.364298
640.523254	792.512878	7919.109375	1096.856812	4.270537
640.857605	797.491211	7873.189941	1094.999146	4.204644
641.191895	794.444641	7795.470215	1095.222046	4.296191
641.526184	789.689270	7715.445801	1086.380005	4.283875
641.860413	791.546875	7661.576660	1078.801147	4.181267
642.194580	788.351868	7647.607910	1079.915649	4.250662
642.528748	786.791504	7652.511719	1080.733032	4.281292
642.862793	795.707825	7649.614746	1082.516357	4.184599
643.196838	797.342468	7624.128418	1088.609131	4.266527
643.530823	798.531311	7596.486816	1083.630859	4.193902
643.864746	796.525146	7564.760254	1080.881714	4.201340
644.198669	802.172180	7560.302246	1077.612305	4.075686
644.532532	807.299072	7534.222168	1074.565918	3.973092
644.866333	798.828613	7528.054688	1070.776489	4.041295
645.200073	805.218567	7504.724121	1066.466919	3.899517
645.533813	799.794495	7525.676270	1070.776489	4.028944
645.867554	802.320801	7542.915527	1070.702148	3.981568
646.201172	790.580994	7589.205566	1076.646362	4.207695
646.534729	794.444641	7583.187012	1074.491577	4.125167
646.868225	792.512756	7584.673340	1076.572144	4.182165
647.201782	795.187683	7559.484375	1070.850708	4.075265
647.535217	793.701660	7599.979004	1070.404907	4.065413
647.868591	797.342468	7605.181152	1079.321289	4.141973
648.201965	792.661377	7577.837402	1080.658813	4.244510
648.535278	786.717102	7505.169434	1074.937500	4.289982
648.868591	783.596497	7469.578125	1066.318481	4.228579
649.201782	787.237305	7472.327637	1059.779785	4.076870
649.534912	794.519043	7488.451172	1065.352539	4.045955
649.868103	793.924561	7493.280762	1068.621704	4.100351
650.201172	795.559265	7508.438965	1075.829224	4.175107
650.534180	785.454102	7526.122559	1077.240967	4.328753
650.867188	792.735657	7520.697754	1069.067627	4.107217
651.200134	795.336243	7511.410645	1064.163574	4.002745
651.533020	804.846985	7469.058594	1057.773560	3.795296
651.865845	798.457031	7450.036621	1064.609253	4.001338
652.198608	790.655273	7407.312988	1070.033569	4.222348
652.531433	785.231140	7394.978516	1077.835327	4.426859
652.864136	787.460266	7371.498535	1083.036499	4.489285
653.196777	904.932800	7471.361816	1197.091064	4.449272
653.529358	908.796570	7424.402344	1200.360352	4.474853
653.861938	901.291992	7365.554199	1184.459717	4.380511
654.194519	791.844055	7171.400879	1063.123413	4.252323
654.526978	794.964783	7127.785156	1052.572388	4.067818
654.859375	799.348633	7084.541016	1051.829346	4.017072
655.191833	792.289978	7074.361816	1048.337036	4.075838
655.524170	779.955566	7067.005859	1045.142090	4.217980
655.856445	778.618164	7062.250488	1050.417603	4.325515
656.188660	794.296082	7100.813965	1056.659058	4.160188
656.520874	799.868835	7120.207031	1063.346313	4.168724
656.853088	801.131897	7178.460449	1062.454712	4.097685
657.185181	791.992676	7204.763672	1064.163574	4.244201
657.517212	792.958679	7318.224121	1065.723999	4.180141
657.849243	793.107239	7444.687500	1078.875610	4.296248
658.181274	785.379700	7656.970215	1080.138672	4.289531
658.513123	791.026794	7838.417480	1090.243774	4.245784
658.844971	791.621155	8028.706543	1096.931030	4.218686
659.176819	800.091614	8124.259766	1105.104492	4.164471
659.508667	792.810059	8199.007813	1105.921753	4.227698
659.840393	788.500488	8194.177734	1101.760864	4.230003
660.172058	785.899902	8121.658691	1095.816528	4.224739
660.503662	788.723389	7956.558105	1094.479126	4.265664
660.835266	797.342529	7782.318359	1082.962158	4.089057
661.166931	789.912292	7608.673340	1079.395630	4.245395
661.498413	788.574768	7452.117188	1073.897095	4.281841
661.829773	782.036133	7270.372559	1074.937500	4.514275
662.161194	795.410645	7121.618652	1059.779663	4.178949
662.492615	794.518982	6999.464844	1041.129761	3.974423
662.823975	800.463318	6897.224121	1033.476440	3.821917
663.155212	794.296143	6806.203613	1042.021362	4.120576
663.486450	799.720215	6719.195313	1044.027466	4.127178
663.817627	798.977112	6659.901855	1043.953125	4.179819
664.148743	805.218567	6609.895996	1036.374390	3.982234
664.479858	801.875000	6563.084473	1033.402222	4.018726
664.810913	800.908997	6514.713379	1020.919434	3.850507
665.141907	799.051453	6473.476074	1020.176331	3.896869
665.472778	801.949219	6433.277344	1017.650085	3.830373
665.803711	800.834717	6429.859863	1023.148438	3.949418
666.134583	792.735657	6402.888184	1016.312561	3.985220
666.465454	788.649109	6389.662598	1020.399231	4.137646
666.796143	789.094910	6362.839355	1016.015442	4.071240
667.126831	791.101074	6352.064941	1022.554016	4.162101
667.457458	794.890442	6353.477051	1024.411621	4.129128
667.788147	798.234131	6362.318848	1024.708862	4.070296
668.118774	798.457031	6371.904785	1025.005981	4.064790
668.449219	795.336365	6381.118652	1019.656250	4.015908
668.779663	795.113464	6407.718262	1023.445740	4.068205
669.110107	792.661438	6420.943848	1020.250732	4.043673
669.440552	789.837891	6430.306152	1016.609863	4.020446
669.770874	785.528320	6380.077637	1013.637695	4.077350
670.101135	790.878174	6343.966309	1006.430359	3.881664
670.431396	794.073181	6276.500000	1007.024719	3.884257
670.761597	798.754211	6232.140625	1004.275574	3.782565
671.091797	798.159851	6197.070313	1012.969055	3.978751
671.421875	795.187744	6189.714355	1014.603699	4.067381
671.751892	793.553040	6177.899902	1012.523193	4.066792
672.081909	794.370422	6151.447754	1009.253845	4.011207
672.411865	794.593262	6106.271484	1006.281738	3.985341
672.741821	793.850281	6063.398926	1001.229187	3.935421
673.071716	789.169189	6028.031250	996.919617	3.965564
673.401550	788.797668	5990.285156	990.901123	3.885494
673.731262	788.946289	5978.322754	1001.897888	4.103607
674.060974	792.587097	5956.031738	999.891663	4.014850
674.390625	797.565430	5928.763184	1009.328125	4.126964
674.720276	793.998840	5884.106934	1003.755371	4.120866
675.049927	791.472595	5865.233887	1010.665588	4.320128
675.379395	797.565430	5850.299316	998.628601	3.979295
675.708923	795.039063	5828.306152	989.860840	3.870682
676.038330	796.525208	5810.101563	984.511047	3.749536
676.367737	784.785339	5787.810547	991.792664	4.137643
676.697083	787.014465	5770.720703	1000.337463	4.280409
677.026428	793.998840	5745.160645	1005.464355	4.271029
677.355652	800.388916	5768.937500	1004.721375	4.112518
677.684875	802.766602	5820.726563	999.222961	3.915064
678.013977	796.896667	5874.670410	996.993896	3.940649
678.343079	794.964783	5916.279785	1002.343689	4.049329
678.672180	793.330078	5968.589355	1011.111511	4.208126
679.001221	785.305481	6041.628906	1014.157898	4.353850
679.330139	784.859619	6123.436035	1023.074219	4.462137
679.659058	781.144531	6185.998535	1024.634399	4.505022
679.987976	786.717224	6266.765625	1027.309448	4.390330
680.316772	786.419983	6309.415527	1016.089661	4.158426
680.645630	786.865784	6343.148926	1009.476746	4.006473
680.974304	785.082520	6305.700684	1002.195129	3.932759
681.302979	782.927734	6291.731934	1004.647156	4.024819
681.631653	784.042297	6257.181152	1009.179626	4.113496
681.960266	783.522217	6226.865234	1011.705872	4.191977
682.288757	788.426086	6167.125488	1004.275635	4.013044
682.617249	789.837891	6095.274902	1001.006165	3.980224
682.945679	792.141296	6021.863770	996.399414	3.905716
683.274109	788.872009	5934.261230	1002.046448	4.143019
683.602478	796.376526	5856.912109	997.216797	3.968755
683.930725	798.902832	5756.975098	995.507874	3.965353
684.259033	803.732605	5678.808594	984.065247	3.699073
684.587280	800.463196	5593.137207	985.774170	3.866547
684.915344	801.726379	5556.134277	984.808289	3.850783
685.243469	798.234131	5516.234375	989.786438	4.060032
685.571533	804.847107	5499.367188	989.415039	3.931561
685.899536	808.487854	5466.822754	985.848450	3.807382
686.227539	808.710876	5467.046387	984.288086	3.769098
686.555420	796.971008	5477.373535	983.247864	3.979933
686.883301	785.305481	5502.859375	986.591492	4.266746
687.211121	779.955627	5532.134766	990.455261	4.429539
687.538940	777.355042	5547.143066	992.684387	4.514442
687.866638	783.670715	5556.951660	988.597839	4.293213
688.194336	792.735657	5539.639160	974.851746	3.836524
688.521973	793.255798	5505.683594	973.514343	3.825174
688.849609	790.803894	5454.488770	970.839355	3.860369
689.177063	785.974182	5389.250488	979.309875	4.199958
689.504578	795.410645	5335.604004	971.433777	3.876996
689.832031	790.729553	5273.486816	967.272766	3.938273
690.159485	795.336365	5195.988770	962.740295	3.804071
690.486816	792.958557	5106.751465	961.774414	3.913397
690.814087	800.388916	5045.525879	969.501892	3.983687
691.141296	795.410645	4987.867188	967.941589	4.115271
691.468506	791.324036	4936.523926	960.362732	4.077939
691.795715	789.540710	4863.781738	944.759094	3.809750
692.122803	791.546936	4826.333496	940.375183	3.688627
692.449829	788.946289	4813.627441	944.015930	3.852967
692.776855	791.769836	4786.061523	945.947937	3.859961
693.103821	793.181580	4754.854004	942.455750	3.767958
693.430664	794.147461	4714.582031	944.684875	3.839814
693.757568	790.506653	4708.117676	949.960266	4.070175
694.084351	783.373535	4700.539063	957.464844	4.444318
694.411133	782.407532	4680.402832	962.963196	4.632013
694.737854	785.305420	4661.529785	962.220215	4.564101
695.064575	792.141296	4652.762207	958.653625	4.313097
695.391174	797.936951	4672.378418	955.087158	4.056074
695.717773	798.085510	4707.597168	949.217285	3.865746
696.044250	795.262024	4742.371094	946.393738	3.828922
696.370789	790.358093	4789.553223	947.508301	3.929546
696.697205	782.407715	4847.435059	953.823975	4.216854
697.023621	780.327148	4959.409668	960.065430	4.300903
697.349915	789.614990	5108.312012	960.436951	3.955405
697.676208	795.559265	5272.075195	969.650452	3.888988
698.002380	796.450867	5437.027344	974.108704	3.828357
698.328674	794.296082	5586.004395	984.585449	3.971222
698.654724	792.289856	5733.271973	990.678223	4.015161
698.980896	793.330078	5845.246094	992.832947	3.949054
699.306946	787.460205	5886.410156	996.176575	4.093320
699.632935	790.580872	5854.236816	994.987732	4.036745
699.958862	796.896667	5753.556641	986.888672	3.833065
700.284729	805.738708	5602.053223	974.851746	3.525896
700.610596	804.252625	5444.605957	962.220215	3.404215
700.936340	799.720215	5255.505859	957.539124	3.541887
701.262146	795.484924	5087.581543	949.737305	3.593870
701.587830	797.862610	4919.583496	944.461914	3.556750
701.913513	798.531433	4783.386230	953.452454	3.887746
702.239075	792.735657	4648.601074	947.805481	4.021661
702.564697	787.831726	4532.168457	951.446289	4.369654
702.890137	786.865723	4425.395996	941.341125	4.245544
703.215698	792.364197	4352.281738	936.214172	4.040823
703.541016	795.113342	4280.134277	928.635315	3.831311
703.866455	789.466370	4240.604980	927.595154	4.002412
704.191711	790.358093	4193.125488	931.607483	4.151015
704.517029	794.816223	4153.373535	926.703430	3.926901
704.842163	797.639709	4117.262207	915.335205	3.545448
705.167419	791.992676	4106.191406	919.570374	3.849428
705.492493	790.506653	4113.547363	921.428040	3.939807
705.817566	791.695496	4114.735840	924.251465	3.988997
706.142578	799.497253	4100.246582	914.517883	3.484682
706.467590	798.085510	4101.436035	912.437317	3.461692
706.792480	798.457031	4087.169922	911.322815	3.431914
707.117371	797.491150	4086.500977	910.654114	3.440639
707.442200	800.463196	4090.067383	924.548828	3.772053
707.766907	798.011230	4091.182373	933.539368	4.115429
708.091675	800.240234	4109.014648	939.186340	4.199322
708.416321	799.422852	4091.776611	926.554932	3.861434
708.741028	803.138000	4100.246582	922.691223	3.626002
709.065552	806.853210	4117.931152	924.623047	3.556843
709.390137	804.104004	4140.890625	918.901672	3.440366
709.714600	804.475586	4172.691895	915.781067	3.304582
710.039063	795.707825	4207.985840	912.140137	3.412158
710.363403	803.063782	4269.880371	921.948181	3.429209
710.687744	803.806885	4313.867676	930.715820	3.615577
711.012085	796.005066	4359.786621	935.694153	3.919687
711.336304	782.036133	4394.560059	939.260742	4.352210
711.660461	781.070129	4431.414551	938.963562	4.325439
711.984619	790.209412	4428.665527	938.591980	4.078174
712.308716	791.769836	4396.863770	932.796387	3.911869
712.632751	791.175354	4356.294434	932.573425	3.966153
712.956726	793.776062	4302.722168	926.034851	3.769188
713.280701	794.370422	4249.818359	926.034851	3.810343
713.604553	794.816223	4186.810059	916.821289	3.596854
713.928467	792.289856	4141.336426	923.954346	3.931402
714.252258	796.896667	4122.166504	920.685059	3.722657
714.575989	797.788330	4111.541504	922.616882	3.766984
714.899719	799.051453	4107.751465	913.700500	3.465078
715.223267	794.816223	4091.999268	917.712891	3.727323
715.546936	797.936829	4074.984375	913.031738	3.512152
715.870422	795.113464	4060.940674	915.186584	3.676653
716.193970	798.605652	4056.037109	910.951355	3.448905
716.517395	795.559265	4052.024658	915.335266	3.678098
716.840820	803.212402	4024.607178	915.260925	3.478261
717.164124	798.754211	3939.233154	912.363098	3.617566
717.487488	801.132019	3865.004639	907.384766	3.467923
717.810730	792.661438	3800.361328	909.985413	3.900787
718.133972	796.970947	3760.163330	907.161926	3.718657
718.457092	785.528320	3706.962891	912.363220	4.341528
718.780212	792.067078	3657.105469	906.938965	4.009436
719.103210	788.277588	3613.118408	901.291992	4.000735
719.426208	796.673828	3573.886719	898.988586	3.684081
719.749207	793.850281	3536.661133	904.338379	4.028280
720.072083	797.713928	3510.209229	905.007141	3.955517
720.394958	794.444641	3476.475830	898.022705	3.861926
720.717773	790.135193	3447.051758	880.784485	3.411823
721.040527	788.946289	3410.940674	880.115723	3.477103
721.363281	789.986511	3392.736328	877.440735	3.360070
721.685913	788.649109	3361.232422	885.168274	3.751838
722.008545	794.667542	3342.656494	886.951477	3.621834
722.331055	792.587158	3310.409180	891.261047	3.919018
722.653503	793.107239	3290.867432	890.592346	3.902901
722.976013	782.779236	3278.384766	891.261047	4.346913
723.298401	785.082520	3280.093750	887.917480	4.121623
723.620789	789.763611	3286.260986	893.193054	4.142982
723.943115	798.085449	3288.266846	903.966980	4.251961
724.265381	799.497253	3293.468018	907.979248	4.349770
724.587585	795.856445	3291.090576	909.836731	4.567919
724.909790	790.432312	3278.533203	900.474609	4.422743
725.231873	790.729553	3285.294922	895.050598	4.181932
725.553894	788.277527	3293.393799	891.781250	4.131693
725.875916	855.001465	3372.897705	933.985168	3.136893
726.197937	864.214905	3379.213623	939.557922	2.995748
726.519775	867.707214	3402.247314	934.876770	2.650167
726.841675	798.308411	3380.625244	889.032043	3.513265
727.163513	792.438538	3407.820313	892.152771	3.812607
727.485291	788.426208	3432.042725	895.942200	4.067004
727.806946	806.778992	3453.144531	904.635559	3.697772
728.128662	802.915222	3471.869141	897.205383	3.532851
728.450256	810.716980	3496.537354	893.118713	3.068028
728.771790	799.348694	3497.280518	885.837097	3.205730
729.093323	796.450867	3501.590088	890.592468	3.480102
729.414795	799.274414	3471.274658	891.484070	3.450960
729.736145	799.497314	3454.482178	891.632629	3.470276
730.057495	807.150452	3445.343018	886.728699	3.016393
730.378845	803.881165	3450.766846	883.310730	3.000869
730.700134	803.361023	3477.887451	887.025879	3.128212
731.021301	795.559265	3503.150391	890.592346	3.509876
731.342468	789.689270	3531.162354	892.970032	3.767345
731.663574	783.076355	3530.791016	886.802979	3.775014
731.984680	780.995850	3524.029297	883.979492	3.754371
732.305664	786.122803	3527.893311	887.397400	3.693766
732.626648	790.580994	3534.208984	893.638855	3.756262
732.947571	793.404480	3526.778564	897.948425	3.824722
733.268433	791.026794	3502.333008	897.131042	3.913400
733.589233	792.067078	3470.160156	897.354004	3.931414
733.909973	800.017395	3437.466797	902.555176	3.887763
734.230713	798.308411	3396.748779	901.812073	3.983299
734.551331	795.856445	3345.331299	895.050598	3.890768
734.871948	788.723328	3293.913818	879.001160	3.603631
735.192505	788.426208	3250.223877	878.926941	3.676205
735.513062	791.175354	3214.856201	875.211731	3.467304
735.833435	788.203308	3173.246338	876.697815	3.710395
736.153931	787.534607	3136.986572	871.793762	3.586332
736.474304	785.676941	3117.742188	876.177673	3.880712
736.794617	789.689270	3113.729736	879.818542	3.878128
737.114807	802.395203	3096.937500	880.635803	3.409857
737.434998	803.658264	3089.358643	879.298401	3.309276
737.755188	803.435364	3081.408203	879.595642	3.343336
738.075256	793.032898	3106.819580	879.818542	3.750806
738.395325	788.277527	3129.259033	880.933105	3.957980
738.715271	786.865784	3177.630127	884.499573	4.083790
739.035278	787.683105	3207.499756	887.174500	4.111526
739.355164	783.076355	3222.137451	879.224121	3.941999
739.675049	788.723389	3210.843506	876.549133	3.625986
739.994873	785.677002	3188.255127	876.326355	3.773003
740.314636	795.559265	3148.726318	889.775146	4.003791
740.634277	795.707825	3101.916016	892.078430	4.178747
740.953979	793.404480	3060.306396	888.809143	4.208592
741.273499	789.466370	3031.848389	877.589417	3.929885
741.593140	787.385925	3008.888672	871.645203	3.792896
741.912598	794.296082	2978.944580	865.552429	3.261685
742.232117	799.423035	2946.920166	865.626709	3.082829
742.551453	791.844055	2907.019531	864.140625	3.417994
742.870850	788.128906	2880.344971	861.391418	3.501670
743.190063	787.237305	2844.233643	853.812561	3.236528
743.509338	790.135193	2817.930664	851.806396	3.041293
743.828552	792.661438	2795.565430	852.177917	2.971509
744.147705	785.454102	2782.413818	859.236633	3.694743
744.466797	789.837952	2779.442139	859.236633	3.488065
744.785828	782.110413	2764.953125	867.409973	4.301882
745.104858	783.968018	2764.655518	865.032288	4.092734
745.423706	781.367432	2758.191162	863.620605	4.160875
745.742615	788.649109	2742.141602	865.255188	3.921494
746.061401	795.856384	2739.615234	874.022888	4.021410
746.380249	798.234070	2712.346436	875.434570	4.033227
746.698975	801.057617	2692.210693	863.397522	3.296396
747.017639	808.562195	2669.473877	859.236633	2.723098
747.336304	814.357849	2672.594482	862.208740	2.575070
747.654907	806.630371	2686.117920	873.502747	3.558011
747.973389	805.292908	2678.018555	864.958008	3.186003
748.291931	798.457031	2679.579102	856.710388	3.096735
748.610352	803.955505	2691.318848	848.611328	2.366043
748.928711	798.159851	2720.668213	858.270691	3.126688
749.247070	804.326965	2734.191406	865.552429	3.172527
749.565308	797.862610	2733.968506	866.072449	3.523043
749.883545	794.593323	2708.408447	865.180908	3.688318
750.201782	785.825623	2689.312744	861.763000	3.989383
750.519836	790.432434	2676.012451	860.425537	3.712020
750.837952	785.082581	2672.743164	859.682556	3.951980
751.155884	784.710999	2655.281982	864.140625	4.246277
751.473877	784.190918	2642.576416	864.883606	4.342085
751.791809	793.330139	2628.607422	857.899231	3.518220
752.109619	799.943115	2635.963135	851.211975	2.792391
752.427490	801.800598	2623.777832	850.691895	2.683420
752.745300	801.577698	2626.081299	853.441101	2.842603
753.062988	795.707825	2627.195557	858.196472	3.411906
753.380615	792.884277	2637.523682	857.156189	3.484253
753.698303	789.466492	2643.468018	861.762939	3.899482
754.015808	792.661438	2641.684570	860.574158	3.672897
754.333374	786.568604	2629.498779	859.831055	3.975324
754.650757	780.029968	2617.981934	861.837219	4.451001
754.968262	776.091980	2597.771729	858.716492	4.535623
755.285583	784.190918	2595.988525	863.694824	4.388123
755.602905	790.060852	2602.824219	854.852783	3.574208
755.920105	792.289978	2600.446777	850.246033	3.205256
756.237305	795.707825	2598.143311	839.695007	2.440430
756.554443	794.964783	2592.050537	841.849854	2.608950
756.871582	797.045227	2596.954346	850.543274	2.972264
757.188599	794.741882	2610.031494	862.654602	3.741151
757.505615	793.478821	2622.365967	866.889832	4.013971
757.822510	799.794617	2649.635010	872.611145	3.936368
758.139465	800.537537	2672.148682	875.063171	3.981898
758.456238	806.481750	2697.337158	874.543030	3.599497
758.773010	797.639709	2733.745850	867.781494	3.622827
759.089783	788.946289	2754.996338	861.242859	3.677250
759.406433	786.271301	2767.330811	860.499817	3.746910
759.723145	782.556335	2763.318359	857.453430	3.781226
760.039673	789.763672	2777.881592	860.425476	3.554206
760.356201	788.351868	2782.562500	862.283020	3.707289
760.672668	793.627258	2778.996094	862.357422	3.461833
760.989136	792.289856	2763.763672	865.849609	3.731206
761.305481	789.020691	2751.429688	855.967285	3.411450
761.621826	778.543945	2747.565674	855.670166	3.916982
761.938049	784.339539	2755.590576	842.592773	2.955140
762.254333	793.404480	2791.776123	857.601990	3.212491
762.570496	802.320801	2872.171875	864.437805	3.001037
762.886597	790.952454	3007.031250	877.069275	3.886000
763.202637	778.989746	3200.218506	875.063171	3.967962
763.518677	777.206482	3441.627686	884.351013	4.021306
763.834656	792.364258	3655.471436	895.793640	3.612487
764.150574	795.633545	3799.172607	902.703796	3.564803
764.466370	797.416809	3829.116455	910.654114	3.735110
764.782288	788.946350	3750.132813	915.632385	4.278219
765.097961	788.723450	3597.440674	912.065918	4.391416
765.413696	786.419983	3408.191406	905.304382	4.534506
765.729309	781.367371	3245.914063	889.849426	4.401704
766.044861	781.144531	3115.884521	885.465576	4.468208
766.360474	784.116638	3015.501709	874.543030	4.052478
766.675903	787.757507	2928.716064	872.759766	3.970290
766.991394	787.460266	2860.431641	871.496643	4.053909
767.306763	792.141357	2792.742188	868.375916	3.810583
767.622131	796.079346	2735.826172	867.484192	3.681143
767.937378	799.720215	2667.096191	860.425537	3.250836
768.252625	798.828613	2620.211182	860.871399	3.406357
768.567810	796.302246	2575.406494	857.081970	3.416311
768.882996	794.741882	2558.985596	855.521484	3.445080
769.197998	784.711121	2536.695068	849.651611	3.706683
769.513062	782.630615	2524.212158	842.890076	3.460042
769.828064	781.961853	2490.255615	844.004639	3.631857
770.142944	786.865784	2451.023682	837.837585	3.062918
770.457825	787.385925	2414.392578	838.729187	3.155689
770.772705	784.116638	2375.755127	846.605225	3.926054
771.087402	785.008240	2353.093018	850.394592	4.169823
771.402100	787.906067	2336.300537	848.685730	3.925334
771.716736	791.992676	2325.526611	836.202820	2.882893
772.031372	791.472656	2300.858154	841.181152	3.293294
772.345947	787.088684	2281.762451	842.221375	3.688610
772.660461	785.305481	2265.935791	850.320313	4.391024
772.974854	789.912292	2265.489990	854.629883	4.385916
773.289246	796.896667	2250.926758	850.766174	3.704841
773.603638	796.599426	2244.165283	844.524719	3.310750
773.917908	793.924622	2239.484131	835.831360	2.898998
774.232178	785.676941	2233.242432	840.289551	3.772721
774.546265	787.831726	2213.775391	842.592834	3.840342
774.860474	785.825500	2189.478516	842.369934	4.028377
775.174561	785.751282	2183.162842	841.924133	4.019778
775.488586	792.810059	2181.602295	844.970520	3.755815
775.802551	801.057617	2180.264648	845.713562	3.237798
776.116516	804.252686	2171.571289	848.165527	3.211603
776.430359	801.280579	2170.085205	842.964417	3.045273
776.744202	801.057617	2159.608643	848.611328	3.500326
777.057922	808.042053	2154.258789	843.707336	2.649297
777.371704	807.744873	2139.843994	840.809570	2.482150
777.685303	796.450867	2128.549805	839.174988	3.207278
777.998962	789.614990	2112.574951	842.964417	4.032580
778.312500	786.494324	2100.686523	843.633118	4.347826
778.626038	787.460266	2100.315186	845.713562	4.437146
778.939453	790.358093	2090.952881	854.704102	4.947430
779.252869	792.289856	2091.101318	866.146790	5.686501
779.566223	791.546875	2087.386230	858.939514	5.200694
779.879578	786.865906	2092.587646	849.205872	4.774369
780.192749	790.060852	2094.519287	842.147034	3.992935
780.505920	784.190918	2091.250244	846.456604	4.763800
780.819031	790.952454	2079.807373	844.450500	4.150820
781.132141	788.946289	2063.460693	848.388489	4.663909
781.445190	797.119629	2050.606445	842.592834	3.627737
781.758118	796.227966	2046.668457	844.301758	3.844549
782.071045	794.518982	2042.656128	836.054199	3.327776
782.383911	793.627380	2027.201050	837.020203	3.517651
782.696838	803.286804	2008.253906	833.453613	2.503538
783.009583	806.630371	1993.096191	830.704407	2.029054
783.322266	807.893555	1989.529663	826.543457	1.578312
783.634888	797.491028	1983.956909	826.320496	2.429861
783.947510	792.810059	1977.121094	826.394836	2.835807
784.260132	789.986511	1971.325562	837.466003	4.019125
784.572571	781.961853	1955.127441	831.818909	4.249789
784.885010	776.983582	1953.641235	831.596008	4.641318
785.197449	779.584167	1947.697266	818.964600	3.371286
785.509766	786.568665	1956.762085	824.165833	3.212902
785.822083	788.723389	1955.796265	820.153503	2.693072
786.134277	794.816223	1951.783813	828.549622	2.915674
786.446533	794.593262	1953.269897	833.082214	3.321803
786.758606	796.673767	1945.616821	841.403992	3.893163
787.070740	790.506653	1951.041016	833.156433	3.675012
787.382690	790.209412	1956.464844	829.441345	3.363923
787.694641	800.463196	1991.684448	829.218323	2.413920
788.006653	804.029724	2020.365234	835.905579	2.620647
788.318481	808.339294	2067.027344	841.403992	2.626918
788.630310	801.652100	2112.277588	834.716797	2.522818
788.942017	796.153625	2152.624023	829.664246	2.470428
789.253784	788.649109	2163.323486	817.255615	2.080966
789.565430	787.534485	2132.562500	817.775696	2.248370
789.877014	782.556213	2095.262451	824.165771	3.169754
790.188538	782.481934	2056.847900	835.459778	4.157192
790.500061	784.413818	2014.569702	843.633118	4.813967
790.811462	787.311707	1979.498901	839.100586	4.344022
791.122925	788.426208	1954.978882	832.710632	3.796179
791.434204	784.116699	1930.830566	824.537292	3.524907
791.745483	791.546875	1913.889648	824.834473	2.965903
792.056702	786.642883	1888.923828	830.704407	3.997304
792.367920	785.676941	1871.091187	837.911804	4.812436
792.678955	780.178528	1863.809448	841.626953	5.670605
792.990112	781.739014	1851.623657	841.106750	5.548985
793.301086	781.738953	1863.437866	837.837585	5.186160
793.612122	787.088806	1863.363770	837.688904	4.701410
793.922974	793.107239	1863.215210	837.168762	4.117484
794.233826	789.169189	1847.462891	840.661072	4.865557
794.544556	791.472595	1839.661133	838.431946	4.480048
794.855286	792.364258	1843.376343	839.843689	4.517496
795.166016	796.228027	1856.082031	833.899475	3.554400
795.476624	793.330139	1877.332520	833.676575	3.721987
795.787292	786.642883	1889.963867	830.778809	4.000279
796.097778	789.169189	1911.883179	833.899475	3.984121
796.408264	779.732849	1919.536499	835.385559	4.882658
796.718689	780.624451	1928.973022	837.540283	4.956320
797.029053	782.556335	1939.969727	846.085144	5.488861
797.339355	791.101074	1948.365845	842.295715	4.423762
797.649658	793.404480	1946.359741	849.280090	4.846294
797.959839	789.466370	1921.022461	839.100586	4.386368
798.270020	792.958679	1884.837280	842.815735	4.566172
798.580078	796.822266	1872.502930	832.116150	3.281075
798.890137	796.450867	1861.357544	835.905579	3.704992
799.200195	792.809998	1857.419434	833.230713	3.796765
799.510071	790.580994	1839.066772	838.134766	4.535471
799.820007	793.181458	1828.664429	842.369934	4.750293
800.129883	792.958679	1823.760254	843.707458	4.923235
800.439575	794.147461	1809.494141	840.140930	4.529829
800.749329	788.797668	1795.822266	834.493896	4.537747
801.058960	788.054688	1784.899902	834.568176	4.666070
801.368591	784.636719	1782.670898	835.534119	5.099765
801.678162	786.940186	1775.834961	828.326721	4.185131
801.987671	781.590332	1767.215942	828.401062	4.749342
802.297119	784.933899	1753.024048	823.942871	4.029477
802.606506	783.447937	1751.909546	826.246277	4.419209
802.915894	788.574768	1742.175781	828.103821	4.145240
803.225159	787.237305	1739.946777	834.048035	4.913432
803.534424	787.385925	1731.550659	841.552551	5.736989
803.843628	788.203308	1726.646606	833.825134	4.861437
804.152771	782.481934	1729.767212	831.298828	5.153347
804.461792	787.534607	1734.894165	828.103821	4.282346
804.770874	784.190918	1738.460938	830.407227	4.843106
805.079773	783.745117	1739.500977	827.657959	4.594567
805.388733	779.658508	1739.203735	828.549622	5.095238
805.697571	782.927795	1751.760864	826.766418	4.524889
806.006470	785.528320	1767.215820	831.075928	4.639726
806.315125	792.661438	1784.379883	829.292664	3.693712
806.623901	799.051453	1795.376587	829.738464	3.080020
806.932495	802.543640	1791.587036	825.874756	2.358958
807.241150	801.875000	1783.859741	829.441345	2.807207
807.549622	799.274414	1756.442017	829.812805	3.190496
807.858154	797.714050	1741.655884	827.286621	3.132881
808.166565	798.085510	1723.823120	823.942871	2.793163
808.474915	799.051453	1715.426880	830.110046	3.389287
808.783264	806.555969	1700.269165	830.481628	2.677107
809.091492	808.487976	1694.473511	826.246338	2.004363
809.399719	804.698486	1686.523071	814.209229	1.078530
809.707825	798.902893	1674.560181	811.682922	1.459478
810.015930	795.039124	1665.198242	817.404236	2.570232
810.323975	790.283752	1664.678223	823.719910	3.823921
810.632080	791.546875	1660.591431	824.908875	3.838928
810.939880	790.432373	1645.210938	821.416565	3.624821
811.247864	795.410645	1627.378296	822.233948	3.224080
811.555664	789.763611	1617.718872	823.422852	4.065345
811.863464	784.933899	1603.824219	818.667480	4.119426
812.171143	784.933899	1603.452759	816.735535	3.885266
812.478882	783.447815	1601.595093	814.803650	3.832542
812.786438	793.627380	1609.173828	821.342285	3.398323
813.094055	794.964844	1603.601196	819.261902	3.004695
813.401489	798.605652	1604.938843	815.026611	2.036498
813.708984	787.608826	1605.310181	805.887390	2.235359
814.016357	788.128906	1612.814819	810.939880	2.766020
814.323730	788.203308	1611.997559	820.302063	3.896453
814.630981	794.816223	1598.548828	830.407227	4.428215
814.938232	791.769775	1584.951294	824.983093	4.187354
815.245361	790.580872	1578.932739	828.549622	4.816219
815.552490	785.231140	1583.019531	826.692078	5.196984
815.859619	780.550110	1577.521118	833.750793	6.675360
816.166565	781.887512	1574.028809	819.410400	4.736893
816.473572	787.088684	1579.452759	815.546692	3.591532
816.780457	790.803894	1599.886230	814.877991	2.975482
817.087341	795.856445	1619.873657	824.091492	3.426512
817.394043	795.782227	1623.811646	827.435120	3.822677
817.700806	802.320801	1627.081055	827.286560	3.027032
818.007507	796.227966	1629.310059	832.859192	4.397073
818.314209	799.051453	1630.721802	833.453613	4.136514
818.620667	793.775940	1641.718628	828.475342	4.092187
818.927246	794.221863	1649.891968	819.187500	2.917671
819.233704	791.546875	1694.102051	818.815979	3.021323
819.540161	790.878113	1739.649536	828.995544	4.017557
819.846497	795.039063	1807.487793	837.391663	4.183185
820.152832	792.215637	1871.091187	842.890076	4.696968
820.458984	793.998840	1944.427856	843.855957	4.333785
820.765259	789.912292	2024.897827	848.239746	4.722926
821.071350	788.426086	2132.042480	855.224304	4.971524
821.377502	790.729492	2300.858398	861.540039	4.689040
821.683472	793.775940	2633.288574	867.038391	3.982710
821.989441	802.246521	3293.245117	885.985657	3.361669
822.295349	795.262024	4356.368652	921.205139	3.536628
822.601196	799.125793	5705.557129	974.405945	3.572457
822.907043	800.463196	6923.675781	1019.879150	3.583347
823.212769	802.766602	7596.189941	1044.696289	3.561234
823.518494	802.023621	7559.781738	1034.962524	3.446985
823.824097	794.890564	6943.960938	1008.139343	3.467984
824.129700	785.454102	6059.312012	968.015869	3.461636
824.435242	785.379700	5143.308594	942.455750	3.604374
824.740723	779.584167	4363.575684	913.552002	3.737951
825.046082	785.528381	3767.742188	901.292053	3.881803
825.351501	778.543945	3321.108643	888.066162	4.307549
825.656799	778.321045	3010.523438	879.001221	4.510352
825.962036	783.893738	2802.252686	870.976501	4.314533
826.267212	788.426208	2706.402344	863.249023	3.901134
826.572449	796.971008	2706.402344	868.895996	3.766828
826.877502	794.444641	2827.218506	867.781494	3.607723
827.182495	793.627380	3088.615967	879.298340	3.732958
827.487488	791.101074	3431.448242	882.567688	3.464189
827.792419	791.844055	3705.253906	896.090759	3.578168
828.097290	793.553040	3789.067139	900.771912	3.579314
828.402100	796.227966	3637.489502	893.564514	3.425822
828.706848	793.181580	3357.071289	884.499573	3.561697
829.011597	789.094910	3002.127197	872.091003	3.750334
829.316223	786.419983	2663.306885	866.592590	4.271574
829.620789	790.952454	2374.195068	856.338867	4.129905
829.925354	794.816223	2148.834717	845.342041	3.731545
830.229797	799.274414	1996.514038	837.688904	3.208588
830.534302	802.469421	1879.115723	836.425781	3.153901
830.838562	801.057617	1788.020508	836.871582	3.628704
831.142944	798.085510	1727.612671	838.729187	4.372511
831.447144	796.079346	1672.628540	831.967590	4.094265
831.751404	790.729492	1641.421509	823.645691	3.869344
832.055542	796.227966	1619.353516	824.611572	3.448272
832.359619	792.884277	1628.938599	823.348450	3.643803
832.663635	800.611816	1662.894897	828.846863	3.274452
832.967651	795.039063	1715.129761	829.812744	3.779375
833.271545	797.193848	1812.020508	830.035706	3.236204
833.575439	787.237305	1964.043945	832.859192	3.876753
833.879211	780.327209	2185.837646	840.512390	4.282087
834.183044	781.738953	2425.760986	852.772217	4.320701
834.486694	787.906067	2614.118164	860.499756	3.975096
834.790344	800.091614	2663.826904	857.527649	3.081770
835.093933	792.512878	2587.146484	853.663879	3.407437
835.397522	786.791504	2435.271729	849.428711	3.799694
835.700928	780.029968	2253.378662	844.821960	4.397601
836.004395	790.283691	2077.949951	843.781738	4.154652
836.307739	799.348633	1917.753296	831.150208	2.843477
836.611023	805.887268	1808.528320	828.103821	2.215803
836.914307	801.577698	1719.290649	824.983154	2.550411
837.217529	802.097900	1645.953735	831.001648	3.425200
837.520691	794.073242	1578.115601	829.069824	4.463609
837.823730	794.593262	1512.952026	824.462952	4.158046
838.126831	788.723450	1466.958618	822.382507	4.962741
838.429749	796.748047	1427.578125	820.524963	3.769148
838.732727	797.491028	1409.374023	817.107117	3.205856
839.035522	797.119568	1387.380493	818.072937	3.549849
839.338379	785.602722	1376.680786	815.175110	5.003127
839.641113	787.608887	1384.928345	817.998718	5.087702
839.943848	791.918396	1422.525757	818.593079	4.229999
840.246460	795.113464	1475.503296	817.181335	3.243416
840.549072	791.175354	1534.276855	814.506409	3.139686
840.851563	792.884338	1570.685059	812.054443	2.464655
841.154053	795.187683	1575.143433	815.100830	2.553113
841.456482	795.262024	1537.620483	818.370178	3.112803
841.758850	793.107239	1490.141113	816.809753	3.400482
842.061157	799.497314	1437.014648	815.695251	2.540784
842.363403	804.698486	1393.473267	813.317566	1.463901
842.665588	805.590088	1344.284790	810.419739	0.896547
842.967712	798.159851	1313.151978	814.803650	3.231855
843.269775	791.101074	1285.882935	818.221497	5.481289
843.571777	787.831787	1262.031616	818.741699	6.518331
843.873840	788.054688	1242.192871	817.329895	6.446321
844.175659	785.602722	1235.208374	811.237122	5.701530
844.477600	785.379700	1228.818359	816.141113	6.937016
844.779297	782.036133	1230.675903	812.574524	6.806884
845.081116	781.367432	1222.725586	813.689026	7.323212
845.382751	778.915466	1223.988647	809.453857	6.861432
845.684387	781.218933	1195.084961	812.500244	7.558318
845.985962	788.500488	1177.549561	812.723145	6.226119
846.287537	797.416809	1158.602417	815.695251	5.060678
846.588989	802.840820	1154.441406	812.797363	2.831777
846.890381	806.110168	1150.057495	812.574524	1.879461
847.191711	799.645813	1149.091553	809.973938	2.955573
847.493042	799.645813	1149.760254	817.255676	5.029745
847.794250	806.333069	1137.871826	812.797546	1.949841
848.095459	814.729309	1139.803711	810.791260	-1.211430
848.396606	807.001892	1144.633545	798.085632	-2.640825
848.697693	796.227966	1153.698364	804.104065	2.203287
848.998657	789.169250	1141.364136	801.057617	3.375508
849.299622	787.831787	1136.460205	807.150452	5.541334
849.600464	789.169189	1124.348877	808.487976	5.763710
849.901367	789.912292	1122.416992	810.122559	6.078189
850.202087	793.701660	1111.940186	814.655090	6.584190
850.502808	792.884277	1115.358032	814.877930	6.820292
850.803467	789.540710	1108.670776	812.648865	7.240983
851.104065	789.466492	1106.813354	808.859375	6.110942
851.404663	785.751282	1098.862915	802.692322	5.410543
851.705139	787.683289	1101.909302	805.367188	5.627764
852.005615	790.729675	1105.698730	802.395020	3.703648
852.306030	795.707825	1099.903198	800.017334	1.416691
852.606384	800.388916	1101.240723	800.314636	-0.024690
852.906616	798.308411	1089.946777	802.246521	1.350340
853.206909	793.255859	1098.937378	807.670593	4.715605
853.506958	784.859619	1091.878540	804.178406	6.292377
853.807129	779.955566	1099.383179	799.125793	6.001431
854.107178	782.481934	1089.277832	803.509583	6.853954
854.407166	783.150635	1099.308716	805.887390	7.191578
854.707092	779.286926	1091.729858	807.744934	9.108226
855.007019	779.286926	1093.513062	807.001892	8.820070
855.306763	778.543945	1080.435913	798.011230	6.448428
855.606567	786.122742	1074.863159	788.797668	0.926412
855.906250	787.014404	1067.135620	778.618225	-2.997338
856.205933	796.673767	1065.575317	786.048523	-3.951351
856.505493	797.193848	1072.857056	796.896667	-0.107806
856.805054	796.227966	1077.389526	808.413574	4.334023
857.104492	786.865784	1081.773315	813.540527	9.045121
857.403931	783.522156	1074.714600	808.042053	8.420513
857.703308	781.664551	1083.333618	800.834717	6.354701
858.002563	789.837891	1081.773315	793.032959	1.094444
858.301819	802.543762	1087.197388	790.803894	-4.124264
858.601013	805.738770	1074.343018	787.534607	-6.777318
858.900208	797.045349	1077.017944	789.243469	-2.786659
859.199219	788.426208	1073.005615	794.370361	2.088750
859.498291	789.243469	1072.114014	803.583984	5.069639
859.797302	791.992676	1060.374146	805.961609	5.204880
860.096191	792.512878	1061.117188	809.379578	6.279385
860.395020	786.791504	1053.018188	803.583984	6.307587
860.693787	791.175293	1053.612671	806.555969	5.860703
860.992554	794.073242	1046.479492	800.908997	2.708235
861.291260	798.011230	1047.222534	805.664368	3.070943
861.589844	798.457092	1047.891235	801.057617	1.042570
861.888428	800.760437	1058.442261	806.630371	2.277977
862.186890	800.240295	1067.878662	799.571594	-0.249853
862.485413	797.565430	1076.720703	795.930725	-0.585590
862.783813	797.193909	1076.126221	791.026855	-2.210950
863.082153	791.472595	1075.234619	797.936951	2.278090
863.380371	791.546875	1069.290405	798.085510	2.354199
863.678589	789.243469	1066.838501	800.537537	4.068541
863.976746	795.559265	1063.717773	791.249695	-1.607098
864.274902	792.661438	1059.333862	793.404480	0.278635
864.572937	784.636719	1051.160645	798.457031	5.185393
864.870911	789.615051	1049.971802	807.670593	6.934924
865.168884	793.998840	1055.395874	806.853210	4.917565
865.466736	797.268250	1063.569214	797.565430	0.111596
865.764587	787.534485	1065.352417	791.323914	1.363997
866.062317	789.614990	1064.460815	792.884277	1.189499
866.360107	794.890442	1056.138794	797.342468	0.938581
866.657715	797.565430	1051.160522	802.246399	1.845844
866.955322	794.296082	1048.337036	806.853210	4.942955
867.252808	795.782166	1049.005859	804.772766	3.550458
867.550293	798.457031	1053.315308	800.537537	0.816338
867.847717	799.571594	1045.587891	799.274414	-0.120797
868.145081	803.138184	1040.609619	800.760437	-1.001277
868.442383	802.766602	1031.098877	803.435364	0.292890
868.739624	802.023621	1036.077026	801.652100	-0.158733
869.036804	791.992676	1038.380493	799.274414	2.955397
869.333984	792.438477	1038.529053	797.342529	1.992784
869.631042	791.992737	1038.900635	798.457031	2.618099
869.928101	792.438477	1031.470337	799.645935	3.015271
870.224976	791.249695	1044.696289	795.707825	1.759002
870.521851	788.128967	1047.445435	798.977112	4.183361
870.818726	787.460266	1059.333862	798.382751	4.017487
871.115479	786.271423	1048.337036	805.812988	7.456745
871.412231	788.054688	1047.148193	804.772766	6.452527
871.708862	793.553040	1051.532104	801.057617	2.908987
872.005493	792.141357	1060.151245	801.874939	3.631799
872.302063	786.419922	1063.866333	798.457031	4.338535
872.598572	782.258972	1058.219360	809.082336	9.720005
872.895020	781.738953	1055.841675	808.636536	9.812957
873.191406	785.974121	1057.327759	814.060547	10.350488
873.487671	782.853516	1059.556763	808.785156	9.371643
873.783997	781.218811	1063.643433	810.048340	10.207867
874.080200	773.714294	1061.340088	808.190735	11.986561
874.376343	778.543884	1062.751831	806.258789	9.751629
874.672424	787.311584	1062.751831	800.760437	4.882675
874.968445	804.029785	1065.129517	792.215576	-4.524788
875.264465	813.540527	1064.757935	789.615051	-9.523813
875.560364	814.134949	1063.346191	789.763611	-9.779389
875.856201	809.602478	1063.494751	798.605652	-4.331296
876.152039	800.686096	1066.912720	807.001770	2.372292
876.447754	799.200012	1063.940552	805.961609	2.554047
876.743469	799.571594	1062.306030	800.834778	0.480783
877.039063	797.491150	1060.597046	799.868835	0.903699
877.334595	797.491028	1067.655762	805.367188	2.915318
877.630127	791.398254	1062.083130	811.311462	7.356602
877.925537	789.094910	1065.500977	811.682922	8.172039
878.221008	783.967957	1061.265747	804.029785	7.234760
878.516296	787.980286	1066.541260	805.070007	6.135002
878.811646	791.472595	1072.336792	803.435303	4.259250
879.106812	793.255798	1090.169556	819.930481	8.983983
879.401978	791.621155	1112.534668	817.255676	7.987985
879.697083	791.398254	1142.701538	813.020325	6.154816
879.992126	786.940125	1172.051147	796.896667	2.585370
880.287109	789.392090	1216.112671	793.255859	0.905457
880.582031	782.184753	1270.873657	802.023621	4.059611
880.876892	786.419922	1395.107910	809.973938	3.869637
881.171753	789.392090	1642.461548	820.673523	3.666927
881.466492	798.531433	2044.810913	834.270996	2.867700
881.761230	795.559265	2590.935791	854.778503	3.298430
882.055786	796.673828	3132.008545	881.527405	3.633465
882.350403	793.107239	3500.846924	892.449890	3.668840
882.644958	792.364258	3557.019775	897.502502	3.802942
882.939453	782.407654	3359.225830	878.629700	3.734142
883.233826	780.252869	3020.777100	865.626709	3.810441
883.528137	781.813232	2670.737061	845.936523	3.394700
883.822449	783.596497	2354.875977	838.506165	3.494583
884.116577	784.488098	2090.061279	830.258545	3.505774
884.410828	785.602722	1873.691528	823.719971	3.503137
884.704956	793.998840	1695.290894	818.593079	2.728776
884.999023	798.085449	1556.864868	811.757263	1.801817
885.292969	800.760437	1444.370605	810.791321	1.558534
885.586914	798.679871	1360.482788	812.277344	2.420328
885.880798	795.782043	1305.201538	810.345459	2.858826
886.174622	802.692322	1276.000610	809.899658	1.522757
886.468384	796.822449	1241.970093	804.252686	1.669162
886.762085	799.497253	1228.595581	804.401184	1.142845
887.055664	796.227966	1209.722534	805.738708	2.300089
887.349304	800.314636	1191.741333	804.995789	1.195921
887.642822	800.611816	1154.961426	806.333191	1.614613
887.936340	797.491150	1130.441528	802.543701	1.517509
888.229736	793.701660	1119.964966	806.630310	3.962643
888.523071	791.323975	1111.865845	808.413574	5.331472
888.816284	789.169189	1096.410889	810.642639	6.989107
889.109619	792.810059	1080.955933	801.429199	2.991242
889.402710	789.392090	1068.696045	797.045349	2.740119
889.695862	792.438538	1052.349487	796.896729	1.715276
889.988892	783.299316	1036.745972	801.800720	7.299920
890.281921	771.708069	1020.919434	800.240356	11.449032
>>>>>End Processed Spectral Data<<<<<
