Jaz Data File
++++++++++++++++++++++++++++++++++++
Date: Fri Jun 04 14:22:40 2021
User: jaz
Dark Spectrum Present: Yes
Reference Spectrum Present: Yes
Processed Spectrum Present: Yes
Spectrometers: JAZA3586
Integration Time (usec): 40000 (JAZA3586)
Spectra Averaged: 10 (JAZA3586)
Boxcar Smoothing: 1 (JAZA3586)
Correct for Electrical Dark: No (JAZA3586)
Strobe/Lamp Enabled: Yes (JAZA3586)
Correct for Detector Non-linearity: No (JAZA3586)
Correct for Stray Light: No (JAZA3586)
Number of Pixels in Processed Spectrum: 2048
>>>>>Begin Processed Spectral Data<<<<<
W	D	R	S	P
191.335022	0.000000	0.000000	0.000000	0.000000
191.713211	254.189621	258.499176	250.697388	-81.034660
192.091385	508.230621	516.626831	502.955109	-62.832073
192.469528	772.674011	771.187988	760.042480	850.022583
192.847641	780.624451	773.416992	773.491394	98.967712
193.225739	795.039124	782.630554	788.277588	54.490856
193.603790	801.949280	798.754211	795.484924	202.322922
193.981842	807.819153	804.549988	796.005066	361.379333
194.359863	808.413574	812.797546	800.983337	-169.486404
194.737854	806.258789	820.896484	807.373352	7.614334
195.115829	811.162781	827.509460	815.100830	24.090820
195.493774	812.871765	818.444519	813.317627	8.000745
195.871704	817.181335	813.614807	812.574524	129.167953
196.249603	820.153381	815.992493	811.608643	205.358505
196.627457	824.983093	823.794250	815.843811	768.754517
197.005310	818.815979	818.593079	816.141052	1200.054810
197.383133	816.735535	817.850098	818.593018	166.655716
197.760910	822.456848	816.438293	815.843933	109.875465
198.138687	826.989258	822.902649	818.667419	203.636765
198.516449	818.518799	814.060608	822.828308	-96.664978
198.894180	807.596252	813.763428	822.902649	248.191360
199.271866	813.614807	808.562195	819.559021	-117.646347
199.649536	817.032715	814.357727	810.568359	241.659256
200.027191	817.404236	811.608582	806.110168	194.871307
200.404816	811.534363	816.958435	805.070007	-119.179008
200.782410	810.419861	827.806641	802.692322	-44.444912
201.159988	807.819275	844.153259	804.995667	-7.771260
201.537537	806.630371	848.760010	809.156677	5.996506
201.915070	810.865540	847.496887	807.001892	-10.547380
202.292557	810.568420	843.112976	808.339294	-6.849459
202.670029	807.596191	847.050964	803.063782	-11.487608
203.047485	800.537415	843.930237	803.138123	5.993406
203.424911	802.172180	836.722961	796.079346	-17.634434
203.802292	804.772766	831.670410	801.949280	-10.497151
204.179688	805.441406	834.716797	802.172180	-11.167148
204.557037	805.218506	839.100586	802.989563	-6.578530
204.934357	798.754211	847.794006	796.450867	-4.696889
205.311661	803.509583	841.924133	793.032959	-27.272539
205.688934	802.395081	844.524719	802.097839	-0.705539
206.066177	807.967773	831.596008	806.630310	-5.660446
206.443390	800.314636	834.493835	811.905823	33.912983
206.820587	793.998840	842.518555	800.314636	13.016969
207.197769	793.107239	846.159424	797.268127	7.843011
207.574921	797.714050	843.484436	801.949219	9.253076
207.952042	804.326965	831.447449	805.887268	5.753226
208.329147	802.097961	832.116150	805.961609	12.871021
208.706223	808.116516	848.388428	813.837708	14.206407
209.083267	798.011230	843.038757	811.831482	30.692894
209.460297	794.964844	843.187317	808.116394	27.272657
209.837280	780.624329	834.791016	794.816223	26.200411
210.214264	779.584167	848.685730	796.005066	23.763426
210.591217	777.503662	850.543274	794.741882	23.601194
210.968124	777.577942	847.422546	796.748108	27.446882
211.345016	786.419983	840.586731	805.590149	35.391022
211.721893	785.379700	841.181152	804.921387	35.020031
212.098724	797.193909	851.211975	803.955383	12.517061
212.475555	795.930725	853.292480	799.423035	6.088220
212.852356	800.240295	847.571106	800.017395	-0.470941
213.229126	792.438538	840.809570	802.692322	21.198191
213.605865	793.478760	844.153137	793.776062	0.586691
213.982590	793.032959	851.657776	794.444641	2.407994
214.359283	793.701660	847.496826	787.980408	-10.635254
214.735931	791.844055	837.242981	794.667664	6.219549
215.112579	788.946289	830.778748	796.896667	19.005285
215.489197	784.711121	830.481506	797.491150	27.922049
215.865799	783.819397	833.082092	794.296143	21.267097
216.242355	790.432373	835.979919	792.289978	4.078386
216.618896	796.450867	840.586731	788.574768	-17.845121
216.995407	792.810059	842.444336	789.392090	-6.886307
217.371902	790.729553	842.370056	786.271423	-8.633010
217.748367	795.113464	843.484558	791.472595	-7.526952
218.124802	799.868713	843.335938	788.946289	-25.127954
218.501236	800.463196	849.205872	792.364258	-16.615702
218.877609	794.147461	847.571106	790.878174	-6.119551
219.253983	792.884277	853.886902	791.101074	-2.923158
219.630295	790.358093	855.224304	789.614990	-1.145593
220.006592	796.970947	859.979675	789.614990	-11.674505
220.382889	796.822449	855.224304	782.110352	-25.191147
220.759140	797.862610	848.239807	785.379700	-24.778891
221.135391	791.101074	843.112976	788.946289	-4.142869
221.511581	789.689270	848.537109	799.200012	16.161583
221.887772	783.224915	852.475098	795.782043	18.132990
222.263931	780.401550	861.168518	794.370361	17.295202
222.640060	781.441711	861.614441	801.354797	24.837730
223.016159	783.150696	864.215027	801.800720	23.006449
223.392212	780.178528	858.642273	800.834717	26.325775
223.768265	773.862854	863.100403	792.289856	20.649382
224.144302	776.389160	862.134460	796.376648	23.310301
224.520294	784.933899	861.391418	793.032959	10.592889
224.896286	794.593323	863.174744	798.011230	4.983723
225.272217	799.274414	869.638977	794.890442	-6.230370
225.648148	803.361023	874.691589	808.710754	7.499915
226.024048	798.902832	879.447021	805.812988	8.579335
226.399902	792.289856	886.208496	808.264954	17.009506
226.775772	786.791504	895.199158	797.565430	9.938344
227.151581	784.933899	897.279602	797.639709	11.309566
227.527374	786.568665	909.613831	798.605652	9.782577
227.903137	788.797668	932.647705	801.874939	9.090905
228.278870	790.283691	952.486511	802.766602	7.695865
228.654572	791.101074	975.891907	807.076172	8.644962
229.030273	794.518982	997.439697	813.689148	9.447122
229.405930	796.228027	1022.925598	809.676758	5.932455
229.781555	795.113464	1032.361938	809.899658	6.232366
230.157181	788.277588	1032.510620	807.521973	7.879518
230.532761	787.385925	1028.869751	817.404297	12.430800
230.908325	795.187683	1018.095886	808.710876	6.066710
231.283859	798.457031	1006.876160	799.571594	0.534770
231.659332	802.023621	993.798828	796.450867	-2.905878
232.034821	798.902832	981.687500	793.627380	-2.886157
232.410263	799.571533	970.393555	795.262024	-2.522807
232.785690	791.918457	961.328613	796.896667	2.938555
233.161087	788.500488	956.350281	801.057617	7.481170
233.536469	780.698730	952.709473	803.955383	13.520465
233.911804	781.664734	962.517395	795.782166	7.806040
234.287140	785.156921	978.195313	793.478699	4.310944
234.662430	790.209473	987.631836	792.289856	1.053773
235.037704	793.478760	994.393372	797.045227	1.775116
235.412933	790.283752	994.541992	795.782043	2.691833
235.788162	789.837891	1000.634766	799.348633	4.511804
236.163345	785.602722	998.925781	793.998840	3.935870
236.538513	790.506653	998.331360	795.707825	2.502672
236.913635	783.670837	1002.566650	795.856445	5.566853
237.288742	792.661438	1010.442688	802.023621	4.298893
237.663834	789.912292	1017.872986	804.624084	6.453653
238.038879	792.661438	1014.157776	801.280579	3.891324
238.413910	793.478760	1016.981262	802.097839	3.856368
238.788910	794.147461	1023.891418	803.212402	3.945671
239.163879	799.200134	1040.758179	807.893555	3.598895
239.538834	796.005066	1051.383423	810.568420	5.702658
239.913757	801.057617	1072.782715	814.655029	5.004106
240.288651	797.416809	1088.534790	807.521973	3.471158
240.663528	789.912292	1113.946411	807.744873	5.503304
241.038361	790.209473	1148.348511	803.361023	3.672191
241.413177	795.336365	1202.886719	804.772766	2.315395
241.787979	801.354797	1269.833618	802.766602	0.301359
242.162735	793.998840	1326.898071	813.763428	3.708879
242.537476	785.379700	1375.269165	824.983093	6.713697
242.912170	787.831787	1403.578491	821.936707	5.538790
243.286865	792.958679	1411.008789	814.655029	3.510452
243.661514	802.840881	1390.055298	809.305176	1.100841
244.036148	804.401306	1359.145386	814.357849	1.794799
244.410751	797.565430	1324.594604	815.398010	3.383604
244.785339	795.113464	1318.947632	813.540527	3.517728
245.159882	790.655273	1326.526489	820.227783	5.518585
245.534378	794.964844	1368.135864	817.107117	3.863118
245.908890	794.370422	1433.522461	819.484680	3.929309
246.283356	796.228027	1546.685547	817.701477	2.861381
246.657791	790.655273	1671.439819	821.490906	3.500928
247.032196	780.104309	1786.460327	826.172058	4.577679
247.406586	780.847351	1854.224487	825.651855	4.174162
247.780960	786.494324	1884.762817	820.822205	3.125636
248.155289	789.094910	1863.214844	817.181335	2.614832
248.529602	787.683167	1786.088867	820.599304	3.296870
248.903870	785.528320	1686.968872	826.023376	4.492260
249.278122	793.998840	1594.536499	826.617859	4.074639
249.652344	793.701660	1526.772339	818.964600	3.446181
250.026550	791.101074	1469.856445	815.026611	3.524913
250.400711	790.283691	1430.253052	810.345520	3.134811
250.774857	797.193848	1416.730103	806.333191	1.475191
251.148987	800.314636	1439.466797	806.184570	0.918394
251.523071	794.741882	1464.952515	801.726318	1.042125
251.897125	790.506653	1506.859009	801.503418	1.535106
252.271164	788.203308	1516.890015	803.361023	2.080142
252.645187	787.831726	1535.242798	806.184570	2.455522
253.019165	788.054626	1518.821899	802.543701	1.982721
253.393112	793.181458	1501.286499	799.571594	0.902428
253.767044	796.376526	1464.803833	800.537537	0.622508
254.140930	793.998840	1436.642944	802.989502	1.399011
254.514801	794.741882	1418.215820	801.354797	1.060656
254.888657	799.125793	1410.191406	799.794434	0.109422
255.262466	803.435303	1402.538086	802.172119	-0.210846
255.636276	802.469421	1404.767212	807.967773	0.912896
256.010010	797.193848	1419.033325	808.933777	1.887936
256.383759	794.296082	1455.664673	810.271179	2.415461
256.757446	788.649109	1505.967651	809.825378	2.952143
257.131134	792.661438	1556.642090	818.815918	3.423448
257.504791	787.014404	1627.898438	820.970764	4.038174
257.878418	789.540710	1710.820190	825.057434	3.855152
258.252014	783.522217	1819.747681	824.314392	3.936612
258.625580	782.259033	1943.164673	830.035645	4.115460
258.999115	776.760559	2099.274658	834.791077	4.387894
259.372650	779.361267	2286.368896	842.518555	4.190907
259.746124	777.800842	2457.859619	839.992371	3.701747
260.119598	786.345703	2567.307617	844.970520	3.291750
260.493042	785.751282	2581.499756	844.153137	3.252229
260.866425	802.840881	2511.208984	843.781677	2.396486
261.239838	804.178406	2382.145264	833.676514	1.869374
261.613159	808.190735	2232.276855	830.481506	1.565268
261.986511	803.063782	2116.364502	823.497070	1.555873
262.359802	800.686218	2029.355957	818.518738	1.451368
262.733063	801.503479	1969.319336	810.939758	0.808028
263.106293	797.491150	1930.904907	816.586914	1.684801
263.479523	793.330139	1908.316772	819.038879	2.305744
263.852692	798.011230	1913.666504	814.952209	1.518478
264.225861	795.187744	1891.970093	817.998596	2.079798
264.598969	795.410645	1888.775024	820.747864	2.317363
264.972076	795.187744	1894.645020	832.710632	3.412856
265.345154	792.958679	1943.387695	837.168884	3.842932
265.718201	794.147461	1994.285034	846.382324	4.352407
266.091217	788.649109	2052.241211	846.530945	4.580738
266.464203	795.410645	2117.627686	842.964355	3.596513
266.837158	802.320740	2175.137939	839.695007	2.722450
267.210114	802.989502	2221.131348	839.546448	2.577806
267.583038	796.971008	2232.648193	837.317383	2.810268
267.955902	789.689270	2247.731689	834.196594	3.052540
268.328766	793.255859	2259.322998	836.648621	2.959807
268.701569	793.701660	2281.910645	840.438049	3.140445
269.074371	788.500488	2299.891846	840.735291	3.456074
269.447144	785.082581	2326.121094	836.202820	3.317259
269.819885	782.556335	2375.606689	834.568176	3.264921
270.192596	780.921631	2488.472656	847.719727	3.911924
270.565277	776.017578	2635.814697	858.939453	4.458652
270.937927	781.367371	2794.897217	864.660706	4.136683
271.310577	784.339539	2921.508789	862.728821	3.667902
271.683136	787.014465	3005.322266	866.295410	3.573938
272.055725	781.738953	3035.117432	869.861877	3.910702
272.428284	786.568604	3011.043701	867.409973	3.634177
272.800812	789.094910	2948.703369	859.979675	3.282297
273.173279	797.639709	2868.828125	866.146790	3.307622
273.545776	805.590088	2817.781982	860.425476	2.725157
273.918152	803.361023	2766.810547	857.601990	2.762534
274.290558	804.029724	2730.699219	848.462708	2.306207
274.662964	791.101074	2703.207275	846.605225	2.902776
275.035278	793.850281	2721.634521	845.267761	2.667180
275.407593	792.884338	2763.763916	851.880676	2.993401
275.779907	792.809998	2820.605469	865.775208	3.598253
276.152161	782.184753	2866.822021	870.307800	4.227261
276.524384	773.268372	2917.942139	859.979675	4.043100
276.896606	775.348877	2942.164795	850.543274	3.470272
277.268799	779.658386	2960.814697	848.462708	3.154488
277.640930	787.534485	2968.170898	852.772278	2.991686
278.013031	791.026672	2972.331787	859.682434	3.147462
278.385162	798.605652	2976.343994	859.608215	2.801189
278.757233	791.621155	2979.836182	863.917725	3.303906
279.129272	793.255859	3000.938232	867.409973	3.358912
279.501282	787.311584	3041.135986	870.233459	3.679163
279.873230	786.791504	3120.120117	870.679260	3.595197
280.245178	786.048523	3222.509033	872.536865	3.549754
280.617126	790.358093	3351.647217	877.515137	3.402858
280.988983	794.073181	3467.410889	877.366516	3.115706
281.360870	800.166016	3585.700928	874.468750	2.667449
281.732697	798.902832	3684.077393	881.304504	2.856038
282.104492	803.881165	3740.324463	884.128113	2.732794
282.476288	792.735779	3760.534912	889.403564	3.257221
282.848053	788.054688	3738.466797	888.809143	3.414928
283.219757	783.670715	3739.804443	894.604736	3.752672
283.591461	786.865906	3716.993408	893.564453	3.641430
283.963135	792.512878	3734.380615	890.443848	3.328871
284.334747	793.032959	3773.835205	883.310730	3.028640
284.706360	793.701660	3871.617432	878.035339	2.739961
285.077942	791.992676	3994.514404	886.357178	2.946569
285.449524	804.326904	4092.445313	896.759583	2.811112
285.821014	807.521973	4124.172363	908.945129	3.058000
286.192535	808.413574	4145.943359	905.675842	2.914199
286.563995	800.983398	4137.770020	906.195984	3.153111
286.935425	794.444763	4136.952637	902.109375	3.221073
287.306824	796.822449	4048.086182	900.623230	3.192629
287.678223	795.856445	3962.489502	901.440613	3.334272
288.049561	796.079407	3906.093994	904.412781	3.483372
288.420898	789.466492	3900.298584	897.948425	3.487232
288.792145	780.475769	3922.069092	893.638855	3.602092
289.163452	777.800842	3988.867188	890.815369	3.519532
289.534668	782.036133	4109.832031	902.703796	3.626054
289.905914	786.122742	4240.456055	901.217773	3.331903
290.277039	792.512756	4353.841797	909.985535	3.298566
290.648193	795.262024	4399.835449	915.112305	3.324950
291.019318	792.661438	4422.572266	925.440430	3.657913
291.390381	790.655273	4354.288086	920.313477	3.638371
291.761475	789.317871	4281.843262	910.802734	3.478425
292.132507	793.775940	4230.351074	909.019531	3.353443
292.503510	789.986511	4210.958496	912.883240	3.592451
292.874481	788.500488	4251.676270	919.124695	3.771804
293.245422	790.060791	4333.260254	919.273254	3.646774
293.616364	797.119568	4481.419922	915.483704	3.212662
293.987213	802.915222	4625.418457	909.093750	2.777722
294.358093	803.138123	4747.126953	908.573730	2.673324
294.728943	799.200012	4871.286621	917.044128	2.893949
295.099731	794.296082	4997.675293	922.468262	3.049265
295.470490	793.627258	5099.395996	935.619812	3.297729
295.841248	790.878113	5193.760254	940.449524	3.397125
296.211975	786.865906	5309.077637	951.446289	3.639378
296.582642	776.612061	5440.816406	937.700378	3.453715
296.953308	783.373718	5522.771973	935.471191	3.209215
297.323883	784.116699	5518.239746	941.118225	3.316380
297.694519	791.323975	5426.104980	952.635071	3.480447
298.065063	789.986572	5297.784180	945.799316	3.456516
298.435608	793.553040	5109.946777	930.938782	3.182883
298.806122	795.559265	4894.691895	920.833679	3.056120
299.176575	799.200134	4679.214355	920.685059	3.131043
299.547028	798.902893	4542.793945	920.462158	3.246870
299.917450	794.147461	4493.679688	911.991638	3.185380
300.287872	789.912292	4486.473145	909.019470	3.222108
300.658234	785.454041	4490.039551	909.911133	3.359542
301.028564	790.358093	4465.816406	920.016296	3.527674
301.398865	785.379700	4427.327637	920.313477	3.704989
301.769135	783.150635	4367.067871	918.827454	3.785713
302.139374	784.413818	4322.932129	911.620117	3.594903
302.509583	784.785339	4274.932617	905.973083	3.472282
302.879791	796.227844	4222.103516	900.697571	3.049431
303.249939	790.283691	4163.404297	895.645020	3.123557
303.620087	794.667542	4114.661621	901.143372	3.207109
303.990173	785.454102	4098.835449	900.103210	3.460185
304.360260	787.385986	4096.680176	910.059753	3.706947
304.730286	783.745117	4080.928467	900.994812	3.556056
305.100281	790.357971	4057.300049	902.257996	3.425222
305.470276	790.803772	4050.092773	895.050598	3.198453
305.840179	791.918457	4085.163818	904.635681	3.422679
306.210144	783.373596	4117.634277	898.096985	3.440744
306.579987	787.385925	4157.979980	901.217773	3.377204
306.949890	787.311707	4197.955078	889.700867	3.002048
307.319702	792.066956	4272.852051	899.880371	3.097388
307.689484	788.574890	4363.947266	903.669739	3.219101
308.059265	786.717285	4456.157227	917.712891	3.569907
308.429016	788.426208	4552.898926	915.483887	3.375179
308.798737	787.014465	4624.898926	914.963684	3.333848
309.168396	793.107239	4692.885254	924.623047	3.372392
309.538055	795.856445	4719.337402	932.424866	3.480797
309.907684	806.110291	4732.637207	935.768494	3.302109
310.277313	810.271179	4748.909668	928.041016	2.990115
310.646851	809.825378	4753.962402	931.756165	3.091444
311.016388	802.766602	4740.811035	934.802551	3.352830
311.385895	798.011230	4683.671875	936.288574	3.558657
311.755371	795.484863	4622.669434	927.446533	3.448009
312.124817	800.611816	4568.725098	921.576660	3.210223
312.494232	803.361023	4514.410156	910.431213	2.885173
312.863617	800.388977	4481.791504	911.768738	3.025471
313.232971	803.881165	4484.317871	913.254700	2.971754
313.602295	799.868835	4552.750488	912.734619	3.007443
313.971619	805.292969	4637.901855	908.722351	2.698668
314.340820	795.113464	4676.538574	910.059753	2.961446
314.710083	796.896667	4663.981934	917.935852	3.129985
315.079285	791.992676	4597.109375	920.016296	3.364512
315.448486	795.930725	4525.332520	917.415710	3.257493
315.817596	792.958679	4393.816895	918.010071	3.472822
316.186707	793.924561	4273.520996	914.517883	3.465727
316.555786	793.701660	4167.268066	906.195984	3.334582
316.924866	794.444763	4118.896973	901.663574	3.225157
317.293884	795.707825	4106.859863	898.542786	3.105716
317.662872	789.466492	4114.067383	901.366394	3.365815
318.031830	781.738953	4150.921387	900.920471	3.537402
318.400757	779.063965	4180.865723	906.047363	3.732828
318.769684	778.915344	4228.642090	907.384827	3.724048
319.138550	787.980408	4240.976074	910.877136	3.559134
319.507416	786.494324	4222.994629	905.527344	3.463786
319.876190	792.215637	4173.138184	906.641785	3.384465
320.244995	793.627380	4100.841309	901.663574	3.266683
320.613770	796.822327	4049.126709	902.629395	3.253295
320.982483	795.930847	4028.916016	894.233215	3.040607
321.351166	783.819519	4049.646484	888.511963	3.205695
321.719818	785.528381	4095.937500	893.118652	3.250060
322.088440	783.299316	4196.766113	903.149597	3.511101
322.457062	796.005066	4347.377930	909.316711	3.190644
322.825623	794.073181	4517.531250	911.694397	3.158924
323.194183	793.701660	4642.954102	915.929626	3.175369
323.562653	787.534607	4741.404785	929.898621	3.600624
323.931183	789.169250	4776.327637	934.356750	3.641378
324.299591	794.370422	4770.754883	928.115234	3.363478
324.668060	796.005066	4713.764648	916.821289	3.083809
325.036407	799.125732	4631.734863	914.740723	3.016613
325.404755	795.633545	4552.824707	923.359863	3.399516
325.773102	797.862610	4467.600098	916.078308	3.221367
326.141388	791.249695	4400.504395	909.391052	3.273290
326.509674	791.398254	4316.096680	901.514893	3.124144
326.877899	793.255859	4243.725586	905.898743	3.264567
327.246124	795.484924	4201.373047	909.911133	3.359658
327.614288	795.336365	4155.528320	904.338379	3.243922
327.982422	787.608826	4145.200684	902.406555	3.419050
328.350525	784.413818	4133.015137	907.979248	3.690061
328.718628	788.500488	4172.692871	915.781067	3.761033
329.086700	793.701660	4214.450684	923.434265	3.792521
329.454712	796.748047	4258.140625	916.895508	3.471073
329.822693	794.519043	4301.830566	917.192810	3.497658
330.190674	787.014404	4348.789551	919.124695	3.709114
330.558563	780.401550	4395.080566	928.709717	4.102942
330.926483	771.485168	4448.503906	930.270020	4.318304
331.294312	774.382996	4518.051270	924.028625	3.997299
331.662231	785.082520	4620.886230	918.678894	3.482878
332.029999	790.729492	4715.622559	920.164856	3.297806
332.397766	795.410583	4809.466309	919.421875	3.089426
332.765503	786.940125	4869.949219	918.678894	3.226512
333.133240	787.534485	4906.356934	924.251526	3.319324
333.500916	787.683105	4891.273438	935.471191	3.601434
333.868561	796.599426	4868.982910	934.728210	3.391841
334.236176	795.262024	4839.707520	929.675598	3.323412
334.603790	797.045349	4816.302246	923.359924	3.142735
334.971344	794.147461	4785.317871	922.839844	3.224427
335.338867	799.794495	4754.185059	916.524109	2.951899
335.706360	804.772766	4748.538574	920.313477	2.929705
336.073853	800.091736	4746.012207	924.994568	3.165366
336.441284	793.107239	4775.956055	934.505371	3.550176
336.808655	780.698730	4795.869141	926.703552	3.636329
337.176086	783.893738	4840.524902	933.242126	3.681587
337.543396	790.432373	4853.899902	934.059509	3.534595
337.910706	789.540710	4877.602051	945.279236	3.809594
338.277954	793.701660	4866.456543	937.997559	3.542956
338.645264	789.986572	4830.865723	934.728210	3.581934
339.012421	796.153625	4766.445313	927.892334	3.318111
339.379669	792.735657	4678.099121	929.155457	3.511121
339.746796	798.828552	4606.545410	926.629211	3.356359
340.113953	794.147461	4551.338379	922.765442	3.423249
340.481018	796.227966	4571.697754	912.808899	3.087852
340.848114	789.689270	4595.548828	910.802734	3.182289
341.215118	795.113464	4650.755859	911.025696	3.006301
341.582153	787.608826	4749.132813	923.434265	3.428616
341.949066	787.460266	4890.382324	925.589050	3.366596
342.316010	779.509827	5080.226074	934.653992	3.607403
342.682922	785.008301	5253.648438	939.037781	3.446898
343.049835	783.150696	5506.648438	951.223450	3.558227
343.416656	780.401550	5769.829590	967.718567	3.754278
343.783478	779.435547	6029.442871	978.046814	3.783067
344.150269	779.881348	6219.583496	983.322266	3.739928
344.516998	786.419983	6304.734375	982.653564	3.556042
344.883728	789.020691	6260.300781	978.418274	3.461668
345.250427	788.797668	6172.252441	977.898132	3.512623
345.617065	785.082520	6023.052734	971.210876	3.553444
345.983704	783.968018	5913.976563	967.421387	3.576083
346.350281	785.825500	5774.064453	957.984863	3.451306
346.716827	793.478699	5640.542969	947.062317	3.168590
347.083405	789.392090	5516.531250	940.820984	3.203394
347.449860	791.918457	5425.138672	951.149109	3.436717
347.816376	796.525208	5408.346191	960.214050	3.549332
348.182770	797.565430	5411.244141	964.597900	3.620375
348.549194	795.856445	5454.785645	949.365906	3.294952
348.915558	791.918396	5512.146973	944.387512	3.230122
349.281921	792.364258	5587.713379	944.684753	3.176421
349.648193	791.101074	5616.171387	952.858093	3.352428
350.014526	790.655273	5640.170410	954.567078	3.379963
350.380737	794.073181	5653.100098	958.727966	3.388637
350.746948	803.509583	5691.143066	963.483398	3.273032
351.113159	805.812988	5739.291016	965.712463	3.241111
351.479309	805.738708	5818.274902	964.449280	3.166273
351.845428	797.416809	5930.769043	968.387390	3.330584
352.211517	795.484924	6044.377441	975.594727	3.431387
352.577576	793.330139	6161.033203	978.121033	3.442644
352.943604	792.364258	6279.322754	977.452332	3.373236
353.309601	789.466492	6407.717285	983.470886	3.453110
353.675537	788.277588	6563.010254	991.421204	3.517801
354.041473	785.528320	6712.656250	997.142517	3.570265
354.407379	790.803894	6824.705566	996.696594	3.412265
354.773254	796.896667	6941.731934	1004.126953	3.372430
355.139038	799.274414	7091.600098	1012.894714	3.394934
355.504913	792.364258	7337.244629	1025.897583	3.568183
355.870636	786.197083	7589.502441	1030.207153	3.586640
356.236389	783.224915	7860.633301	1038.380493	3.605212
356.602081	791.844055	8119.652344	1043.730347	3.437403
356.967804	798.011230	8311.055664	1047.222534	3.317048
357.333405	805.070007	8427.414063	1044.621948	3.142759
357.699036	797.788269	8450.522461	1041.872681	3.189506
358.064606	791.249695	8441.160156	1040.386597	3.256730
358.430176	791.323975	8383.724609	1038.974976	3.261827
358.795654	797.862610	8361.136719	1042.170044	3.230181
359.161163	803.881104	8471.996094	1054.578613	3.269350
359.526581	800.760437	8786.817383	1073.005615	3.409006
359.892029	798.605652	9283.233398	1095.742310	3.502059
360.257416	792.587097	9814.051758	1113.872070	3.561339
360.622772	794.296082	10289.366211	1122.268311	3.454132
360.988098	788.797668	10623.059570	1123.902954	3.407529
361.353394	792.141296	10833.335938	1125.537598	3.320285
361.718658	789.243469	10734.142578	1118.404663	3.309850
362.083893	793.701660	10417.835938	1107.779419	3.263439
362.449097	793.924622	9852.318359	1084.299683	3.205591
362.814209	796.005066	9243.183594	1065.352417	3.188607
363.179382	792.958679	8607.672852	1047.073975	3.251754
363.544434	787.980286	8123.590332	1035.631348	3.376012
363.909546	782.556213	7814.343262	1027.532349	3.483839
364.274536	782.036133	7644.561035	1021.810974	3.493974
364.639587	780.624329	7508.513184	1023.594299	3.611385
365.004517	788.426208	7427.671875	1020.993652	3.502920
365.369507	781.218811	7368.601074	1020.324951	3.629760
365.734344	783.076355	7374.619141	1017.575684	3.557579
366.099274	780.029968	7334.941406	1022.108154	3.693081
366.464081	788.351868	7298.979004	1016.684082	3.507070
366.828918	790.580994	7218.435059	1014.752197	3.487497
367.193665	790.432373	7162.039551	1013.563416	3.501958
367.558411	795.262024	7091.080078	1019.507629	3.561819
367.923126	792.364258	7013.953613	1019.433350	3.649696
368.287781	791.175476	6942.994629	1009.476807	3.548565
368.652435	788.649109	6911.193359	1002.566650	3.493932
369.017059	791.918457	6929.769043	993.055847	3.277000
369.381653	792.587097	6966.028809	997.291199	3.315883
369.746185	789.837891	7009.867188	998.851501	3.360332
370.110687	790.729553	7073.099121	1005.687256	3.421602
370.475220	792.512878	7162.485840	1014.603699	3.486527
370.839661	790.283691	7224.305176	1009.551086	3.407937
371.204041	790.580994	7290.210938	1009.699707	3.371249
371.568451	791.695496	7302.471191	1003.458191	3.252496
371.932770	791.026794	7311.091309	1011.037109	3.374358
372.297150	793.924561	7240.503418	1012.671875	3.393231
372.661377	793.998840	7225.345215	1014.678040	3.431307
373.025696	797.565430	7241.171875	1009.476807	3.288708
373.389862	790.580994	7301.802246	1010.219788	3.373235
373.754059	790.432373	7363.399902	1011.185791	3.358505
374.118225	791.844055	7463.485840	1017.575867	3.383452
374.482361	794.147461	7624.350098	1015.941101	3.247248
374.846436	791.918396	7830.466309	1028.572632	3.362259
375.210510	791.844055	8088.965332	1044.696289	3.465096
375.574524	799.645813	8373.916992	1067.061401	3.530579
375.938538	800.611816	8667.114258	1072.188354	3.452316
376.302460	808.264954	8930.369141	1069.810547	3.220170
376.666412	800.611816	9112.411133	1065.798218	3.190481
377.030304	793.330139	9166.355469	1065.723999	3.253231
377.394196	786.717224	9073.848633	1064.386353	3.350606
377.757996	786.717224	8901.391602	1052.423706	3.274395
378.121796	791.918396	8637.170898	1040.461060	3.168065
378.485565	787.683105	8357.496094	1035.631348	3.275487
378.849304	786.642883	8080.420410	1034.219604	3.394355
379.212982	792.810059	7923.122559	1035.631348	3.405479
379.576630	797.936951	7840.273926	1031.916138	3.322465
379.940277	805.292908	7815.753906	1033.253784	3.251724
380.303864	807.521973	7803.049316	1027.012207	3.137579
380.667450	803.732483	7809.662109	1018.690247	3.068226
381.030945	799.794495	7799.928223	1015.569580	3.082442
381.394501	789.615051	7846.515625	1015.792480	3.205053
381.757935	793.553040	7882.701660	1029.984253	3.335114
382.121399	796.525208	7976.768066	1032.213379	3.282454
382.484741	797.936951	8084.283691	1043.061646	3.364165
382.848145	799.868835	8216.766602	1044.844849	3.302944
383.211487	794.964844	8340.554688	1049.674683	3.375612
383.574768	798.085632	8442.794922	1055.247192	3.363915
383.938019	795.187744	8502.014648	1057.030518	3.397543
384.301270	795.484863	8551.500000	1064.980835	3.474670
384.664459	798.308411	8558.707031	1061.340088	3.389410
385.027649	795.113464	8592.069336	1058.219360	3.374469
385.390778	794.147461	8669.938477	1060.671387	3.384091
385.753876	792.289856	8757.319336	1063.271973	3.402148
386.116943	794.147461	8860.450195	1073.302856	3.460760
386.479980	792.884277	8885.044922	1070.182129	3.426747
386.842987	790.878174	8928.214844	1070.404907	3.435113
387.205994	792.587097	8927.545898	1064.609497	3.343869
387.568909	790.655273	8929.106445	1056.510498	3.266656
387.931793	792.958679	8852.872070	1053.984131	3.238564
388.294678	796.450867	8820.921875	1052.126587	3.186200
388.657471	797.045227	8804.500977	1060.597046	3.291330
389.020294	795.039063	8865.280273	1063.271973	3.323729
389.383057	789.317810	8988.995117	1069.290527	3.414436
389.745819	792.958679	9171.036133	1077.983887	3.402036
390.108521	793.850342	9386.068359	1086.157104	3.401994
390.471191	789.020569	9624.877930	1102.578003	3.548693
390.833801	784.339539	9859.674805	1110.008301	3.588504
391.196442	778.915466	10041.790039	1115.952515	3.638579
391.558960	786.940125	10119.288086	1110.751465	3.469774
391.921509	787.385925	10079.833008	1108.522339	3.455886
392.284027	796.005066	10005.456055	1098.862915	3.288555
392.646484	793.850281	9938.583008	1094.404907	3.286642
393.008911	797.639648	9924.911133	1094.999268	3.257925
393.371307	795.336243	9962.508789	1108.670898	3.418008
393.733673	800.091614	9949.059570	1112.386108	3.413440
394.096008	801.652039	9896.007813	1100.200317	3.282787
394.458344	796.822327	9786.188477	1084.819702	3.203756
394.820587	797.045227	9613.434570	1077.686768	3.183180
395.182831	798.308411	9408.433594	1078.058228	3.249080
395.545013	802.766602	9164.125977	1072.708374	3.228444
395.907196	797.268250	8978.517578	1063.123413	3.249567
396.269287	789.317810	8843.659180	1060.968628	3.372725
396.631409	791.621155	8792.315430	1064.312134	3.408341
396.993469	789.243469	8751.002930	1067.878662	3.499669
397.355530	791.026672	8757.317383	1059.556763	3.370830
397.717499	786.717224	8779.609375	1061.711548	3.440486
398.079468	788.351868	8823.374023	1060.151245	3.382684
398.441376	790.060852	8815.423828	1065.575317	3.433047
398.803284	789.540710	8791.200195	1061.637207	3.400501
399.165131	788.797668	8777.528320	1063.346069	3.436696
399.526978	791.472595	8772.550781	1059.705444	3.360860
399.888763	790.432373	8767.572266	1061.785767	3.401638
400.250519	791.918396	8765.492188	1063.717896	3.408754
400.612244	788.797668	8769.875977	1070.182251	3.525646
400.973938	791.769775	8815.646484	1071.370972	3.484615
401.335602	797.045349	8884.004883	1073.822876	3.422517
401.697205	797.193848	9031.644531	1081.550415	3.453255
402.058807	795.113464	9193.178711	1092.547241	3.541694
402.420349	780.995911	9435.777344	1098.714355	3.671016
402.781860	779.138367	9649.842773	1101.314941	3.631917
403.143341	782.853455	9839.612305	1105.401489	3.561407
403.504822	784.859619	9996.092773	1116.249878	3.597675
403.866241	787.088684	10170.408203	1124.423218	3.595045
404.227631	784.785339	10316.264648	1125.834839	3.578138
404.588959	791.472595	10366.938477	1121.228027	3.443753
404.950287	793.181458	10313.811523	1121.005005	3.443297
405.311554	797.045349	10223.311523	1121.673828	3.443871
405.672821	797.119629	10116.910156	1120.633667	3.471258
406.034027	799.348633	9975.214844	1110.900024	3.395335
406.395203	799.794617	9822.077148	1102.355225	3.353482
406.756348	791.249695	9674.214844	1101.612183	3.493906
407.117493	789.243469	9620.790039	1114.986694	3.688405
407.478516	788.797668	9599.688477	1121.228027	3.772949
407.839600	803.138000	9660.988281	1133.413696	3.728621
408.200592	806.110168	9765.160156	1143.444580	3.765292
408.561554	801.800598	9886.050781	1158.082153	3.921970
408.922485	786.940125	10024.253906	1162.911987	4.070143
409.283417	789.392090	10123.968750	1156.744751	3.935397
409.644257	793.032959	10246.790039	1163.209106	3.915651
410.005096	800.091736	10339.372070	1176.657837	3.947531
410.365906	788.946289	10343.533203	1183.865112	4.133290
410.726715	782.481934	10323.471680	1186.465942	4.234194
411.087433	780.921570	10225.244141	1174.131714	4.163455
411.448120	786.865784	10197.231445	1176.657837	4.142157
411.808807	785.899902	10141.133789	1178.292603	4.194365
412.169434	790.506653	10086.149414	1186.837280	4.263618
412.530029	784.636719	10128.352539	1194.044678	4.381639
412.890564	788.649109	10192.772461	1201.252075	4.387469
413.251099	786.568604	10326.443359	1210.614258	4.444981
413.611572	789.392090	10449.637695	1221.982544	4.478048
413.972076	793.032898	10584.719727	1223.394409	4.395173
414.332489	793.181580	10718.984375	1227.778198	4.378453
414.692871	797.788330	10903.403320	1234.985474	4.326279
415.053223	800.537537	11057.656250	1245.387939	4.336992
415.413574	804.401184	11311.401367	1258.688110	4.323660
415.773834	797.639648	11485.195313	1268.495972	4.405650
416.134094	791.249695	11770.739258	1285.957153	4.505742
416.494263	796.748108	12007.914063	1300.074707	4.489511
416.854462	801.800720	12371.997070	1316.347046	4.447170
417.214630	799.868835	12754.805664	1331.579102	4.447621
417.574738	790.729553	13166.739258	1347.256958	4.496824
417.934784	790.432312	13595.762695	1369.473267	4.521874
418.294861	789.837891	14109.268555	1392.730103	4.526411
418.654846	788.426208	14677.610352	1426.166504	4.591632
419.014832	790.952454	15264.825195	1453.212769	4.575557
419.374756	786.122803	15889.637695	1484.345581	4.622916
419.734680	788.723389	16549.447266	1514.215210	4.603163
420.094543	787.014404	17125.515625	1534.425415	4.574538
420.454376	798.679932	17469.312500	1550.177734	4.507914
420.814148	796.748047	17644.072266	1551.440796	4.479600
421.173920	797.045227	17772.392578	1564.295288	4.519790
421.533691	790.580872	17883.773438	1573.434448	4.579914
421.893341	791.546875	17930.287109	1575.440552	4.573812
422.253021	792.884460	17890.535156	1568.604858	4.537000
422.612640	791.695496	17822.027344	1557.682251	4.497779
422.972260	788.872009	17830.201172	1561.694702	4.534990
423.331757	786.642883	17898.187500	1577.223755	4.620161
423.691315	783.002136	18080.824219	1591.861450	4.676076
424.050781	782.333313	18137.742188	1601.595093	4.720499
424.410248	775.943298	18038.619141	1590.078247	4.716157
424.769653	794.741882	17754.560547	1577.075317	4.612864
425.128998	803.138123	17402.439453	1561.991821	4.571600
425.488373	801.949280	16938.865234	1545.273560	4.606359
425.847656	788.723389	16504.269531	1525.880737	4.690625
426.206940	782.779114	16101.250977	1509.682617	4.745275
426.566193	788.872009	15763.694336	1488.952271	4.675049
426.925385	789.614990	15356.366211	1468.444702	4.660131
427.284576	787.757507	14952.976563	1442.438843	4.621752
427.643677	797.416748	14605.463867	1432.184937	4.597089
428.002777	794.741943	14373.415039	1425.349121	4.644100
428.361847	803.583923	14155.561523	1418.364624	4.604417
428.720856	792.066956	13972.106445	1404.098511	4.643625
429.079865	801.652039	13833.903320	1403.801270	4.620454
429.438812	793.627380	13812.801758	1403.206909	4.682167
429.797760	796.302246	13802.324219	1408.482422	4.706898
430.156616	788.797668	13676.901367	1401.052124	4.750540
430.515503	790.209473	13562.028320	1394.439087	4.730960
430.874268	793.701660	13508.605469	1397.336914	4.747462
431.233093	796.673767	13637.000000	1405.584473	4.742175
431.591827	794.816162	13787.389648	1424.085938	4.843304
431.950562	789.763672	13915.710938	1428.246948	4.864284
432.309204	785.156921	14027.016602	1433.225220	4.894088
432.667877	784.339539	14153.554688	1426.017944	4.799672
433.026459	798.679993	14264.859375	1433.448120	4.713795
433.385010	797.714050	14357.366211	1433.968262	4.692261
433.743561	803.583923	14416.734375	1438.277710	4.662358
434.102051	793.627380	14466.293945	1432.928101	4.675757
434.460510	793.775940	14511.766602	1437.088867	4.689557
434.818939	786.122803	14477.959961	1439.838257	4.774490
435.177338	779.435547	14465.848633	1443.404663	4.851301
435.535675	780.252930	14420.894531	1446.971069	4.887733
435.894012	785.156799	14409.303711	1449.720337	4.877836
436.252289	792.067078	14556.273438	1462.351929	4.869768
436.610535	801.800720	14608.062500	1469.262085	4.834483
436.968719	801.949280	14878.747070	1480.333008	4.819162
437.326935	793.775940	15055.515625	1490.289673	4.883792
437.685028	779.138367	15353.840820	1499.651733	4.943589
438.043152	780.029968	15548.289063	1511.391602	4.952254
438.401215	780.921570	15822.094727	1520.159546	4.914763
438.759277	788.872009	16157.719727	1538.289429	4.876211
439.117249	789.837891	16648.787109	1561.768921	4.867479
439.475250	789.763611	17088.734375	1576.777954	4.828614
439.833130	792.141296	17518.648438	1586.660278	4.750059
440.191071	793.998840	17697.273438	1591.787109	4.719726
440.548889	804.104004	17777.222656	1601.075073	4.695490
440.906708	803.361023	17735.613281	1603.304077	4.724375
441.264496	803.212402	17564.345703	1586.957520	4.675968
441.622223	790.729553	17307.554688	1572.022827	4.730288
441.979950	788.649109	17008.337891	1555.601929	4.728530
442.337616	788.500488	16772.947266	1556.493530	4.804627
442.695251	791.769775	16519.126953	1543.341797	4.778756
443.052887	791.546875	16381.668945	1532.567993	4.753145
443.410461	790.432312	16429.296875	1532.865234	4.747358
443.768005	798.308411	16669.220703	1549.063110	4.730381
444.125458	803.806824	16954.767578	1572.171265	4.757391
444.482941	805.144287	17296.113281	1590.672729	4.763386
444.840393	801.206238	17714.736328	1605.384399	4.754644
445.197754	799.423035	18132.318359	1624.628906	4.760924
445.555084	792.141296	18482.058594	1639.117798	4.787905
445.912415	792.810059	18773.250000	1658.659546	4.815508
446.269714	786.642883	18933.373047	1665.569702	4.843444
446.626953	783.522156	18965.250000	1659.774048	4.819409
446.984161	776.463379	18825.412109	1646.771118	4.821930
447.341309	777.800964	18604.212891	1628.121094	4.770001
447.698456	787.608826	18347.275391	1618.090210	4.729483
448.055542	793.627441	18128.082031	1608.059570	4.698343
448.412598	792.289978	17840.232422	1601.892456	4.748974
448.769653	785.528320	17509.214844	1587.774902	4.797068
449.126617	785.305481	17107.236328	1572.171387	4.820912
449.483582	785.677002	16816.638672	1560.728638	4.834717
449.840515	791.472656	16549.074219	1548.097168	4.801648
450.197388	790.878174	16312.270508	1538.809204	4.818711
450.554230	795.336243	16178.081055	1528.852539	4.768435
450.911041	792.438538	16097.758789	1528.927124	4.811977
451.267822	791.101074	16192.346680	1542.227173	4.877048
451.624573	787.980286	16184.543945	1545.793823	4.921966
451.981262	788.203308	16204.085938	1542.747437	4.894589
452.337921	795.856445	16021.524414	1528.852905	4.814216
452.694580	788.500427	15759.237305	1516.072754	4.859963
453.051147	795.113464	15515.523438	1505.298828	4.824494
453.407715	787.757507	15193.567383	1481.299194	4.814320
453.764221	799.794495	15083.303711	1470.079468	4.692719
454.120728	793.330139	14795.083008	1453.435547	4.714448
454.477142	797.714050	14752.433594	1462.203247	4.761752
454.833557	798.382751	14650.416992	1462.574707	4.794906
455.189911	795.856445	14652.942383	1462.723267	4.812461
455.546265	799.422913	14692.768555	1461.237305	4.763535
455.902557	796.153625	14717.140625	1466.661499	4.816525
456.258820	799.348633	14896.061523	1473.942993	4.785473
456.615051	791.769836	15114.362305	1486.203125	4.848516
456.971252	793.181580	15405.851563	1503.887085	4.863625
457.327393	795.262024	15893.723633	1544.902222	4.965010
457.683502	798.382751	16505.011719	1570.239258	4.914208
458.039612	801.429199	17371.158203	1614.152344	4.904867
458.395630	793.107239	18223.111328	1653.235352	4.934756
458.751648	786.197083	18970.302734	1692.244507	4.982634
459.107605	777.354980	19673.578125	1711.637329	4.944281
459.463562	783.224915	19990.775391	1707.699341	4.813078
459.819458	793.998840	19995.455078	1707.402344	4.756949
460.175323	800.908997	19547.560547	1682.808105	4.704302
460.531158	797.788269	18935.380859	1660.294312	4.755351
460.886932	793.255859	18247.335938	1625.074829	4.765757
461.242676	784.339539	17574.599609	1592.455933	4.813007
461.598419	788.277588	16994.962891	1566.598511	4.802468
461.954102	785.825623	16456.642578	1536.728882	4.791730
462.309723	793.330139	16003.320313	1519.862305	4.776678
462.665344	800.760437	15698.753906	1504.407227	4.723098
463.020905	810.345459	15495.385742	1501.880859	4.709115
463.376373	810.494080	15449.541992	1501.732056	4.721878
463.731873	803.732483	15421.530273	1509.831421	4.830406
464.087341	793.107239	15449.171875	1502.995483	4.843648
464.442749	795.633545	15524.291992	1516.964355	4.897465
464.798126	796.005066	15624.823242	1507.007813	4.794736
465.153503	792.884338	15824.770508	1521.496704	4.847112
465.508820	787.014404	16032.149414	1517.855957	4.793933
465.864105	788.203308	16202.824219	1535.391235	4.847268
466.219330	793.255859	16465.558594	1541.187012	4.772312
466.574524	795.930725	16508.060547	1542.227173	4.749811
466.929657	797.342468	16438.658203	1523.057129	4.639729
467.284790	800.388916	16225.039063	1522.165527	4.679371
467.639893	798.977112	16025.983398	1512.283203	4.684480
467.994934	796.227966	15830.790039	1511.317383	4.756303
468.349945	797.936951	15607.286133	1487.689087	4.657545
468.704926	797.119629	15450.656250	1483.750977	4.685772
469.059875	798.085510	15294.917969	1484.939819	4.737961
469.414764	792.067078	15247.512695	1502.252441	4.912926
469.769653	789.615051	15213.110352	1498.463013	4.914536
470.124451	786.197083	15274.410156	1501.732422	4.938741
470.479248	780.921570	15272.403320	1485.905884	4.864819
470.834015	784.636719	15319.585938	1488.803711	4.844647
471.188721	789.689270	15533.132813	1497.348633	4.799824
471.543365	796.599426	15840.299805	1514.438110	4.771689
471.898010	794.147461	16075.245117	1526.772461	4.794322
472.252625	788.946289	16315.985352	1542.301636	4.851893
472.607178	787.608887	16540.900391	1558.573853	4.893993
472.961700	789.689270	16636.007813	1572.542847	4.940287
473.316193	789.094910	16692.923828	1566.672852	4.889250
473.670654	790.432373	16609.554688	1556.419067	4.842157
474.025055	788.872070	16664.986328	1553.149780	4.814010
474.379456	794.741943	16694.929688	1559.985718	4.812797
474.733795	800.388855	16834.693359	1568.381836	4.789687
475.088104	805.961609	17098.693359	1584.134155	4.776195
475.442383	799.125732	17368.333984	1587.477661	4.757934
475.796570	797.936951	17636.568359	1601.149414	4.770058
476.150787	792.884277	17993.591797	1611.180176	4.757339
476.504944	792.958679	18348.685547	1636.889038	4.807151
476.859070	788.054626	18687.208984	1657.767944	4.858963
477.213135	789.689270	18925.349609	1671.067993	4.859921
477.567200	792.587097	19201.162109	1681.544922	4.829042
477.921173	788.574768	19456.689453	1683.699707	4.794940
478.275146	785.899902	19708.351563	1691.872925	4.787821
478.629089	792.141296	19961.128906	1710.671509	4.791751
478.983002	799.348633	20382.869141	1728.281250	4.743441
479.336823	806.927551	20902.320313	1752.355469	4.704700
479.690643	797.936951	21522.082031	1772.045532	4.700356
480.044403	793.255859	22258.718750	1817.147461	4.769949
480.398163	788.203308	23285.583984	1878.521484	4.846423
480.751862	789.540771	24681.728516	1959.065552	4.895009
481.105499	792.289856	26583.505859	2064.947021	4.934460
481.459137	795.039063	29332.853516	2199.657959	4.921957
481.812744	795.856445	33042.644531	2385.340088	4.929122
482.166290	791.101074	37643.320313	2608.248535	4.930904
482.519806	789.912292	42571.445313	2857.311279	4.948117
482.873291	783.299316	47115.128906	3069.891357	4.935251
483.226715	785.379822	50464.394531	3222.286133	4.905303
483.580139	780.327209	51982.261719	3280.836914	4.883624
483.933502	783.522156	51798.511719	3250.223877	4.835249
484.286804	789.020508	50108.863281	3147.686279	4.782387
484.640106	787.980286	47482.562500	2979.761963	4.693867
484.993347	793.330139	44534.824219	2828.630127	4.653019
485.346558	797.491150	42054.746094	2707.962646	4.630631
485.699738	803.955505	40741.515625	2666.724609	4.664204
486.052887	800.166016	40596.480469	2687.083740	4.741438
486.405975	793.775940	41356.300781	2737.535156	4.792008
486.759064	792.958679	42298.902344	2792.147461	4.816632
487.112061	796.302307	42929.585938	2799.578125	4.754616
487.464996	796.450928	42871.628906	2777.064453	4.707320
487.817963	796.525208	41983.937500	2705.733643	4.635417
488.170868	801.280579	40385.460938	2620.508545	4.595846
488.523743	802.617981	38420.527344	2539.072510	4.616032
488.876587	804.252625	36543.566406	2455.556396	4.620413
489.229401	797.565430	35260.656250	2415.358643	4.694278
489.582153	787.237305	34810.003906	2391.878906	4.716376
489.934845	785.008240	35222.910156	2432.151123	4.782936
490.287537	792.066956	36160.386719	2477.475830	4.765306
490.640198	802.172180	37354.281250	2537.140869	4.746562
490.992798	797.193848	38128.667969	2568.050781	4.743603
491.345337	788.500488	38209.730469	2550.069580	4.707406
491.697876	785.231140	37273.070313	2493.302002	4.681206
492.050354	789.614990	35642.644531	2400.200928	4.621078
492.402832	788.574768	33370.613281	2298.406250	4.633938
492.755219	798.085510	30888.087891	2179.818848	4.592002
493.107605	792.289978	28486.697266	2075.497803	4.633454
493.459930	789.317810	26577.710938	1984.031250	4.632756
493.812225	783.299316	25162.689453	1929.790161	4.702705
494.164490	790.580994	24263.107422	1891.970215	4.692248
494.516724	793.701721	23747.224609	1871.982788	4.697671
494.868896	788.946289	23569.492188	1863.586548	4.717360
495.221039	785.379700	23709.330078	1869.976563	4.731283
495.573120	791.621155	23935.062500	1889.741211	4.744843
495.925201	791.175293	24227.000000	1909.802856	4.773152
496.277222	792.661377	24387.119141	1917.976074	4.769403
496.629211	784.636719	24452.802734	1914.558228	4.774014
496.981140	789.169189	24351.750000	1907.127930	4.744637
497.333069	788.277527	24134.337891	1895.685425	4.743447
497.684967	793.998840	23824.423828	1872.948730	4.684889
498.036804	788.351868	23407.212891	1834.162720	4.623622
498.388580	795.633545	22975.884766	1813.506470	4.589096
498.740326	792.141296	22533.189453	1801.766602	4.643867
499.092072	800.166016	22130.320313	1782.522339	4.605482
499.443756	789.689270	21742.462891	1768.553223	4.671763
499.795410	792.884338	21373.251953	1749.606079	4.648711
500.147003	789.020691	21076.634766	1760.231445	4.787210
500.498566	798.531433	20809.964844	1745.222290	4.730750
500.850098	799.645813	20630.150391	1739.649780	4.740192
501.201599	797.119568	20463.935547	1719.810913	4.691615
501.553009	797.491028	20357.236328	1710.151367	4.666013
501.904449	794.964844	20312.654297	1710.151367	4.689011
502.255859	795.707825	20416.380859	1723.525879	4.728778
502.607178	792.958679	20534.373047	1732.665039	4.760076
502.958405	791.323975	20642.484375	1734.522827	4.751354
503.309692	800.760437	20629.779297	1730.807617	4.690334
503.660919	796.525208	20686.695313	1737.048950	4.728586
504.012115	797.491028	20708.388672	1739.500977	4.731127
504.363251	787.831726	20715.001953	1728.429810	4.720179
504.714294	786.122803	20625.468750	1714.981079	4.681900
505.065369	780.847229	20554.138672	1709.111328	4.694535
505.416443	776.314758	20432.802734	1701.012207	4.704286
505.767395	783.373596	20377.966797	1706.807983	4.712700
506.118317	789.392090	20309.982422	1694.622437	4.637311
506.469238	797.639648	20432.505859	1707.328003	4.633025
506.820160	795.633484	20569.072266	1707.625122	4.612206
507.170929	798.679932	20790.794922	1725.457886	4.635717
507.521729	794.964844	20995.498047	1738.832397	4.672488
507.872498	793.330078	21235.125000	1755.476196	4.706759
508.223236	795.707825	21518.515625	1766.250000	4.683449
508.573883	792.958679	21727.158203	1770.856812	4.671295
508.924500	789.689270	21911.873047	1768.181763	4.632535
509.275116	784.488098	22025.333984	1775.686401	4.666473
509.625702	790.432312	22217.255859	1783.636719	4.635332
509.976196	793.107239	22361.626953	1803.327026	4.683770
510.326660	801.503418	22581.337891	1813.432129	4.646173
510.677124	801.503479	22719.099609	1831.636353	4.700027
511.027557	802.097839	22918.896484	1834.608765	4.668447
511.377869	792.958679	23040.603516	1842.410278	4.717136
511.728180	791.918457	23117.062500	1840.255493	4.695768
512.078430	787.385925	23126.945313	1838.917969	4.707040
512.428650	787.608887	23030.275391	1836.985962	4.717856
512.778931	787.683105	22883.751953	1830.893433	4.721249
513.129028	790.655273	22692.646484	1818.633301	4.693537
513.479126	793.032898	22562.169922	1808.008179	4.662451
513.829285	788.797668	22453.539063	1789.729492	4.620096
514.179382	791.621155	22399.296875	1786.980469	4.606508
514.529297	785.899902	22325.664063	1787.723511	4.651043
514.879272	792.364258	22431.619141	1803.847168	4.674296
515.229187	790.060852	22547.455078	1812.169067	4.697751
515.579163	792.289856	22865.919922	1826.583862	4.685654
515.928955	786.865906	23245.976563	1845.531128	4.713745
516.278748	789.615051	23841.810547	1882.831055	4.742351
516.628540	790.729553	24612.849609	1921.096802	4.745032
516.978333	794.370361	25478.031250	1964.340942	4.739859
517.327942	785.231140	26366.396484	2008.476685	4.781821
517.677612	779.212646	27089.212891	2039.460938	4.789997
518.027222	777.132141	27580.279297	2059.894287	4.785864
518.376831	780.029968	27763.287109	2051.646729	4.712614
518.726379	787.980286	27648.931641	2037.826538	4.653023
519.075867	790.358093	27181.642578	2007.511108	4.611951
519.425293	800.091614	26588.484375	1985.442993	4.596453
519.774658	800.983337	25897.248047	1957.505249	4.608343
520.124084	797.491028	25328.458984	1931.944946	4.624578
520.473389	796.079285	24804.328125	1911.586060	4.646348
520.822693	792.661377	24403.166016	1893.679077	4.663254
521.171997	789.689270	24197.052734	1886.620239	4.686265
521.521240	783.596436	24092.359375	1874.360352	4.679630
521.870361	785.899841	24171.492188	1870.719727	4.638838
522.219482	786.865784	24352.718750	1881.567871	4.645289
522.568604	783.522217	24658.919922	1898.508789	4.670023
522.917664	791.992676	25019.880859	1923.623169	4.670776
523.266724	799.125793	25513.845703	1944.130493	4.632885
523.615662	811.980164	26249.070313	1990.644165	4.633644
523.964600	804.921387	27226.150391	2046.742798	4.700089
524.313538	801.949219	28397.162109	2110.271729	4.741121
524.662354	794.593262	29640.396484	2166.741943	4.756840
525.011169	797.936951	30912.162109	2223.137451	4.732649
525.359985	792.884338	32137.486328	2279.458984	4.742682
525.708740	791.769836	33415.792969	2325.823975	4.702223
526.057434	789.169189	34806.664063	2388.906738	4.702691
526.406067	791.621155	36602.859375	2477.475586	4.707613
526.754700	793.404480	38985.449219	2628.458740	4.804808
527.103333	794.221863	42096.054688	2782.488281	4.813991
527.451782	794.221741	45507.074219	2948.332031	4.817654
527.800293	789.615051	48449.160156	3074.498047	4.794177
528.148743	785.899902	50321.292969	3162.695313	4.798176
528.497131	793.404480	50704.027344	3156.602539	4.734860
528.845642	797.045227	49642.390625	3074.720703	4.663035
529.193909	797.565430	47371.699219	2938.598389	4.597043
529.542175	797.936951	44232.781250	2775.503906	4.552950
529.890503	801.057617	40904.539063	2608.545654	4.507060
530.238770	803.063904	37781.816406	2459.122803	4.478406
530.586914	802.320801	35554.371094	2370.702637	4.513062
530.934998	801.280518	34190.839844	2319.953857	4.548348
531.283142	798.011230	33936.800781	2319.433594	4.591062
531.631226	795.856445	34296.425781	2346.257080	4.627983
531.979248	795.782166	35308.429688	2402.875732	4.656535
532.327148	795.707825	36432.035156	2459.420166	4.668585
532.675110	790.209412	37362.828125	2493.673828	4.657759
533.023071	790.283691	37677.574219	2497.166016	4.627291
533.370850	795.187744	37141.851563	2463.878418	4.591042
533.718689	795.782166	36110.605469	2408.819824	4.567594
534.066467	793.032959	34645.500000	2340.758545	4.571972
534.414246	789.169189	33205.960938	2276.858398	4.589255
534.761963	796.896667	31984.796875	2227.669922	4.587591
535.109619	797.713928	31261.087891	2196.983154	4.593284
535.457153	798.977234	30937.052734	2191.633057	4.620918
535.804749	789.392090	30897.375000	2188.884033	4.648242
536.152344	786.568604	30823.369141	2186.283447	4.660000
536.499817	785.528320	30579.359375	2161.763428	4.619195
536.847229	790.580872	30037.468750	2132.116455	4.586935
537.194641	792.141296	29333.970703	2089.838135	4.546649
537.542114	794.816162	28559.884766	2053.207031	4.532281
537.889404	800.611816	27831.570313	2021.702637	4.517379
538.236694	802.172180	27370.521484	2010.780273	4.549052
538.583984	799.051453	27407.005859	2022.742798	4.598968
538.931213	790.952454	28007.224609	2060.637451	4.665169
539.278381	785.528320	29218.281250	2131.522217	4.733955
539.625488	780.178528	30887.865234	2212.958008	4.758850
539.972595	785.305481	33144.582031	2330.876709	4.776285
540.319641	796.079346	35394.027344	2439.952881	4.751361
540.666687	805.144287	37369.437500	2532.013916	4.722831
541.013611	807.670593	38583.027344	2568.273438	4.660718
541.360596	801.800598	38931.285156	2563.369385	4.619965
541.707458	799.645813	38431.968750	2527.555664	4.591558
542.054260	798.159851	37300.339844	2467.370361	4.572906
542.401062	794.370361	35850.171875	2386.231689	4.540936
542.747864	791.621155	34117.207031	2304.796143	4.540580
543.094666	791.175354	32305.414063	2212.214844	4.509199
543.441284	797.714050	30511.298828	2140.735596	4.519891
543.787903	803.509583	29075.623047	2071.039551	4.483323
544.134460	798.457031	27851.929688	2021.405640	4.520487
544.481079	800.240295	27040.023438	1983.436890	4.509171
544.827637	800.686218	26407.335938	1963.820923	4.542315
545.174072	803.955505	26010.632813	1958.471069	4.580197
545.520508	812.426025	25838.697266	1955.424683	4.567195
545.866943	806.704590	25783.787109	1952.824097	4.588685
546.213318	807.150391	25806.226563	1939.895508	4.531148
546.559631	800.537537	25575.740234	1922.508423	4.528605
546.905823	807.299011	25186.318359	1899.177368	4.478763
547.252136	802.097839	24524.953125	1862.397583	4.469529
547.598389	796.599426	23764.611328	1828.292603	4.491869
547.944458	793.998840	22882.041016	1783.711060	4.480760
548.290588	793.478760	21942.634766	1748.565918	4.515959
548.636658	791.546875	21072.029297	1714.386719	4.550384
548.982727	786.122742	20333.832031	1685.334351	4.600087
549.328735	786.271423	19776.337891	1666.609985	4.635785
549.674622	790.283691	19332.529297	1644.244995	4.605490
550.020569	786.865784	19028.927734	1626.040649	4.600219
550.366455	785.082520	18834.849609	1613.335083	4.588716
550.712280	780.550110	18732.013672	1609.471191	4.617568
551.058044	786.865906	18749.326172	1619.576538	4.635838
551.403748	793.998840	18874.525391	1627.155273	4.608032
551.749512	795.262024	19040.888672	1633.471069	4.594027
552.095154	795.187683	19169.283203	1637.631958	4.584956
552.440735	796.302246	19198.189453	1638.375000	4.576013
552.786316	794.296143	19168.320313	1636.368774	4.582952
553.131897	797.268250	19017.929688	1634.288452	4.593797
553.477417	798.159851	18811.146484	1625.446289	4.592722
553.822815	799.497314	18492.537109	1606.647583	4.561965
554.168213	802.469421	18172.216797	1580.864624	4.481327
554.513672	794.221863	17880.578125	1569.124634	4.535214
554.859009	795.856445	17625.720703	1571.874023	4.610956
555.204285	791.472595	17413.511719	1563.477905	4.644468
555.549500	796.748047	17224.335938	1547.651367	4.570990
555.894714	795.262024	17057.080078	1525.657837	4.491477
556.239990	793.404480	16914.939453	1517.038696	4.488618
556.585022	792.884338	16801.033203	1519.564941	4.539442
556.930115	796.227966	16728.216797	1520.605103	4.546684
557.275146	792.735779	16646.482422	1514.661011	4.553657
557.620178	790.209473	16567.423828	1507.602173	4.547018
557.965149	785.602600	16473.728516	1499.800415	4.552474
558.310059	786.197083	16396.306641	1500.246460	4.574275
558.654968	788.203308	16291.987305	1497.868652	4.577369
558.999756	789.466492	16290.797852	1501.063599	4.590555
559.344604	791.026794	16347.713867	1505.373169	4.591893
559.689331	783.522217	16430.263672	1499.726196	4.577336
560.033997	790.209473	16436.505859	1497.051270	4.517630
560.378723	794.593262	16491.861328	1504.258667	4.520948
560.723389	792.735657	16508.802734	1518.078735	4.615296
561.067932	779.807129	16582.212891	1522.388306	4.699165
561.412476	777.280762	16535.552734	1523.800171	4.737318
561.757019	782.927795	16526.484375	1523.280151	4.702574
562.101501	794.221863	16453.892578	1517.484497	4.618632
562.445862	791.546875	16392.517578	1503.292603	4.562189
562.790222	792.215637	16322.672852	1492.815918	4.511137
563.134644	792.810059	16277.200195	1487.243164	4.484730
563.478943	796.227966	16327.354492	1491.404175	4.476019
563.823181	798.605652	16412.431641	1503.738403	4.516079
564.167358	791.769836	16606.361328	1522.239868	4.618962
564.511536	796.971008	16879.275391	1530.784668	4.562864
564.855774	790.803894	17206.949219	1539.849609	4.562860
565.199768	792.141357	17553.646484	1552.109497	4.534009
565.543823	784.636719	17826.634766	1565.112427	4.579720
565.887817	791.546875	18060.687500	1575.217773	4.537984
566.231812	788.277527	18136.031250	1579.081421	4.558537
566.575745	790.432312	18073.392578	1575.663452	4.543383
566.919617	789.614990	17851.005859	1562.809082	4.531835
567.263428	791.472595	17559.294922	1550.103149	4.524323
567.607239	789.317810	17319.517578	1542.227173	4.554751
567.950989	789.020569	17151.445313	1538.140625	4.578295
568.294678	788.500488	17047.123047	1522.834351	4.516581
568.638367	794.667664	16960.412109	1521.125366	4.493809
568.981995	792.289978	16892.052734	1505.967651	4.432846
569.325623	800.091797	16915.087891	1517.633179	4.452631
569.669128	791.546875	16981.587891	1526.252319	4.538009
570.012573	787.014404	17172.029297	1546.388306	4.634563
570.356140	790.432373	17399.095703	1560.951538	4.639260
570.699524	792.587097	17658.859375	1564.815063	4.578534
571.042908	803.212402	17916.541016	1583.613892	4.560197
571.386230	795.707825	18143.685547	1588.146362	4.567901
571.729492	796.896667	18298.531250	1591.490112	4.540110
572.072815	794.370422	18320.970703	1578.115601	4.471747
572.416016	795.559265	18224.527344	1570.759399	4.447768
572.759094	791.398254	18087.066406	1567.861694	4.489352
573.102234	792.512878	17938.906250	1560.951538	4.481635
573.445374	791.992676	17768.232422	1561.174438	4.530931
573.788391	789.466492	17610.488281	1551.440796	4.529893
574.131409	792.661438	17462.775391	1543.044556	4.501368
574.474365	783.373596	17393.896484	1525.509155	4.467864
574.817261	783.596497	17321.078125	1532.567871	4.528932
575.160156	775.051697	17226.267578	1538.363647	4.639851
575.502930	787.311707	17007.742188	1547.354126	4.685710
575.845703	792.066956	16764.031250	1526.995239	4.601365
576.188477	797.268250	16447.947266	1509.162598	4.548648
576.531250	794.221741	16175.106445	1481.447632	4.468052
576.873901	798.679993	15806.121094	1457.819336	4.392083
577.216431	793.404480	15494.867188	1439.689453	4.396059
577.559082	786.197083	15136.727539	1423.119995	4.438323
577.901611	782.036133	14875.703125	1414.946655	4.490744
578.244080	784.562439	14590.973633	1400.457642	4.460936
578.586487	794.816162	14388.424805	1396.742554	4.428010
578.928955	843.038635	14207.348633	1396.965454	4.144822
579.271301	849.651611	14046.334961	1391.764282	4.107946
579.613647	845.862122	13830.485352	1383.888184	4.143563
579.955872	793.850281	13622.214844	1368.210327	4.477266
580.298157	784.859619	13490.252930	1365.312500	4.568555
580.640320	780.921631	13442.402344	1371.182251	4.661861
580.982483	793.701660	13405.102539	1360.334229	4.493019
581.324524	799.497253	13344.545898	1360.482910	4.471769
581.666626	803.732605	13259.765625	1347.034058	4.361753
582.008728	789.837891	13228.039063	1357.436401	4.563349
582.350647	780.772949	13179.519531	1357.064819	4.647985
582.692566	783.373596	13139.543945	1354.018433	4.618299
583.034424	789.912292	13052.239258	1346.811157	4.541543
583.376343	794.444641	12991.756836	1338.340698	4.459146
583.718201	786.642883	12979.496094	1332.767822	4.479058
584.059937	780.698730	12963.448242	1324.371582	4.462645
584.401611	772.748291	12923.843750	1314.860962	4.461431
584.743347	777.132141	12892.265625	1310.105591	4.399237
585.085022	783.447937	12815.213867	1317.238525	4.436511
585.426514	799.051453	12794.333008	1318.204468	4.327977
585.768127	789.986511	12751.981445	1315.232422	4.390956
586.109619	791.101074	12747.449219	1310.031250	4.340207
586.451172	786.717285	12715.796875	1322.216919	4.489027
586.792542	799.348694	12738.682617	1332.322144	4.464013
587.133850	794.221863	12811.200195	1339.900879	4.540900
587.475220	794.296143	12912.178711	1332.396362	4.440547
587.816589	785.825684	12971.323242	1333.808105	4.497005
588.157776	787.757507	13050.159180	1330.984741	4.430023
588.498962	787.460266	13084.411133	1330.538818	4.416368
588.840210	789.614990	13143.706055	1332.173462	4.391731
589.181335	794.296082	13179.890625	1346.736816	4.460349
589.522400	791.398254	13231.604492	1350.229004	4.492134
589.863403	798.382751	13244.385742	1364.643677	4.549741
590.204407	797.491150	13204.335938	1361.820190	4.548530
590.545410	790.135071	13169.711914	1363.083496	4.628174
590.886353	793.924500	13055.359375	1350.972046	4.543086
591.227112	798.457031	12936.624023	1339.157837	4.454551
591.567932	803.509583	12839.733398	1336.037231	4.424375
591.908752	789.912170	12769.221680	1329.201294	4.501838
592.249512	784.042297	12792.551758	1328.086792	4.530491
592.590149	783.596436	12769.889648	1323.851563	4.507275
592.930786	786.791504	12840.997070	1329.052734	4.498523
593.271423	782.704834	12891.820313	1335.368530	4.564030
593.612000	784.339539	12971.917969	1348.817261	4.631582
593.952576	775.274597	13119.706055	1348.965820	4.647368
594.292969	771.485168	13231.010742	1356.619019	4.696277
594.633484	773.268372	13435.640625	1360.111328	4.634542
594.973877	782.630554	13611.589844	1371.851074	4.592894
595.314209	786.791504	13883.018555	1383.293579	4.554763
595.654480	788.203308	14181.120117	1402.835327	4.589232
595.994812	787.014404	14499.209961	1410.934204	4.550109
596.335022	789.912170	14751.541992	1406.104614	4.413471
596.675171	790.135071	14814.625977	1406.624634	4.395807
597.015320	795.782227	14711.418945	1407.219238	4.393885
597.355408	797.342529	14443.186523	1406.401855	4.463332
597.695496	792.810059	14122.273438	1381.436157	4.415977
598.035461	793.330139	13729.286133	1352.532471	4.322853
598.375366	792.364258	13331.468750	1334.105347	4.320413
598.715271	798.382751	12954.085938	1320.507935	4.295310
599.055176	794.221741	12605.828125	1314.935181	4.408490
599.395081	789.020569	12367.985352	1306.464722	4.468829
599.734802	783.968018	12155.776367	1293.015991	4.476403
600.074524	785.528320	12021.065430	1286.031494	4.454644
600.414246	792.289856	11927.593750	1276.817993	4.351279
600.753906	802.395081	11933.090820	1284.025269	4.327045
601.093506	802.543640	11989.413086	1284.842651	4.311296
601.433044	803.063782	12093.659180	1292.867310	4.338155
601.772583	799.794434	12284.915039	1300.594727	4.360427
602.112122	808.636536	12534.348633	1318.353149	4.346999
602.451538	807.224792	12868.860352	1337.225952	4.394107
602.790894	793.627380	13213.252930	1352.680908	4.501372
603.130310	783.002014	13644.877930	1371.331055	4.574209
603.469604	782.927734	14017.059570	1380.916016	4.518530
603.808838	789.020569	14360.338867	1394.290649	4.459921
604.148010	782.036133	14573.883789	1388.197754	4.395072
604.487305	777.577942	14688.237305	1394.290649	4.433383
604.826416	780.847351	14636.893555	1393.547485	4.421897
605.165527	782.036133	14424.386719	1390.723999	4.461752
605.504456	788.351868	14090.098633	1374.451660	4.406187
605.843445	788.054688	13659.663086	1358.328003	4.430474
606.182434	795.559265	13226.848633	1343.393188	4.406896
606.521423	791.398254	12858.457031	1333.808105	4.494963
606.860229	794.073181	12554.187500	1316.867065	4.445483
607.199036	793.924561	12355.354492	1305.573120	4.425478
607.537903	795.707825	12254.897461	1295.170776	4.358624
607.876648	793.627380	12276.890625	1287.071777	4.297074
608.215271	795.930847	12412.938477	1296.656860	4.310284
608.553955	796.005066	12609.468750	1310.625610	4.356221
608.892578	796.822449	12803.398438	1333.362305	4.468717
609.231140	796.302246	12937.441406	1336.705933	4.451013
609.569641	792.810059	12954.828125	1332.024902	4.433597
609.908081	791.769714	12901.405273	1325.411987	4.406757
610.246521	792.810059	12748.117188	1317.164185	4.385953
610.584961	797.936829	12511.092773	1309.288208	4.365616
610.923340	794.667664	12217.225586	1297.102661	4.398621
611.261597	798.011230	11881.450195	1283.653687	4.381694
611.599854	801.280518	11593.156250	1263.517700	4.283196
611.938110	805.070007	11354.941406	1253.932617	4.254674
612.276245	794.890564	11172.083008	1243.010132	4.318312
612.614319	793.701660	11000.815430	1235.728516	4.330576
612.952393	797.714050	10840.469727	1229.115601	4.295649
613.290466	806.556091	10694.390625	1229.858765	4.281045
613.628479	804.847168	10553.215820	1224.434448	4.304179
613.966370	798.977112	10426.530273	1217.747192	4.349704
614.304260	792.364258	10303.854492	1205.338623	4.341847
614.642151	787.014404	10199.311523	1199.245728	4.379710
614.979980	784.265198	10128.872070	1190.701050	4.349416
615.317749	784.116516	10097.368164	1185.425659	4.309012
615.655396	783.373535	10067.349609	1190.106812	4.381024
615.993164	779.584167	10076.340820	1184.162476	4.351822
616.330811	780.624329	10059.473633	1182.453491	4.330593
616.668396	785.899902	10065.343750	1183.716675	4.287076
617.005859	794.147461	10050.854492	1192.112915	4.299212
617.343445	792.215576	10060.215820	1187.877563	4.269119
617.680908	792.587097	10087.411133	1184.088257	4.212034
618.018311	789.614990	10107.993164	1177.252441	4.159924
618.355652	790.209473	10119.213867	1193.896240	4.327223
618.692993	791.323914	10066.829102	1190.329712	4.301715
619.030273	796.896667	10019.647461	1197.759888	4.346460
619.367554	798.308411	9985.765625	1192.187134	4.287136
619.704712	795.336426	9995.350586	1193.375977	4.326510
620.041870	795.485046	9967.264648	1185.425659	4.251526
620.379028	794.370422	9874.459961	1176.434937	4.207717
620.716064	795.484924	9790.200195	1178.366943	4.256744
621.053040	795.559265	9760.034180	1181.933472	4.310060
621.389954	795.262024	9743.166992	1184.014038	4.344615
621.726929	799.497314	9723.773438	1187.729004	4.350287
622.063843	798.902893	9677.334961	1185.276978	4.351828
622.400635	798.902832	9668.046875	1187.580444	4.382358
622.737427	788.128967	9707.129883	1176.434937	4.353693
623.074219	785.751221	9748.442383	1169.896240	4.286046
623.410889	784.710999	9789.903320	1168.484497	4.261691
623.747559	788.128967	9805.209961	1175.097534	4.291506
624.084167	787.683167	9823.191406	1183.865234	4.384724
624.420715	788.723450	9896.379883	1188.323364	4.387516
624.757324	786.419983	9976.626953	1189.735107	4.388531
625.093750	788.203308	10106.062500	1189.586548	4.307676
625.430176	791.026672	10270.270508	1197.908569	4.292346
625.766602	799.051453	10428.833008	1212.768921	4.296229
626.102905	789.912292	10631.828125	1219.456177	4.364434
626.439209	789.466492	10758.587891	1221.685181	4.335575
626.775452	783.596497	10855.181641	1219.530518	4.328356
627.111694	787.385925	10832.964844	1222.874268	4.335124
627.447876	784.710999	10758.885742	1217.672974	4.340830
627.783997	784.190918	10636.360352	1212.323242	4.345564
628.120056	792.364258	10532.411133	1209.202393	4.279632
628.456055	798.977112	10348.437500	1207.121948	4.274010
628.792053	803.286682	10206.742188	1200.211792	4.221056
629.128052	791.621155	10030.718750	1188.769165	4.298558
629.463928	784.488098	9949.581055	1176.806519	4.280572
629.799744	782.184753	9853.877930	1167.890137	4.251746
630.135559	791.398376	9752.529297	1166.849976	4.189779
630.471375	792.884338	9644.493164	1164.100708	4.193773
630.807068	799.125732	9560.902344	1166.552612	4.193521
631.142700	803.435303	9504.730469	1155.927368	4.051030
631.478333	805.515808	9457.102539	1154.441406	4.033082
631.813965	800.463196	9408.508789	1150.577637	4.067293
632.149475	793.478760	9348.099609	1155.556030	4.232534
632.484924	797.268127	9341.709961	1154.961426	4.186269
632.820435	797.045227	9299.356445	1157.785034	4.242844
633.155884	797.639709	9322.464844	1161.723022	4.270860
633.491150	795.113464	9322.761719	1176.509277	4.472462
633.826477	802.841003	9347.653320	1168.484619	4.279130
634.161804	807.001892	9321.423828	1162.391724	4.173975
634.497009	808.859375	9260.570313	1141.661255	3.937686
634.832153	797.342529	9172.224609	1140.472534	4.097133
635.167297	790.580994	9064.485352	1133.190796	4.140848
635.502380	781.070251	8947.905273	1132.819336	4.307043
635.837463	785.676941	8860.525391	1127.543823	4.233725
636.172424	791.844055	8769.801758	1129.178467	4.228331
636.507324	796.079346	8699.436523	1129.104126	4.213713
636.842224	795.484924	8631.153320	1133.636597	4.315543
637.177124	787.088684	8557.816406	1130.961670	4.425235
637.511963	786.642883	8462.113281	1127.692383	4.443369
637.846741	780.550049	8370.499023	1127.098022	4.565880
638.181396	784.562439	8286.907227	1126.131958	4.552837
638.516113	786.568604	8251.762695	1116.472656	4.419229
638.850769	788.797668	8192.171875	1106.887573	4.296553
639.185303	787.980408	8133.844238	1106.367554	4.334237
639.519836	785.751221	8042.601074	1110.974243	4.481601
639.854370	781.515930	7982.192871	1105.327271	4.496957
640.188843	785.528320	7944.595215	1097.599731	4.359107
640.523254	792.512878	7919.109375	1095.444946	4.250726
640.857605	797.491211	7873.189941	1094.330444	4.195193
641.191895	794.444641	7795.470215	1088.757813	4.203858
641.526184	789.689270	7715.445801	1081.699097	4.216288
641.860413	791.546875	7661.576660	1083.259399	4.246161
642.194580	788.351868	7647.607910	1085.562622	4.332988
642.528748	786.791504	7652.511719	1084.745483	4.339734
642.862793	795.707825	7649.614746	1080.138672	4.149909
643.196838	797.342468	7624.128418	1074.343140	4.057556
643.530823	798.531311	7596.486816	1071.742432	4.019019
643.864746	796.525146	7564.760254	1076.572144	4.137666
644.198669	802.172180	7560.302246	1074.045776	4.022912
644.532532	807.299072	7534.222168	1071.222290	3.923387
644.866333	798.828613	7528.054688	1063.271851	3.929772
645.200073	805.218567	7504.724121	1073.897217	4.010425
645.533813	799.794495	7525.676270	1078.504028	4.143836
645.867554	802.320801	7542.915527	1076.423462	4.066446
646.201172	790.580994	7589.205566	1072.634155	4.148680
646.534729	794.444641	7583.187012	1071.519531	4.081388
646.868225	792.512756	7584.673340	1070.405029	4.091368
647.201782	795.187683	7559.484375	1066.764160	4.014852
647.535217	793.701660	7599.979004	1069.216187	4.047947
647.868591	797.342468	7605.181152	1081.179077	4.169261
648.201965	792.661377	7577.837402	1084.596924	4.302549
648.535278	786.717102	7505.169434	1079.692871	4.360763
648.868591	783.596497	7469.578125	1070.033447	4.284142
649.201782	787.237305	7472.327637	1061.265747	4.099099
649.534912	794.519043	7488.451172	1071.668091	4.140303
649.868103	793.924561	7493.280762	1072.782715	4.162462
650.201172	795.559265	7508.438965	1080.807251	4.249264
650.534180	785.454102	7526.122559	1076.274902	4.314421
650.867188	792.735657	7520.697754	1077.909546	4.238637
651.200134	795.336243	7511.410645	1077.612305	4.202992
651.533020	804.846985	7469.058594	1070.256348	3.982607
651.865845	798.457031	7450.036621	1068.695923	4.062778
652.198608	790.655273	7407.312988	1064.386353	4.136999
652.531433	785.231140	7394.978516	1067.878784	4.276225
652.864136	787.460266	7371.498535	1061.711548	4.165396
653.196777	904.932800	7471.361816	1165.140991	3.962705
653.529358	908.796570	7424.402344	1165.289551	3.936594
653.861938	901.291992	7365.554199	1167.890137	4.124185
654.194519	791.844055	7171.400879	1058.665161	4.182440
654.526978	794.964783	7127.785156	1056.733276	4.133522
654.859375	799.348633	7084.541016	1056.064575	4.084456
655.191833	792.289978	7074.361816	1055.321533	4.187019
655.524170	779.955566	7067.005859	1049.080078	4.280616
655.856445	778.618164	7062.250488	1044.176147	4.226186
656.188660	794.296082	7100.813965	1053.984009	4.117770
656.520874	799.868835	7120.207031	1059.185181	4.102887
656.853088	801.131897	7178.460449	1071.519531	4.239826
657.185181	791.992676	7204.763672	1064.460815	4.248836
657.517212	792.958679	7318.224121	1067.061401	4.200637
657.849243	793.107239	7444.687500	1071.222290	4.181188
658.181274	785.379700	7656.970215	1083.110718	4.332782
658.513123	791.026794	7838.417480	1094.627563	4.307988
658.844971	791.621155	8028.706543	1097.302612	4.223820
659.176819	800.091614	8124.259766	1107.407715	4.195918
659.508667	792.810059	8199.007813	1105.030029	4.215658
659.840393	788.500488	8194.177734	1102.280884	4.237025
660.172058	785.899902	8121.658691	1098.862915	4.266266
660.503662	788.723389	7956.558105	1099.085938	4.329935
660.835266	797.342529	7782.318359	1101.463501	4.353930
661.166931	789.912292	7608.673340	1082.590698	4.292252
661.498413	788.574768	7452.117188	1067.804321	4.190407
661.829773	782.036133	7270.372559	1052.497925	4.168430
662.161194	795.410645	7121.618652	1047.222534	3.980455
662.492615	794.518982	6999.464844	1046.628174	4.063036
662.823975	800.463318	6897.224121	1039.866577	3.926729
663.155212	794.296143	6806.203613	1039.420776	4.077319
663.486450	799.720215	6719.195313	1037.265991	4.012953
663.817627	798.977112	6659.901855	1033.625244	4.003603
664.148743	805.218567	6609.895996	1025.600464	3.796626
664.479858	801.875000	6563.084473	1018.095886	3.753047
664.810913	800.908997	6514.713379	1019.953430	3.833601
665.141907	799.051453	6473.476074	1023.965820	3.963650
665.472778	801.949219	6433.277344	1026.120728	3.980793
665.803711	800.834717	6429.859863	1031.396118	4.095938
666.134583	792.735657	6402.888184	1031.247559	4.251433
666.465454	788.649109	6389.662598	1029.612793	4.302144
666.796143	789.094910	6362.839355	1022.702637	4.191217
667.126831	791.101074	6352.064941	1014.529358	4.017798
667.457458	794.890442	6353.477051	1014.009277	3.941988
667.788147	798.234131	6362.318848	1021.439514	4.011538
668.118774	798.457031	6371.904785	1024.337280	4.052792
668.449219	795.336365	6381.118652	1028.275269	4.170211
668.779663	795.113464	6407.718262	1020.770752	4.020545
669.110107	792.661438	6420.943848	1025.154663	4.130803
669.440552	789.837891	6430.306152	1021.142334	4.100802
669.770874	785.528320	6380.077637	1023.891602	4.260634
670.101135	790.878174	6343.966309	1020.473633	4.134555
670.431396	794.073181	6276.500000	1017.352844	4.072643
670.761597	798.754211	6232.140625	1003.160950	3.762051
671.091797	798.159851	6197.070313	999.891785	3.736530
671.421875	795.187744	6189.714355	990.380920	3.618356
671.751892	793.553040	6177.899902	1001.080566	3.854275
672.081909	794.370422	6151.447754	999.222900	3.823960
672.411865	794.593262	6106.271484	1005.167175	3.964357
672.741821	793.850281	6063.398926	996.102234	3.838127
673.071716	789.169189	6028.031250	996.993896	3.966982
673.401550	788.797668	5990.285156	996.993896	4.002629
673.731262	788.946289	5978.322754	997.291199	4.014835
674.060974	792.587097	5956.031738	996.399414	3.947216
674.390625	797.565430	5928.763184	997.737000	3.901069
674.720276	793.998840	5884.106934	993.427429	3.917964
675.049927	791.472595	5865.233887	990.678162	3.926191
675.379395	797.565430	5850.299316	990.603821	3.820474
675.708923	795.039063	5828.306152	996.845215	4.009447
676.038330	796.525208	5810.101563	1002.492249	4.108186
676.367737	784.785339	5787.810547	993.130127	4.164376
676.697083	787.014465	5770.720703	990.158020	4.076154
677.026428	793.998840	5745.160645	989.860840	3.955880
677.355652	800.388916	5768.937500	998.108459	3.979422
677.684875	802.766602	5820.726563	1003.978333	4.009831
678.013977	796.896667	5874.670410	1003.904053	4.076735
678.343079	794.964783	5916.279785	1008.882324	4.177004
678.672180	793.330078	5968.589355	1008.585144	4.159310
679.001221	785.305481	6041.628906	1014.009216	4.351021
679.330139	784.859619	6123.436035	1017.204285	4.352184
679.659058	781.144531	6185.998535	1018.244446	4.386796
679.987976	786.717224	6266.765625	1018.244446	4.224912
680.316772	786.419983	6309.415527	1018.244446	4.197441
680.645630	786.865784	6343.148926	1023.297058	4.255206
680.974304	785.082520	6305.700684	1019.656250	4.249048
681.302979	782.927734	6291.731934	1018.318848	4.272998
681.631653	784.042297	6257.181152	1006.578918	4.065978
681.960266	783.522217	6226.865234	1008.287903	4.129185
682.288757	788.426086	6167.125488	1004.201233	4.011661
682.617249	789.837891	6095.274902	1008.139343	4.114674
682.945679	792.141296	6021.863770	1003.086731	4.033587
683.274109	788.872009	5934.261230	1002.863831	4.158905
683.602478	796.376526	5856.912109	992.387207	3.873319
683.930725	798.902832	5756.975098	988.449219	3.822986
684.259033	803.732605	5678.808594	976.189209	3.537516
684.587280	800.463196	5593.137207	975.594788	3.654152
684.915344	801.726379	5556.134277	974.851746	3.641366
685.243469	798.234131	5516.234375	974.405945	3.734036
685.571533	804.847107	5499.367188	976.634949	3.659327
685.899536	808.487854	5466.822754	973.068359	3.533033
686.227539	808.710876	5467.046387	974.851746	3.566529
686.555420	796.971008	5477.373535	968.907471	3.673540
686.883301	785.305481	5502.859375	963.854980	3.784790
687.211121	779.955627	5532.134766	965.266663	3.899496
687.538940	777.355042	5547.143066	969.576233	4.029974
687.866638	783.670715	5556.951660	973.662903	3.980327
688.194336	792.735657	5539.639160	973.588623	3.809915
688.521973	793.255798	5505.683594	975.892029	3.875629
688.849609	790.803894	5454.488770	975.743408	3.965523
689.177063	785.974182	5389.250488	971.062195	4.020789
689.504578	795.410645	5335.604004	960.734131	3.641331
689.832031	790.729553	5273.486816	955.161438	3.668097
690.159485	795.336365	5195.988770	953.080994	3.584574
690.486816	792.958557	5106.751465	957.019043	3.803161
690.814087	800.388916	5045.525879	962.666016	3.822659
691.141296	795.410645	4987.867188	965.415222	4.055011
691.468506	791.324036	4936.523926	968.090149	4.264357
691.795715	789.540710	4863.781738	958.282166	4.141666
692.122803	791.546936	4826.333496	960.139709	4.178481
692.449829	788.946289	4813.627441	952.709473	4.068973
692.776855	791.769836	4786.061523	954.864258	4.083188
693.103821	793.181580	4754.854004	952.412292	4.019280
693.430664	794.147461	4714.582031	949.143066	3.953531
693.757568	790.506653	4708.117676	942.158508	3.871029
694.084351	783.373535	4700.539063	934.133789	3.848708
694.411133	782.407532	4680.402832	942.678650	4.111629
694.737854	785.305420	4661.529785	954.418457	4.362829
695.064575	792.141296	4652.762207	956.647644	4.261137
695.391174	797.936951	4672.378418	952.040771	3.977446
695.717773	798.085510	4707.597168	946.022217	3.784020
696.044250	795.262024	4742.371094	933.539368	3.503256
696.370789	790.358093	4789.553223	936.065613	3.643421
696.697205	782.407715	4847.435059	944.387512	3.984716
697.023621	780.327148	4959.409668	959.173767	4.279567
697.349915	789.614990	5108.312012	964.969421	4.060355
697.676208	795.559265	5272.075195	963.334717	3.747902
698.002380	796.450867	5437.027344	973.365662	3.812345
698.328674	794.296082	5586.004395	985.402649	3.988276
698.654724	792.289856	5733.271973	990.678223	4.015161
698.980896	793.330078	5845.246094	1003.606873	4.162318
699.306946	787.460205	5886.410156	1005.018555	4.266728
699.632935	790.580872	5854.236816	1012.226013	4.377176
699.958862	796.896667	5753.556641	992.907288	3.954490
700.284729	805.738708	5602.053223	983.768066	3.711795
700.610596	804.252625	5444.605957	974.480164	3.668417
700.936340	799.720215	5255.505859	971.062317	3.845385
701.262146	795.484924	5087.581543	960.734192	3.850083
701.587830	797.862610	4919.583496	952.189392	3.744232
701.913513	798.531433	4783.386230	945.130676	3.678910
702.239075	792.735657	4648.601074	943.050232	3.898335
702.564697	787.831726	4532.168457	935.322571	3.939038
702.890137	786.865723	4425.395996	936.362854	4.108723
703.215698	792.364197	4352.281738	922.616882	3.658868
703.541016	795.113342	4280.134277	920.016296	3.583994
703.866455	789.466370	4240.604980	909.762512	3.485694
704.191711	790.358093	4193.125488	912.363098	3.585464
704.517029	794.816223	4153.373535	912.586121	3.506562
704.842163	797.639709	4117.262207	910.654236	3.404439
705.167419	791.992676	4106.191406	911.100098	3.593853
705.492493	790.506653	4113.547363	912.660461	3.675965
705.817566	791.695496	4114.735840	924.623108	4.000181
706.142578	799.497253	4100.246582	930.270020	3.961911
706.467590	798.085510	4101.436035	934.579590	4.131989
706.792480	798.457031	4087.169922	927.372253	3.919929
707.117371	797.491150	4086.500977	921.353821	3.765956
707.442200	800.463196	4090.067383	916.672668	3.532628
707.766907	798.011230	4091.182373	916.301208	3.591978
708.091675	800.240234	4109.014648	919.421875	3.601988
708.416321	799.422852	4091.776611	917.490051	3.586103
708.741028	803.138000	4100.246582	920.313538	3.553888
709.065552	806.853210	4117.931152	914.443604	3.249407
709.390137	804.104004	4140.890625	914.666504	3.313442
709.714600	804.475586	4172.691895	918.604492	3.388408
710.039063	795.707825	4207.985840	928.561218	3.893393
710.363403	803.063782	4269.880371	939.260742	3.928588
710.687744	803.806885	4313.867676	936.585754	3.782808
711.012085	796.005066	4359.786621	928.486816	3.717449
711.336304	782.036133	4394.560059	917.341370	3.745449
711.660461	781.070129	4431.414551	911.025635	3.560089
711.984619	790.209412	4428.665527	916.375488	3.467572
712.308716	791.769836	4396.863770	928.412415	3.790264
712.632751	791.175354	4356.294434	933.019226	3.978657
712.956726	793.776062	4302.722168	933.167786	3.972467
713.280701	794.370422	4249.818359	920.313538	3.644769
713.604553	794.816223	4186.810059	923.211365	3.785241
713.928467	792.289856	4141.336426	920.982239	3.842657
714.252258	796.896667	4122.166504	924.028625	3.823207
714.575989	797.788330	4111.541504	922.542542	3.764741
714.899719	799.051453	4107.751465	931.087402	3.990569
715.223267	794.816223	4091.999268	933.762268	4.214083
715.546936	797.936829	4074.984375	928.412537	3.981502
715.870422	795.113464	4060.940674	921.799561	3.879143
716.193970	798.605652	4056.037109	919.867676	3.722627
716.517395	795.559265	4052.024658	925.217468	3.981563
716.840820	803.212402	4024.607178	923.285645	3.727368
717.164124	798.754211	3939.233154	921.576721	3.910948
717.487488	801.132019	3865.004639	920.239258	3.887474
717.810730	792.661438	3800.361328	917.861511	4.162652
718.133972	796.970947	3760.163330	910.505554	3.831496
718.457092	785.528320	3706.962891	911.991638	4.328809
718.780212	792.067078	3657.105469	909.465332	4.097616
719.103210	788.277588	3613.118408	913.329102	4.426852
719.426208	796.673828	3573.886719	903.149597	3.833907
719.749207	793.850281	3536.661133	911.174316	4.277511
720.072083	797.713928	3510.209229	909.093750	4.106175
720.394958	794.444641	3476.475830	909.242432	4.280255
720.717773	790.135193	3447.051758	897.131042	4.027069
721.040527	788.946289	3410.940674	895.273438	4.055201
721.363281	789.986511	3392.736328	890.072327	3.845387
721.685913	788.649109	3361.232422	895.496399	4.153307
722.008545	794.667542	3342.656494	893.118835	3.863882
722.331055	792.587158	3310.409180	894.604797	4.051821
722.653503	793.107239	3290.867432	890.072327	3.882082
722.976013	782.779236	3278.384766	895.199219	4.504718
723.298401	785.082520	3280.093750	900.920471	4.642783
723.620789	789.763611	3286.260986	905.973083	4.654901
723.943115	798.085449	3288.266846	908.202148	4.422035
724.265381	799.497253	3293.468018	897.056824	3.911817
724.587585	795.856445	3291.090576	888.586243	3.716276
724.909790	790.432312	3278.533203	880.115784	3.604495
725.231873	790.729553	3285.294922	888.586243	3.922795
725.553894	788.277527	3293.393799	896.016541	4.300759
725.875916	855.001465	3372.897705	959.842529	4.163836
726.197937	864.214905	3379.213623	966.381287	4.062284
726.519775	867.707214	3402.247314	962.220276	3.729002
726.841675	798.308411	3380.625244	900.549011	3.959259
727.163513	792.438538	3407.820313	896.982483	3.997273
727.485291	788.426208	3432.042725	898.691406	4.170998
727.806946	806.778992	3453.144531	898.617188	3.470352
728.128662	802.915222	3471.869141	894.010315	3.413139
728.450256	810.716980	3496.537354	891.855652	3.021002
728.771790	799.348694	3497.280518	889.403564	3.337922
729.093323	796.450867	3501.590088	889.997986	3.458126
729.414795	799.274414	3471.274658	891.781250	3.462082
729.736145	799.497314	3454.482178	894.604797	3.582223
730.057495	807.150452	3445.343018	896.165100	3.374077
730.378845	803.881165	3450.766846	884.722473	3.054205
730.700134	803.361023	3477.887451	883.533691	2.997640
731.021301	795.559265	3503.150391	884.128113	3.271131
731.342468	789.689270	3531.162354	894.976318	3.840528
731.663574	783.076355	3530.791016	900.028870	4.256356
731.984680	780.995850	3524.029297	892.450012	4.063172
732.305664	786.122803	3527.893311	889.849365	3.783196
732.626648	790.580994	3534.208984	882.939270	3.366283
732.947571	793.404480	3526.778564	890.369446	3.547446
733.268433	791.026794	3502.333008	896.759460	3.899695
733.589233	792.067078	3470.160156	895.124817	3.848176
733.909973	800.017395	3437.466797	892.970032	3.524338
734.230713	798.308411	3396.748779	884.499512	3.317032
734.551331	795.856445	3345.331299	882.121887	3.383655
734.871948	788.723328	3293.913818	877.515137	3.544314
735.192505	788.426208	3250.223877	879.669922	3.706386
735.513062	791.175354	3214.856201	883.756531	3.819858
735.833435	788.203308	3173.246338	885.019714	4.059315
736.153931	787.534607	3136.986572	879.669861	3.921564
736.474304	785.676941	3117.742188	870.233459	3.625821
736.794617	789.689270	3113.729736	867.409912	3.344203
737.114807	802.395203	3096.937500	872.908386	3.073083
737.434998	803.658264	3089.358643	880.412903	3.358036
737.755188	803.435364	3081.408203	877.069336	3.232434
738.075256	793.032898	3106.819580	879.372742	3.731539
738.395325	788.277527	3129.259033	877.440857	3.808801
738.715271	786.865784	3177.630127	883.013611	4.021636
739.035278	787.683105	3207.499756	882.121887	3.902725
739.355164	783.076355	3222.137451	884.276672	4.149151
739.675049	788.723389	3210.843506	887.620300	4.083072
739.994873	785.677002	3188.255127	884.573914	4.116283
740.314636	795.559265	3148.726318	887.471680	3.905903
740.634277	795.707825	3101.916016	883.310730	3.798569
740.953979	793.404480	3060.306396	880.933044	3.861154
741.273499	789.466370	3031.848389	876.474915	3.880184
741.593140	787.385925	3008.888672	873.799988	3.889892
741.912598	794.296082	2978.944580	868.375916	3.390927
742.232117	799.423035	2946.920166	864.437805	3.027467
742.551453	791.844055	2907.019531	864.140625	3.417994
742.870850	788.128906	2880.344971	868.747375	3.853257
743.190063	787.237305	2844.233643	871.942383	4.117901
743.509338	790.135193	2817.930664	874.542969	4.162539
743.828552	792.661438	2795.565430	876.920715	4.206855
744.147705	785.454102	2782.413818	876.846436	4.576574
744.466797	789.837952	2779.442139	873.874268	4.223771
744.785828	782.110413	2764.953125	869.490479	4.406807
745.104858	783.968018	2764.655518	865.552429	4.118995
745.423706	781.367432	2758.191162	864.660828	4.213496
745.742615	788.649109	2742.141602	864.586426	3.887259
746.061401	795.856384	2739.615234	869.416199	3.784411
746.380249	798.234070	2712.346436	866.741211	3.579056
746.698975	801.057617	2692.210693	864.289246	3.343549
747.017639	808.562195	2669.473877	858.493652	2.683172
747.336304	814.357849	2672.594482	857.304749	2.311164
747.654907	806.630371	2686.117920	854.258362	2.534095
747.973389	805.292908	2678.018555	855.001465	2.654343
748.291931	798.457031	2679.579102	855.447266	3.029587
748.610352	803.955505	2691.318848	861.540039	3.051057
748.928711	798.159851	2720.668213	867.187012	3.590474
749.247070	804.326965	2734.191406	871.570984	3.484391
749.565308	797.862610	2733.968506	876.400574	4.056491
749.883545	794.593323	2708.408447	868.450195	3.859143
750.201782	785.825623	2689.312744	874.617249	4.664682
750.519836	790.432434	2676.012451	865.998230	4.007562
750.837952	785.082581	2672.743164	870.604980	4.530602
751.155884	784.710999	2655.281982	859.905457	4.019866
751.473877	784.190918	2642.576416	862.951843	4.238137
751.791809	793.330139	2628.607422	858.568054	3.554662
752.109619	799.943115	2635.963135	867.038513	3.654394
752.427490	801.800598	2623.777832	870.530762	3.772284
752.745300	801.577698	2626.081299	867.409973	3.608229
753.062988	795.707825	2627.195557	860.128235	3.517381
753.380615	792.884277	2637.523682	857.379089	3.496337
753.698303	789.466492	2643.468018	864.735107	4.059793
754.015808	792.661438	2641.684570	865.552429	3.942135
754.333374	786.568604	2629.498779	862.208740	4.104341
754.650757	780.029968	2617.981934	862.951843	4.511645
754.968262	776.091980	2597.771729	868.747375	5.086262
755.285583	784.190918	2595.988525	864.883728	4.453743
755.602905	790.060852	2602.824219	863.620605	4.057879
755.920105	792.289978	2600.446777	863.174744	3.920278
756.237305	795.707825	2598.143311	862.357361	3.697749
756.554443	794.964783	2592.050537	858.642273	3.543375
756.871582	797.045227	2596.954346	855.298645	3.236464
757.188599	794.741882	2610.031494	857.304749	3.446440
757.505615	793.478821	2622.365967	862.431641	3.770206
757.822510	799.794617	2649.635010	864.735046	3.510597
758.139465	800.537537	2672.148682	878.035339	4.140700
758.456238	806.481750	2697.337158	871.125183	3.418740
758.773010	797.639709	2733.745850	866.295410	3.546071
759.089783	788.946289	2754.996338	852.920959	3.253970
759.406433	786.271301	2767.330811	854.555664	3.446861
759.723145	782.556335	2763.318359	854.629883	3.638678
760.039673	789.763672	2777.881592	856.933289	3.378553
760.356201	788.351868	2782.562500	853.515381	3.267634
760.672668	793.627258	2778.996094	861.242859	3.405694
760.989136	792.289856	2763.763672	861.094299	3.490000
761.305481	789.020691	2751.429688	867.409973	3.994544
761.621826	778.543945	2747.565674	862.803223	4.279246
761.938049	784.339539	2755.590576	869.490417	4.319637
762.254333	793.404480	2791.776123	873.205566	3.993306
762.570496	802.320801	2872.171875	870.753601	3.306170
762.886597	790.952454	3007.031250	871.496582	3.634533
763.202637	778.989746	3200.218506	878.629639	4.115262
763.518677	777.206482	3441.627686	893.787415	4.375469
763.834656	792.364258	3655.471436	905.304382	3.944670
764.150574	795.633545	3799.172607	909.762512	3.799816
764.466370	797.416809	3829.116455	907.830566	3.641975
764.782288	788.946350	3750.132813	903.372498	3.864199
765.097961	788.723450	3597.440674	900.400391	3.976083
765.413696	786.419983	3408.191406	890.963867	3.987529
765.729309	781.367371	3245.914063	883.310791	4.136396
766.044861	781.144531	3115.884521	871.719543	3.879447
766.360474	784.116638	3015.501709	872.834167	3.975895
766.675903	787.757507	2928.716064	863.397644	3.533003
766.991394	787.460266	2860.431641	862.580261	3.623783
767.306763	792.141357	2792.742188	862.877441	3.535742
767.622131	796.079346	2735.826172	870.902161	3.857350
767.937378	799.720215	2667.096191	861.614441	3.314503
768.252625	798.828613	2620.211182	857.825012	3.239100
768.567810	796.302246	2575.406494	851.955017	3.128134
768.882996	794.741882	2558.985596	858.493652	3.613547
769.197998	784.711121	2536.695068	850.023132	3.727889
769.513062	782.630615	2524.212158	851.063293	3.929341
769.828064	781.961853	2490.255615	848.537048	3.897175
770.142944	786.865784	2451.023682	857.601990	4.250570
770.457825	787.385925	2414.392578	858.716553	4.384163
770.772705	784.116638	2375.755127	856.190247	4.528265
771.087402	785.008240	2353.093018	851.509216	4.240905
771.402100	787.906067	2336.300537	846.456604	3.781371
771.716736	791.992676	2325.526611	852.400879	3.939150
772.031372	791.472656	2300.858154	845.193542	3.559123
772.345947	787.088684	2281.762451	839.546448	3.509646
772.660461	785.305481	2265.935791	832.933411	3.216733
772.974854	789.912292	2265.489990	839.100586	3.333494
773.289246	796.896667	2250.926758	841.181091	3.045633
773.603638	796.599426	2244.165283	849.354431	3.644394
773.917908	793.924622	2239.484131	841.701233	3.305060
774.232178	785.676941	2233.242432	841.552551	3.859971
774.546265	787.831726	2213.775391	839.397888	3.616283
774.860474	785.825500	2189.478516	847.273926	4.377750
775.174561	785.751282	2183.162842	843.633118	4.142075
775.488586	792.810059	2181.602295	848.685730	4.023328
775.802551	801.057617	2180.264648	847.273926	3.350933
776.116516	804.252686	2171.571289	851.211914	3.434403
776.430359	801.280579	2170.085205	841.329773	2.925852
776.744202	801.057617	2159.608643	844.376160	3.188584
777.057922	808.042053	2154.258789	844.450439	2.704497
777.371704	807.744873	2139.843994	847.348206	2.973002
777.685303	796.450867	2128.549805	844.599060	3.614461
777.998962	789.614990	2112.574951	847.125305	4.347094
778.312500	786.494324	2100.686523	842.072754	4.229095
778.626038	787.460266	2100.315186	835.682678	3.673095
778.939453	790.358093	2090.952881	834.568176	3.399220
779.252869	792.289856	2091.101318	840.661072	3.724267
779.566223	791.546875	2087.386230	844.078918	4.053901
779.879578	786.865906	2092.587646	848.834290	4.745911
780.192749	790.060852	2094.519287	845.639343	4.260656
780.505920	784.190918	2091.250244	844.376160	4.604630
780.819031	790.952454	2079.807373	836.574280	3.539718
781.132141	788.946289	2063.460693	836.871582	3.760279
781.445190	797.119629	2050.606445	828.549622	2.507405
781.758118	796.227966	2046.668457	829.589844	2.668010
782.071045	794.518982	2042.656128	816.066833	1.726401
782.383911	793.627380	2027.201050	829.664246	2.921339
782.696838	803.286804	2008.253906	835.979980	2.713201
783.009583	806.630371	1993.096191	846.605225	3.369238
783.322266	807.893555	1989.529663	845.862244	3.213230
783.634888	797.491028	1983.956909	836.797302	3.312887
783.947510	792.810059	1977.121094	839.174988	3.914928
784.260132	789.986511	1971.325562	835.979980	3.893333
784.572571	781.961853	1955.127441	836.871582	4.680476
784.885010	776.983582	1953.641235	830.778748	4.571862
785.197449	779.584167	1947.697266	829.218445	4.249099
785.509766	786.568665	1956.762085	831.075928	3.803411
785.822083	788.723389	1955.796265	835.459778	4.004582
786.134277	794.816223	1951.783813	837.540283	3.692762
786.446533	794.593262	1953.269897	832.116211	3.238431
786.758606	796.673767	1945.616821	832.413391	3.110652
787.070740	790.506653	1951.041016	841.329590	4.379270
787.382690	790.209412	1956.464844	841.924133	4.434254
787.694641	800.463196	1991.684448	843.410156	3.605289
788.006653	804.029724	2020.365234	835.459778	2.583996
788.318481	808.339294	2067.027344	836.202881	2.213701
788.630310	801.652100	2112.277588	832.116211	2.324395
788.942017	796.153625	2152.624023	835.459778	2.897678
789.253784	788.649109	2163.323486	842.741455	3.934921
789.565430	787.534485	2132.562500	845.416321	4.303392
789.877014	782.556213	2095.262451	840.809570	4.437654
790.188538	782.481934	2056.847900	833.825195	4.028926
790.500061	784.413818	2014.569702	838.877686	4.427395
790.811462	787.311707	1979.498901	840.215149	4.437511
791.122925	788.426208	1954.978882	844.078918	4.770698
791.434204	784.116699	1930.830566	839.026367	4.788437
791.745483	791.546875	1913.889648	841.255371	4.428994
792.056702	786.642883	1888.923828	843.038635	5.116277
792.367920	785.676941	1871.091187	840.066589	5.010957
792.678955	780.178528	1863.809448	837.317383	5.272908
792.990112	781.739014	1851.623657	832.413391	4.736434
793.301086	781.738953	1863.437866	836.054199	5.021290
793.612122	787.088806	1863.363770	826.692078	3.679661
793.922974	793.107239	1863.215210	824.908875	2.971816
794.233826	789.169189	1847.462891	822.679688	3.166465
794.544556	791.472595	1839.661133	821.193604	2.835464
794.855286	792.364258	1843.376343	829.515564	3.534812
795.166016	796.228027	1856.082031	835.608398	3.715641
795.476624	793.330139	1877.332520	846.976746	4.948938
795.787292	786.642883	1889.963867	846.159363	5.394303
796.097778	789.169189	1911.883179	836.945801	4.255457
796.408264	779.732849	1919.536499	839.769287	5.267261
796.718689	780.624451	1928.973022	834.419495	4.684557
797.029053	782.556335	1939.969727	841.478271	5.090829
797.339355	791.101074	1948.365845	836.500000	3.922951
797.649658	793.404480	1946.359741	835.311218	3.634723
797.959839	789.466370	1921.022461	837.317383	4.228779
798.270020	792.958679	1884.837280	839.174866	4.232722
798.580078	796.822266	1872.502930	848.537109	4.807639
798.890137	796.450867	1861.357544	839.620789	4.053869
799.200195	792.809998	1857.419434	834.716797	3.936355
799.510071	790.580994	1839.066772	828.475342	3.614197
799.820007	793.181458	1828.664429	836.648621	4.197767
800.129883	792.958679	1823.760254	839.769348	4.541191
800.439575	794.147461	1809.494141	837.317383	4.251742
800.749329	788.797668	1795.822266	828.326721	3.925331
801.058960	788.054688	1784.899902	822.605469	3.466013
801.368591	784.636719	1782.670898	821.862366	3.729897
801.678162	786.940186	1775.834961	831.224426	4.478155
801.987671	781.590332	1767.215942	831.373047	5.050875
802.297119	784.933899	1753.024048	826.171875	4.259725
802.606506	783.447937	1751.909546	819.633301	3.736376
802.915894	788.574768	1742.175781	822.828369	3.592026
803.225159	787.237305	1739.946777	826.543457	4.125723
803.534424	787.385925	1731.550659	824.314392	3.911231
803.843628	788.203308	1726.646606	828.549622	4.299281
804.152771	782.481934	1729.767212	835.682678	5.616127
804.461792	787.534607	1734.894165	844.673340	6.031367
804.770874	784.190918	1738.460938	841.552551	6.011048
805.079773	783.745117	1739.500977	836.797180	5.550797
805.388733	779.658508	1739.203735	831.001648	5.350779
805.697571	782.927795	1751.760864	831.744690	5.038731
806.006470	785.528320	1767.215820	835.534119	5.093861
806.315125	792.661438	1784.379883	834.196594	4.188200
806.623901	799.051453	1795.376587	836.277100	3.736295
806.932495	802.543640	1791.587036	836.500000	3.433253
807.241150	801.875000	1783.859741	836.797180	3.556285
807.549622	799.274414	1756.442017	836.871521	3.927954
807.858154	797.714050	1741.655884	829.961426	3.416246
808.166565	798.085510	1723.823120	832.487610	3.716182
808.474915	799.051453	1715.426880	828.178040	3.178456
808.783264	806.555969	1700.269165	832.413330	2.893250
809.091492	808.487976	1694.473511	826.543457	2.037898
809.399719	804.698486	1686.523071	827.212219	2.553085
809.707825	798.902893	1674.560181	818.815979	2.274073
810.015930	795.039124	1665.198242	817.404297	2.570240
810.323975	790.283752	1664.678223	819.113281	3.297085
810.632080	791.546875	1660.591431	820.599304	3.343031
810.939880	790.432373	1645.210938	820.970764	3.572667
811.247864	795.410645	1627.378296	813.689148	2.197021
811.555664	789.763611	1617.718872	814.952209	3.042266
811.863464	784.933899	1603.824219	816.215332	3.819978
812.171143	784.933899	1603.452759	819.336121	4.202985
812.478882	783.447815	1601.595093	820.302063	4.504598
812.786438	793.627380	1609.173828	824.388672	3.771863
813.094055	794.964844	1603.601196	823.794250	3.565188
813.401489	798.605652	1604.938843	826.246277	3.427941
813.708984	787.608826	1605.310181	822.976990	4.325315
814.016357	788.128906	1612.814819	827.435120	4.766204
814.323730	788.203308	1611.997559	829.515625	5.014883
814.630981	794.816223	1598.548828	823.422791	3.559215
814.938232	791.769775	1584.951294	819.781921	3.531619
815.245361	790.580872	1578.932739	810.642578	2.544765
815.552490	785.231140	1583.019531	823.719910	4.824433
815.859619	780.550110	1577.521118	828.178040	5.976118
816.166565	781.887512	1574.028809	830.927307	6.190789
816.473572	787.088684	1579.452759	822.159607	4.426112
816.780457	790.803894	1599.886230	814.134949	2.883644
817.087341	795.856445	1619.873657	822.976990	3.291260
817.394043	795.782227	1623.811646	818.147278	2.700997
817.700806	802.320801	1627.081055	821.193665	2.288285
818.007507	796.227966	1629.310059	818.370117	2.657859
818.314209	799.051453	1630.721802	823.199890	2.903607
818.620667	793.775940	1641.718628	823.645691	3.522614
818.927246	794.221863	1649.891968	826.989258	3.829443
819.233704	791.546875	1694.102051	828.995422	4.149170
819.540161	790.878113	1739.649536	834.939697	4.644067
819.846497	795.039063	1807.487793	836.054199	4.051083
820.152832	792.215637	1871.091187	842.221375	4.634987
820.458984	793.998840	1944.427856	837.763184	3.804176
820.765259	789.912292	2024.897827	832.264832	3.429395
821.071350	788.426086	2132.042480	834.345276	3.417582
821.377502	790.729492	2300.858398	841.181152	3.340884
821.683472	793.775940	2633.288574	852.846680	3.211217
821.989441	802.246521	3293.245117	874.543030	2.902310
822.295349	795.262024	4356.368652	913.403320	3.317544
822.601196	799.125793	5705.557129	968.535950	3.452818
822.907043	800.463196	6923.675781	1021.439453	3.608829
823.212769	802.766602	7596.189941	1049.526001	3.632328
823.518494	802.023621	7559.781738	1043.656006	3.575629
823.824097	794.890564	6943.960938	1008.807922	3.478857
824.129700	785.454102	6059.312012	973.514343	3.565895
824.435242	785.379700	5143.308594	944.981995	3.662343
824.740723	779.584167	4363.575684	918.827393	3.885144
825.046082	785.528381	3767.742188	899.731628	3.829479
825.351501	778.543945	3321.108643	883.385071	4.123440
825.656799	778.321045	3010.523438	872.313904	4.210768
825.962036	783.893738	2802.252686	866.815613	4.108381
826.267212	788.426208	2706.402344	866.072571	4.048349
826.572449	796.971008	2706.402344	869.639099	3.805745
826.877502	794.444641	2827.218506	871.050781	3.768552
827.182495	793.627380	3088.615967	877.440735	3.652016
827.487488	791.101074	3431.448242	891.781250	3.813142
827.792419	791.844055	3705.253906	904.412781	3.863813
828.097290	793.553040	3789.067139	904.635559	3.708296
828.402100	796.227966	3637.489502	893.416016	3.420595
828.706848	793.181580	3357.071289	878.258240	3.318265
829.011597	789.094910	3002.127197	866.221191	3.485095
829.316223	786.419983	2663.306885	855.224304	3.665874
829.620789	790.952454	2374.195068	851.806396	3.843627
829.925354	794.816223	2148.834717	845.044922	3.709602
830.229797	799.274414	1996.514038	840.586731	3.450631
830.534302	802.469421	1879.115723	830.184326	2.574189
830.838562	801.057617	1788.020508	832.116211	3.146886
831.142944	798.085510	1727.612671	830.110046	3.445250
831.447144	796.079346	1672.628540	830.407227	3.916253
831.751404	790.729492	1641.421509	819.187500	3.345277
832.055542	796.227966	1619.353516	825.131653	3.511455
832.359619	792.884277	1628.938599	826.097656	3.972634
832.663635	800.611816	1662.894897	832.413330	3.688060
832.967651	795.039063	1715.129761	837.837463	4.651542
833.271545	797.193848	1812.020508	834.791077	3.704793
833.575439	787.237305	1964.043945	836.425781	4.179827
833.879211	780.327209	2185.837646	841.924133	4.382530
834.183044	781.738953	2425.760986	862.580322	4.917293
834.486694	787.906067	2614.118164	874.617371	4.748151
834.790344	800.091614	2663.826904	869.787659	3.739589
835.093933	792.512878	2587.146484	859.162354	3.713821
835.397522	786.791504	2435.271729	851.137695	3.903364
835.700928	780.029968	2253.378662	842.964355	4.271521
836.004395	790.283691	2077.949951	837.614563	3.675709
836.307739	799.348633	1917.753296	828.103821	2.571090
836.611023	805.887268	1808.528320	827.806641	2.186163
836.914307	801.577698	1719.290649	823.274170	2.364189
837.217529	802.097900	1645.953735	820.599304	2.192484
837.520691	794.073242	1578.115601	813.094727	2.426079
837.823730	794.593262	1512.952026	804.698425	1.406702
838.126831	788.723450	1466.958618	803.212402	2.136273
838.429749	796.748047	1427.578125	796.896667	0.023560
838.732727	797.491028	1409.374023	808.710754	1.833639
839.035522	797.119568	1387.380493	803.212402	1.032227
839.338379	785.602722	1376.680786	805.664368	3.394077
839.641113	787.608887	1384.928345	796.970947	1.567346
839.943848	791.918396	1422.525757	808.339294	2.603981
840.246460	795.113464	1475.503296	808.933777	2.031235
840.549072	791.175354	1534.276855	814.877930	3.189682
840.851563	792.884338	1570.685059	813.689148	2.674825
841.154053	795.187683	1575.143433	814.803650	2.515010
841.456482	795.262024	1537.620483	808.042053	1.721544
841.758850	793.107239	1490.141113	802.320801	1.321824
842.061157	799.497314	1437.014648	803.435303	0.617707
842.363403	804.698486	1393.473267	808.413635	0.630997
842.665588	805.590088	1344.284790	805.812988	0.041378
842.967712	798.159851	1313.151978	802.617981	0.865670
843.269775	791.101074	1285.882935	801.577820	2.117447
843.571777	787.831787	1262.031616	809.082336	4.481349
843.873840	788.054688	1242.192871	811.980164	5.268325
844.175659	785.602722	1235.208374	811.385742	5.734585
844.477600	785.379700	1228.818359	811.311340	5.847853
844.779297	782.036133	1230.675903	811.534363	6.575037
845.081116	781.367432	1222.725586	805.887390	5.555569
845.382751	778.915466	1223.988647	805.812988	6.043393
845.684387	781.218933	1195.084961	807.447693	6.337500
845.985962	788.500488	1177.549561	811.980164	6.035145
846.287537	797.416809	1158.602417	816.289734	5.225270
846.588989	802.840820	1154.441406	812.946106	2.874081
846.890381	806.110168	1150.057495	815.100830	2.613965
847.191711	799.645813	1149.091553	805.441467	1.658528
847.493042	799.645813	1149.760254	809.973938	2.949928
847.794250	806.333069	1137.871826	810.271179	1.187828
848.095459	814.729309	1139.803711	815.175110	0.137138
848.396606	807.001892	1144.633545	812.202942	1.540451
848.697693	796.227966	1153.698364	811.682861	4.323406
848.998657	789.169250	1141.364136	811.162781	6.244705
849.299622	787.831787	1136.460205	813.540527	7.374253
849.600464	789.169189	1124.348877	811.088440	6.539552
849.901367	789.912292	1122.416992	813.317566	7.039081
850.202087	793.701660	1111.940186	811.162842	5.486822
850.502808	792.884277	1115.358032	806.927551	4.354858
850.803467	789.540710	1108.670776	806.258789	5.238641
851.104065	789.466492	1106.813354	808.413635	5.970484
851.404663	785.751282	1098.862915	816.215332	9.729453
851.705139	787.683289	1101.909302	818.072937	9.671270
852.005615	790.729675	1105.698730	816.884094	8.303806
852.306030	795.707825	1099.903198	809.453796	4.518797
852.606384	800.388916	1101.240723	802.246521	0.617449
852.906616	798.308411	1089.946777	800.611816	0.789816
853.206909	793.255859	1098.937378	798.234192	1.628601
853.506958	784.859619	1091.878540	794.964844	3.291401
853.807129	779.955566	1099.383179	795.336243	4.815074
854.107178	782.481934	1089.277832	799.497253	5.546137
854.407166	783.150635	1099.308716	807.224792	7.614595
854.707092	779.286926	1091.729858	802.989441	7.586190
855.007019	779.286926	1093.513062	809.750977	9.694944
855.306763	778.543945	1080.435913	804.475586	8.589708
855.606567	786.122742	1074.863159	800.983337	5.146698
855.906250	787.014404	1067.135620	792.066956	1.803702
856.205933	796.673767	1065.575317	792.289856	-1.630303
856.505493	797.193848	1072.857056	798.234070	0.377353
856.805054	796.227966	1077.389526	798.085510	0.660668
857.104492	786.865784	1081.773315	803.881165	5.769734
857.403931	783.522156	1074.714600	802.915222	6.659880
857.703308	781.664551	1083.333618	804.921387	7.709387
858.002563	789.837891	1081.773315	799.571594	3.334198
858.301819	802.543762	1087.197388	810.048340	2.636389
858.601013	805.738770	1074.343018	810.568420	1.798055
858.900208	797.045349	1077.017944	810.271179	4.723973
859.199219	788.426208	1073.005615	800.760437	4.334196
859.498291	789.243469	1072.114014	794.370361	1.812452
859.797302	791.992676	1060.374146	793.701660	0.636774
860.096191	792.512878	1061.117188	798.085510	2.074662
860.395020	786.791504	1053.018188	802.543701	5.916836
860.693787	791.175293	1053.612671	807.299072	6.143858
860.992554	794.073242	1046.479492	802.320801	3.267573
861.291260	798.011230	1047.222534	804.475586	2.593925
861.589844	798.457092	1047.891235	797.862610	-0.238332
861.888428	800.760437	1058.442261	799.051514	-0.663191
862.186890	800.240295	1067.878662	796.079346	-1.554691
862.485413	797.565430	1076.720703	801.800598	1.517137
862.783813	797.193909	1076.126221	798.159851	0.346300
863.082153	791.472595	1075.234619	800.537537	3.194558
863.380371	791.546875	1069.290405	798.679993	2.568239
863.678589	789.243469	1066.838501	800.611816	4.095299
863.976746	795.559265	1063.717773	803.732605	3.047951
864.274902	792.661438	1059.333862	809.453857	6.297021
864.572937	784.636719	1051.160645	808.487976	8.949012
864.870911	789.615051	1049.971802	811.757263	8.504566
865.168884	793.998840	1055.395874	809.676758	5.997741
865.466736	797.268250	1063.569214	816.512634	7.226555
865.764587	787.534485	1065.352417	810.716980	8.344492
866.062317	789.614990	1064.460815	812.277344	8.245479
866.360107	794.890442	1056.138794	808.785156	5.318584
866.657715	797.565430	1051.160522	808.042053	4.131241
866.955322	794.296082	1048.337036	800.388916	2.398367
867.252808	795.782166	1049.005859	793.850281	-0.762916
867.550293	798.457031	1053.315308	796.153625	-0.903799
867.847717	799.571594	1045.587891	792.884338	-2.718217
868.145081	803.138184	1040.609619	789.094910	-5.913669
868.442383	802.766602	1031.098877	794.370361	-3.677202
868.739624	802.023621	1036.077026	793.330139	-3.714315
869.036804	791.992676	1038.380493	801.206238	3.739455
869.333984	792.438477	1038.529053	791.844055	-0.241546
869.631042	791.992737	1038.900635	794.147522	0.872708
869.928101	792.438477	1031.470337	791.546875	-0.373005
870.224976	791.249695	1044.696289	797.193848	2.345328
870.521851	788.128967	1047.445435	811.014160	8.825198
870.818726	787.460266	1059.333862	816.512512	10.685939
871.115479	786.271423	1048.337036	811.980164	9.810040
871.412231	788.054688	1047.148193	805.218567	6.624589
871.708862	793.553040	1051.532104	809.899658	6.336413
872.005493	792.141357	1060.151245	815.323730	8.649820
872.302063	786.419922	1063.866333	811.682922	9.105542
872.598572	782.258972	1058.219360	813.168945	11.200873
872.895020	781.738953	1055.841675	813.540466	11.602042
873.191406	785.974121	1057.327759	817.924377	11.774398
873.487671	782.853516	1059.556763	810.419861	9.962422
873.783997	781.218811	1063.643433	806.110291	8.813495
874.080200	773.714294	1061.340088	801.800720	9.764919
874.376343	778.543884	1062.751831	798.679993	7.084991
874.672424	787.311584	1062.751831	798.754211	4.154305
874.968445	804.029785	1065.129517	800.908997	-1.195248
875.264465	813.540527	1064.757935	795.633484	-7.128106
875.560364	814.134949	1063.346191	787.683105	-10.614225
875.856201	809.602478	1063.494751	785.379700	-9.540573
876.152039	800.686096	1066.912720	788.277527	-4.660905
876.447754	799.200012	1063.940552	801.949219	1.038453
876.743469	799.571594	1062.306030	809.825378	3.902718
877.039063	797.491150	1060.597046	810.642761	4.998600
877.334595	797.491028	1067.655762	803.955383	2.392746
877.630127	791.398254	1062.083130	805.961609	5.380188
877.925537	789.094910	1065.500977	812.797424	8.575252
878.221008	783.967957	1061.265747	816.809753	11.843512
878.516296	787.980286	1066.541260	811.682861	8.508936
878.811646	791.472595	1072.336792	812.277344	7.407405
879.106812	793.255798	1090.169556	819.633301	8.883894
879.401978	791.621155	1112.534668	815.769531	7.524886
879.697083	791.398254	1142.701538	811.311340	5.668346
879.992126	786.940125	1172.051147	800.760437	3.588657
880.287109	789.392090	1216.112671	801.577820	2.855669
880.582031	782.184753	1270.873657	800.983398	3.846751
880.876892	786.419922	1395.107910	806.110168	3.234867
881.171753	789.392090	1642.461548	817.106995	3.248845
881.466492	798.531433	2044.810913	827.509338	2.325153
881.761230	795.559265	2590.935791	850.394592	3.054252
882.055786	796.673828	3132.008545	862.060120	2.799868
882.350403	793.107239	3500.846924	881.676086	3.270951
882.644958	792.364258	3557.019775	878.703918	3.122981
882.939453	782.407654	3359.225830	876.400635	3.647637
883.233826	780.252869	3020.777100	857.453430	3.445647
883.528137	781.813232	2670.737061	842.221375	3.198019
883.822449	783.596497	2354.875977	832.487610	3.111548
884.116577	784.488098	2090.061279	833.899414	3.784645
884.410828	785.602722	1873.691528	833.082092	4.363556
884.704956	793.998840	1695.290894	826.840637	3.643857
884.999023	798.085449	1556.864868	819.559021	2.830015
885.292969	800.760437	1444.370605	815.175110	2.239659
885.586914	798.679871	1360.482788	806.258850	1.349046
885.880798	795.782043	1305.201538	801.726379	1.166884
886.174622	802.692322	1276.000610	797.639709	-1.067510
886.468384	796.822449	1241.970093	798.234131	0.317127
886.762085	799.497253	1228.595581	802.469421	0.692654
887.055664	796.227966	1209.722534	799.423035	0.772699
887.349304	800.314636	1191.741333	802.172180	0.474557
887.642822	800.611816	1154.961426	795.559265	-1.425866
887.936340	797.491150	1130.441528	797.862610	0.111566
888.229736	793.701660	1119.964966	798.977234	1.616968
888.523071	791.323975	1111.865845	804.029785	3.963854
888.816284	789.169189	1096.410889	809.082336	6.481265
889.109619	792.810059	1080.955933	806.778992	4.847868
889.402710	789.392090	1068.696045	798.382751	3.218952
889.695862	792.438538	1052.349487	791.546875	-0.343065
889.988892	783.299316	1036.745972	789.689270	2.521222
890.281921	771.708069	1020.919434	791.769836	8.050101
>>>>>End Processed Spectral Data<<<<<
