Jaz Data File
++++++++++++++++++++++++++++++++++++
Date: Fri Jun 04 14:39:10 2021
User: jaz
Dark Spectrum Present: Yes
Reference Spectrum Present: Yes
Processed Spectrum Present: Yes
Spectrometers: JAZA3586
Integration Time (usec): 48700 (JAZA3586)
Spectra Averaged: 10 (JAZA3586)
Boxcar Smoothing: 1 (JAZA3586)
Correct for Electrical Dark: No (JAZA3586)
Strobe/Lamp Enabled: Yes (JAZA3586)
Correct for Detector Non-linearity: No (JAZA3586)
Correct for Stray Light: No (JAZA3586)
Number of Pixels in Processed Spectrum: 2048
>>>>>Begin Processed Spectral Data<<<<<
W	D	R	S	P
191.335022	0.000000	0.000000	0.000000	0.000000
191.713211	285.396759	276.108887	278.858124	70.399712
192.091385	568.861633	553.852478	557.196106	77.722748
192.469528	852.549500	835.682617	836.945862	92.510506
192.847641	856.413147	848.388489	840.958191	192.593323
193.225739	861.539978	859.905334	851.806396	595.455933
193.603790	859.831055	868.004395	861.985840	26.363583
193.981842	860.648376	872.091003	870.976501	90.260086
194.359863	872.536865	876.772156	877.366516	114.033524
194.737854	888.140442	882.121887	886.282898	30.863621
195.115829	894.010254	882.196228	885.985596	67.924843
195.493774	891.632629	883.236511	883.607910	95.576538
195.871704	889.626465	885.911316	877.737976	320.000336
196.249603	890.666687	886.431458	882.270508	198.246140
196.627457	879.967102	886.802979	881.007385	15.217993
197.005310	885.539856	885.094055	872.982727	2816.758057
197.383133	886.505676	886.357178	867.261414	12959.227539
197.760910	889.032043	888.437683	872.165344	2837.790039
198.138687	880.858704	887.248779	879.075500	-27.905821
198.516449	869.638977	883.013611	876.252014	49.444622
198.894180	870.604980	874.394470	873.205566	68.626282
199.271866	872.239563	868.598877	872.834045	-16.328857
199.649536	870.010559	866.518372	876.103333	-174.468674
200.027191	879.818542	869.936279	870.159180	97.744438
200.404816	881.601746	872.462585	879.224121	26.015787
200.782410	893.267334	885.242615	881.750427	143.517883
201.159988	885.465637	894.530457	881.824707	-40.165501
201.537537	888.437683	898.319885	866.221191	-224.813171
201.915070	885.911377	897.948425	864.809387	-175.308670
202.292557	885.539795	901.663574	859.979675	-158.524368
202.670029	878.406738	907.533386	864.215027	-48.724148
203.047485	867.335632	917.044128	864.140686	-6.427365
203.424911	861.317139	918.381653	873.354187	21.093754
203.802292	861.688660	923.657166	872.016785	16.666733
204.179688	871.868164	911.545715	866.369812	-13.857589
204.557037	874.617371	907.459167	865.478088	-27.828203
204.934357	872.388184	900.251709	868.524414	-13.866765
205.311661	866.295410	897.948425	875.063171	27.699608
205.688934	860.945618	905.527161	875.508972	32.666779
206.066177	855.744446	908.202148	875.360352	37.393757
206.443390	858.344971	914.815125	873.725647	27.236824
206.820587	861.168457	906.864746	866.815491	12.357751
207.197769	866.889832	910.356934	862.283142	-10.598105
207.574921	863.397644	914.666504	858.790833	-8.985594
207.952042	866.146790	911.471436	860.425476	-12.622963
208.329147	865.923889	909.242371	860.797058	-11.835205
208.706223	884.425293	920.833679	877.143616	-20.000000
209.083267	882.939270	932.945007	879.669983	-6.537824
209.460297	879.892883	929.155579	882.047668	4.374071
209.837280	856.710388	910.654114	868.004395	20.936646
210.214264	854.704285	898.914368	865.626648	24.705593
210.591217	851.955078	900.177490	854.184082	4.622340
210.968124	856.487488	907.533508	857.081848	1.164362
211.345016	857.230469	912.140320	858.716553	2.706407
211.721893	859.385254	912.883240	873.056946	25.555527
212.098724	857.973450	907.533447	870.604980	25.487352
212.475555	858.939453	910.951355	874.394470	29.714386
212.852356	854.258362	917.192810	869.193298	23.730940
213.229126	857.676270	925.366150	873.948547	24.039454
213.605865	854.332703	926.777832	869.787598	21.333242
213.982590	853.069519	917.564270	880.561523	42.626732
214.359283	853.292480	909.390930	873.279968	35.629307
214.735931	855.224304	903.149597	870.976501	32.868233
215.112579	867.112793	900.920471	865.700989	-4.175987
215.489197	868.673096	903.818298	863.026062	-16.067722
215.865799	873.651428	898.988586	869.044617	-18.182037
216.242355	866.072510	905.527283	865.700989	-0.941638
216.618896	859.608154	902.109375	867.781494	19.230835
216.995407	854.704163	903.669739	868.450195	28.072849
217.371902	855.670166	900.623352	872.165344	36.694126
217.748367	856.487488	909.168152	870.679382	26.939476
218.124802	854.184082	913.403381	861.391418	12.170588
218.501236	850.766113	919.496277	857.973572	10.486602
218.877609	851.806396	911.917297	858.790833	11.619250
219.253983	854.629883	916.969910	857.156189	4.052463
219.630295	855.893066	918.084473	852.103516	-6.093367
220.006592	861.317200	922.542664	849.800232	-18.810747
220.382889	863.026123	921.948181	861.391418	-2.774351
220.759140	865.478088	920.313477	864.289307	-2.167910
221.135391	861.391418	917.861511	866.221191	8.552798
221.511581	855.744385	909.391052	855.150085	-1.107803
221.887772	853.218201	905.601563	853.738281	0.992835
222.263931	848.239929	907.087646	856.115906	13.383657
222.640060	851.360596	910.877136	860.722717	15.730286
223.016159	853.069519	914.369385	862.357422	15.151587
223.392212	861.317139	915.112305	854.332703	-12.983390
223.768265	863.471985	921.799561	848.165527	-26.242231
224.144302	863.694824	931.607605	845.267761	-27.133425
224.520294	852.475098	937.551758	845.193420	-8.558960
224.896286	850.617493	936.288574	849.280090	-1.561090
225.272217	851.657715	923.359863	850.023132	-2.279684
225.648148	861.762939	915.855286	866.444031	8.653889
226.024048	861.317078	916.152527	865.849609	8.265697
226.399902	863.249023	924.400146	863.620544	0.607546
226.775772	867.930115	928.783997	857.156250	-17.704483
227.151581	864.437805	929.452698	864.066406	-0.571252
227.527374	856.264465	936.882996	870.159180	17.235138
227.903137	852.400818	950.406067	869.564697	17.513226
228.278870	856.487488	964.077820	861.837219	4.972316
228.654572	859.236633	970.393555	865.032288	5.213939
229.030273	850.097412	975.966248	863.397644	10.566739
229.405930	849.577332	980.572998	871.496582	16.732805
229.781555	850.617615	984.436768	862.728821	9.050428
230.157181	855.075745	980.127136	866.369690	9.031444
230.532761	863.917725	986.740051	861.094238	-2.298838
230.908325	863.694824	981.018799	861.242920	-2.089858
231.283859	870.604980	986.368652	860.202637	-8.985845
231.659332	870.902161	977.155090	865.180847	-5.384617
232.034821	873.131287	977.972412	868.450195	-4.464938
232.410263	871.942383	967.124207	864.883606	-7.416098
232.785690	864.289246	970.244934	856.413147	-7.433389
233.161087	872.908386	965.935364	855.075684	-19.169388
233.536469	869.044617	972.548340	852.177917	-16.295742
233.911804	868.970398	976.634949	861.465759	-6.970390
234.287140	857.007568	989.192139	857.973572	0.730799
234.662430	855.967346	1003.012390	863.546204	5.154106
235.037704	856.115906	1002.269348	862.580261	4.422992
235.412933	861.094238	997.142578	867.707214	4.860754
235.788162	862.506042	987.408875	866.815491	3.450241
236.163345	858.939453	990.009460	855.744446	-2.437634
236.538513	860.425476	1001.006348	855.298645	-3.646891
236.913635	859.682434	1002.863831	849.948792	-6.798120
237.288742	863.694824	1007.693542	860.574036	-2.167233
237.663834	862.728943	1003.755432	861.911621	-0.579552
238.038879	861.985840	1017.278564	864.066345	1.339731
238.413910	857.750671	1017.798645	863.620544	3.667571
238.788910	860.202637	1031.098755	861.094238	0.521721
239.163879	856.338867	1029.761353	857.750671	0.814084
239.538834	858.790833	1047.668335	856.636047	-1.140837
239.913757	850.914734	1058.145020	860.128357	4.446079
240.288651	856.636047	1068.175903	860.574158	1.861640
240.663528	854.035461	1081.476196	869.118958	6.631836
241.038361	858.865051	1105.698853	866.221191	2.980200
241.413177	860.574036	1145.450806	875.286072	5.164351
241.787979	862.208740	1179.407104	863.249023	0.327960
242.162735	861.911621	1210.762817	868.673096	1.938212
242.537476	865.478088	1226.069214	867.558594	0.576971
242.912170	863.917725	1236.174316	868.078613	1.117747
243.286865	863.546204	1226.217651	871.570862	2.212652
243.661514	860.499756	1218.267334	868.153015	2.139171
244.036148	862.580261	1204.224121	874.765930	3.566775
244.410751	863.620422	1188.323242	870.530701	2.128186
244.785339	865.329529	1190.626831	867.409973	0.639552
245.159882	859.533875	1193.450317	867.409973	2.358703
245.534378	858.196472	1231.196045	862.060242	1.035864
245.908890	851.583496	1279.269897	869.862000	4.273810
246.283356	858.047852	1364.495239	867.038513	1.775241
246.657791	859.979675	1436.643188	882.864929	3.968563
247.032196	863.397522	1490.809937	887.323059	3.813367
247.406586	861.019836	1516.295532	888.660461	4.218167
247.780960	856.190247	1524.691772	876.920715	3.101035
248.155289	857.156250	1506.190430	872.759705	2.404104
248.529602	853.143860	1454.029907	871.719482	3.091372
248.903870	858.419373	1390.500977	870.159180	2.206392
249.278122	856.784668	1344.953491	857.676270	0.182642
249.652344	862.208801	1310.179810	856.710266	-1.227431
250.026550	856.636047	1302.749634	862.060242	1.215877
250.400711	860.425476	1289.598145	877.069336	3.878127
250.774857	862.654541	1293.536011	875.731934	3.035033
251.148987	868.895996	1305.870239	874.097229	1.190284
251.523071	866.444031	1334.402466	876.920715	2.238807
251.897125	868.450195	1356.767700	887.174500	3.834453
252.271164	865.552429	1366.798462	883.830872	3.646601
252.645187	859.088074	1370.736450	877.366516	3.572462
253.019165	858.122070	1373.485718	874.988831	3.272788
253.393112	855.893066	1350.749146	877.663757	4.399398
253.767044	854.704163	1323.257202	878.183838	5.011103
254.140930	847.571228	1291.529907	871.050781	5.288680
254.514801	849.725891	1287.740356	876.772034	6.174715
254.888657	850.766113	1286.180054	870.159180	4.453938
255.262466	856.636047	1296.582397	865.849609	2.094247
255.636276	861.317139	1312.780518	860.871399	-0.098732
256.010010	866.444092	1328.532715	870.456360	0.868290
256.383759	864.512207	1350.303345	880.115784	3.211993
256.757446	855.521484	1385.819946	884.648193	5.492512
257.131134	860.425476	1429.064331	887.471680	4.756306
257.504791	864.363525	1475.726440	884.499573	3.293633
257.878418	872.016785	1532.791016	877.366516	0.809616
258.252014	863.026123	1620.393677	878.481140	2.040623
258.625580	864.437805	1738.757935	888.289063	2.727978
258.999115	860.425476	1871.165405	898.245544	3.741820
259.372650	865.626648	1995.250977	901.960693	3.216472
259.746124	860.128235	2099.052002	895.793640	2.878741
260.119598	859.236633	2145.416748	897.725525	2.992496
260.493042	856.561768	2131.002197	898.988586	3.329055
260.866425	855.595886	2069.850830	905.452942	4.105979
261.239838	853.366699	1969.690796	906.418945	4.752405
261.613159	851.806396	1870.570923	904.412781	5.163743
261.986511	851.955017	1784.974243	903.595398	5.534760
262.359802	864.437805	1743.141968	897.205322	3.729073
262.733063	864.289246	1725.680664	899.137207	4.045543
263.106293	868.301575	1710.448608	894.604797	3.123353
263.479523	864.512146	1688.900757	897.874084	4.046870
263.852692	868.227234	1670.919556	898.394226	3.758226
264.225861	865.923828	1669.210571	899.285889	4.153194
264.598969	859.087952	1683.105103	897.428284	4.652856
264.972076	858.939453	1713.123535	893.638855	4.062286
265.345154	867.261414	1753.024048	892.078430	2.801768
265.718201	872.611145	1803.921509	898.394226	2.768474
266.091217	875.880554	1864.998169	900.474670	2.486470
266.464203	868.375916	1914.335327	908.870911	3.871564
266.837158	861.242920	1953.121216	894.381836	3.035038
267.210114	855.670166	1975.709351	887.471680	2.839322
267.583038	853.961182	1996.662720	881.304504	2.392867
267.955902	854.778503	2018.136230	885.391296	2.631417
268.328766	856.636047	2027.572632	889.403564	2.798403
268.701569	859.831055	2039.089478	895.719421	3.043300
269.074371	864.735046	2050.458008	903.446777	3.264821
269.447144	863.546204	2079.658936	914.220703	4.166924
269.819885	856.636047	2144.970947	915.781006	4.590806
270.192596	853.886902	2249.366211	920.907959	4.802727
270.565277	855.818787	2384.894287	914.889465	3.863163
270.937927	861.242859	2497.091553	924.102966	3.842660
271.310577	858.716553	2576.075195	926.480652	3.945833
271.683136	853.738281	2623.034424	932.276306	4.438942
272.055725	859.088074	2629.201660	922.096863	3.559590
272.428284	860.128357	2606.910889	921.948181	3.539068
272.800812	864.363586	2559.728760	925.514648	3.606955
273.173279	848.908630	2499.766602	921.428040	4.392832
273.545776	847.645447	2463.878418	916.969910	4.289262
273.918152	844.524719	2429.104492	915.260925	4.464036
274.290558	858.047852	2429.698975	917.564270	3.786872
274.662964	857.676270	2432.225342	914.592224	3.614746
275.035278	861.614319	2451.989990	904.932800	2.723789
275.407593	859.979675	2486.540771	907.607727	2.928144
275.779907	866.072510	2536.620605	907.904968	2.504116
276.152161	861.465759	2573.326172	908.350830	2.738837
276.524384	855.670105	2602.006836	916.672668	3.493173
276.896606	854.555481	2617.090576	919.793396	3.701368
277.268799	860.053955	2636.557617	928.932617	3.877203
277.640930	862.728943	2650.749512	917.118469	3.041885
278.013031	854.035461	2660.928955	915.558105	3.404885
278.385162	848.239929	2669.622314	912.288818	3.516499
278.757233	847.719727	2690.427490	913.254700	3.556450
279.129272	855.595886	2722.303223	921.502380	3.530628
279.501282	857.527649	2758.414063	920.164856	3.295158
279.873230	855.149963	2824.989502	934.951111	4.051149
280.245178	857.899231	2913.632568	935.694153	3.784290
280.617126	861.242859	3045.148438	943.570313	3.769735
280.988983	859.756836	3160.763672	945.799316	3.739341
281.360870	855.595886	3264.936279	951.594971	3.984455
281.732697	855.149963	3330.099609	953.080994	3.956890
282.104492	860.722717	3359.523438	945.873718	3.407675
282.476288	867.558594	3360.489014	938.666260	2.852373
282.848053	865.478210	3356.922607	932.647766	2.696009
283.219757	866.889832	3371.188477	932.201904	2.607999
283.591461	859.385254	3360.786377	938.071838	3.145700
283.963135	864.214905	3375.646729	945.576477	3.239649
284.334747	859.682434	3429.739258	948.177063	3.443295
284.706360	864.586426	3528.487549	943.570251	2.964968
285.077942	853.738281	3632.734375	947.508301	3.374241
285.449524	852.623718	3717.811279	952.709473	3.493166
285.821014	847.125305	3747.086670	965.192383	4.071333
286.192535	858.642334	3776.212891	958.282166	3.415164
286.563995	861.242859	3757.934326	959.991028	3.408998
286.935425	855.298645	3747.903564	952.263611	3.352168
287.306824	849.577332	3664.312744	958.282166	3.861991
287.678223	848.834290	3598.183594	951.000488	3.716014
288.049561	859.608154	3548.920898	954.418457	3.525447
288.420898	866.295410	3557.168701	946.913879	2.995996
288.792145	863.694824	3590.827393	949.960266	3.163229
289.163452	856.413147	3682.368164	951.892151	3.378645
289.534668	848.462708	3799.395264	960.288391	3.789503
289.905914	843.855957	3913.821533	966.975586	4.010457
290.277039	845.119141	4008.854736	973.068359	4.044245
290.648193	846.307922	4049.424072	969.576172	3.848385
291.019318	857.453369	4035.455078	964.152039	3.357414
291.390381	858.939453	3967.245361	956.647461	3.143449
291.761475	850.394714	3905.648438	954.046875	3.392588
292.132507	842.518555	3865.599365	953.229553	3.662191
292.503510	841.775574	3869.462891	949.365906	3.553548
292.874481	856.338867	3919.394287	958.950928	3.349990
293.245422	858.344971	4021.337158	959.693909	3.204211
293.616364	863.769104	4173.063965	970.319153	3.219721
293.987213	861.911621	4315.353027	970.765076	3.152028
294.358093	869.416199	4431.191406	978.715393	3.068672
294.728943	863.694824	4520.354004	979.235535	3.159734
295.099731	858.270691	4621.926270	982.281921	3.294968
295.470490	855.893005	4741.999512	987.185974	3.378522
295.841248	854.109680	4839.781738	987.631775	3.350052
296.211975	854.332703	4931.174316	996.993896	3.499307
296.582642	854.035461	5024.498535	999.074402	3.477766
296.953308	854.481262	5072.572754	1007.173401	3.619934
297.323883	857.602051	5060.238281	1001.452148	3.422854
297.694519	855.224304	4945.069336	1001.080566	3.566303
298.065063	858.865051	4815.708496	995.136292	3.443938
298.435608	857.304688	4661.827637	992.164246	3.544717
298.806122	865.626709	4501.259277	988.969238	3.392602
299.176575	867.484192	4355.179688	982.281982	3.291508
299.547028	873.428467	4249.669922	980.201477	3.162482
299.917450	863.917725	4222.847168	968.090088	3.101356
300.287872	858.122131	4213.707520	965.563782	3.201875
300.658234	857.304871	4205.088379	958.207825	3.014023
301.028564	860.351135	4170.537109	961.625793	3.059485
301.398865	865.775208	4120.085938	965.563782	3.066350
301.769135	864.586426	4060.718018	962.368835	3.059399
302.139374	858.716614	4012.792969	968.015808	3.465331
302.509583	860.202637	3981.214111	961.848816	3.256835
302.879791	861.762939	3947.406250	960.437012	3.197845
303.249939	870.530579	3911.592529	953.675476	2.734074
303.620087	870.233398	3870.874268	949.365906	2.637187
303.990173	865.923889	3849.995361	956.350281	3.030303
304.360260	863.100403	3832.014404	954.715637	3.085816
304.730286	858.493652	3816.856689	956.276062	3.305288
305.100281	857.304871	3816.856445	946.988220	3.030302
305.470276	858.865173	3832.237061	943.124451	2.833796
305.840179	858.270691	3875.852783	950.034668	3.040977
306.210144	862.728821	3897.772217	956.647522	3.094476
306.579987	863.843445	3933.139893	962.294617	3.207614
306.949890	866.592590	3980.842529	965.563782	3.178010
307.319702	864.883606	4083.157227	967.941589	3.202275
307.689484	858.939453	4176.109863	969.130371	3.321835
308.059265	858.122070	4290.907715	966.009766	3.142861
308.429016	852.475098	4371.897949	965.786804	3.219610
308.798737	851.063416	4456.305664	968.015930	3.243957
309.168396	848.537048	4485.061035	971.433838	3.379513
309.538055	852.995178	4500.664063	968.461731	3.165489
309.907684	854.035461	4493.828613	970.616455	3.202956
310.277313	855.670105	4502.596191	973.960144	3.243555
310.646851	853.663879	4487.289551	977.080750	3.396521
311.016388	851.880676	4478.001953	982.802063	3.610507
311.385895	856.858948	4430.596680	981.167480	3.478390
311.755371	856.784668	4378.064941	982.430603	3.568189
312.124817	864.809326	4305.173828	977.006531	3.261201
312.494232	864.140625	4249.595215	975.817627	3.298730
312.863617	859.979675	4241.348145	977.155090	3.465325
313.232971	856.487488	4282.883301	975.223145	3.465322
313.602295	857.156250	4369.371582	972.696838	3.289678
313.971619	863.917786	4461.729492	967.495605	2.878911
314.340820	861.094238	4485.432129	963.408997	2.822992
314.710083	862.803223	4462.918457	968.164490	2.926608
315.079285	860.722717	4383.191895	971.805359	3.153545
315.448486	869.713379	4302.573730	974.926086	3.064870
315.817596	861.391418	4185.101074	966.975586	3.176696
316.186707	864.363525	4083.974609	963.334778	3.074013
316.555786	859.385254	3999.641357	959.693848	3.194281
316.924866	857.973450	3958.031982	952.040771	3.034372
317.293884	854.406982	3950.898682	949.068665	3.057062
317.662872	861.985840	3984.037842	949.068665	2.789282
318.031830	862.060242	4022.452148	958.876526	3.063426
318.400757	871.793762	4063.690186	966.381165	2.963361
318.769684	861.837219	4083.305908	972.325378	3.429745
319.138550	864.958008	4085.014893	969.427551	3.244339
319.507416	863.769226	4045.634521	968.610168	3.294952
319.876190	865.998230	3984.854736	958.950928	2.980345
320.244995	866.295410	3915.976563	954.789978	2.901765
320.613770	854.035461	3862.032471	944.313293	3.001261
320.982483	847.348206	3874.143799	948.697083	3.348388
321.351166	845.342102	3919.989014	953.378235	3.513774
321.719818	850.171692	4009.374756	963.111816	3.574956
322.088440	853.961121	4130.785645	970.319275	3.550943
322.457062	858.419250	4306.214355	968.387268	3.189517
322.825623	859.608154	4492.268066	968.461609	2.996522
323.194183	860.128235	4623.857910	962.517517	2.720421
323.562653	863.992004	4686.123535	974.480164	2.890747
323.931183	863.397644	4685.380859	969.501892	2.776157
324.299591	867.484192	4640.427734	970.170654	2.721654
324.668060	862.357361	4578.310547	958.950928	2.599429
325.036407	862.505920	4507.202637	968.758850	2.915275
325.404755	852.326477	4425.544434	963.483398	3.110835
325.773102	856.710449	4352.356445	960.585632	2.971559
326.141388	859.459534	4277.384766	953.898254	2.763042
326.509674	869.193176	4202.413574	960.065430	2.726260
326.877899	868.747375	4130.042480	963.483398	2.904859
327.246124	865.403809	4071.417725	964.300598	3.084727
327.614288	863.397644	4031.665283	960.808411	3.074575
327.982422	850.914734	4026.241455	957.316223	3.350883
328.350525	850.171692	4035.232178	956.127380	3.326646
328.718628	852.475159	4077.138672	948.325623	2.972418
329.086700	856.115967	4121.794922	948.548523	2.830424
329.454712	853.886902	4182.871582	945.502136	2.752047
329.822693	863.100403	4222.623535	957.613464	2.813288
330.190674	867.707214	4254.945313	964.597900	2.860463
330.558563	868.375916	4288.530273	971.953857	3.028458
330.926483	854.852844	4364.541504	970.170654	3.285699
331.294312	858.865234	4461.729980	969.278992	3.064610
331.662231	861.391418	4574.595703	972.696960	2.997560
332.029999	861.391418	4676.910645	979.681335	3.100231
332.397766	851.286316	4745.566406	973.662842	3.142468
332.765503	857.453369	4793.194824	967.272766	2.790310
333.133240	863.843445	4793.714355	960.882751	2.469275
333.500916	868.375916	4788.884766	966.009583	2.490332
333.868561	862.580322	4764.810547	967.941589	2.700027
334.236176	854.852783	4753.442383	970.170593	2.957937
334.603790	853.515320	4739.473145	973.142761	3.078454
334.971344	856.487488	4710.346680	979.086914	3.181212
335.338867	862.803223	4690.730957	972.474060	2.865019
335.706360	869.787598	4678.768066	975.966309	2.787589
336.073853	870.530762	4684.786621	978.046692	2.818792
336.441284	864.660828	4699.201172	982.059082	3.061599
336.808655	862.654602	4726.990723	979.235535	3.016842
337.176086	858.865173	4771.869629	976.114807	2.996409
337.543396	859.459534	4797.355469	980.498718	3.073702
337.910706	855.744446	4822.246582	980.498718	3.145196
338.277954	854.629883	4805.008301	978.789734	3.142986
338.645264	856.190247	4788.735840	974.034424	2.996639
339.012421	852.846619	4745.269043	975.297546	3.145880
339.379669	850.617493	4678.693848	979.755676	3.373448
339.746796	857.379089	4575.189941	986.740173	3.479496
340.113953	862.506042	4503.562500	980.275818	3.234495
340.481018	861.614319	4470.869141	963.929199	2.834792
340.848114	855.372864	4491.228027	963.706238	2.979584
341.215118	856.784668	4525.407227	970.021973	3.086644
341.582153	862.654602	4643.697266	976.857849	3.020417
341.949066	862.877441	4816.079590	977.229309	2.892639
342.316010	862.060120	5034.083984	982.059021	2.876276
342.682922	862.357422	5301.499512	990.232239	2.880620
343.049835	863.992004	5631.403809	998.554199	2.822542
343.416656	858.419250	5955.660645	1009.848328	2.970805
343.783478	854.629883	6167.943359	1024.411621	3.195402
344.150269	858.493652	6294.629395	1030.058594	3.156009
344.516998	858.493652	6289.576660	1026.269165	3.089172
344.883728	865.106628	6209.701172	1020.547852	2.908382
345.250427	858.345032	6067.263184	1018.170227	3.068299
345.617065	861.094238	5902.756348	1013.934998	3.031555
345.983704	850.468933	5777.185547	1011.334412	3.265166
346.350281	854.258362	5644.927246	1007.990723	3.208996
346.716827	854.852783	5525.670410	1005.538757	3.226116
347.083405	860.499817	5441.336914	1001.749329	3.083487
347.449860	868.450195	5382.117676	1001.749329	2.953233
347.816376	869.936279	5388.358887	997.216797	2.816924
348.182770	872.908386	5394.600586	992.090027	2.635775
348.549194	864.289246	5432.420898	993.501709	2.828562
348.915558	864.363464	5488.742188	996.473816	2.856824
349.281921	861.019836	5551.602051	1003.606934	3.039859
349.648193	857.230469	5608.369141	993.427429	2.866617
350.014526	861.465759	5634.895996	999.891785	2.899928
350.380737	859.608215	5684.975098	1005.761658	3.028857
350.746948	866.146790	5733.197754	1011.111389	2.978490
351.113159	870.010559	5808.169434	1004.721436	2.727958
351.479309	865.552429	5858.694824	995.582214	2.604167
351.845428	861.465759	5971.709473	1004.349915	2.796034
352.211517	861.094238	6089.702637	1008.956604	2.827949
352.577576	870.307800	6214.605469	1018.913269	2.780636
352.943604	872.313965	6339.359375	1020.919434	2.718204
353.309601	865.998230	6488.113281	1029.761475	2.912840
353.675537	868.227295	6669.411621	1027.681030	2.748641
354.041473	866.592590	6786.810059	1025.526245	2.684592
354.407379	862.134460	6910.970215	1029.018433	2.758944
354.773254	859.162354	7025.173340	1040.683960	2.943907
355.139038	863.026123	7221.184082	1051.160645	2.958947
355.504913	864.883728	7473.888184	1056.064575	2.892733
355.870636	863.843445	7776.894531	1058.368042	2.813875
356.236389	855.372986	8064.892090	1062.008789	2.866152
356.602081	860.425598	8297.383789	1063.346191	2.728543
356.967804	857.081970	8454.683594	1067.432861	2.768649
357.333405	859.905334	8523.041992	1072.708374	2.776970
357.699036	852.326477	8527.425781	1080.733032	2.975943
358.064606	857.899170	8471.996094	1075.903442	2.863167
358.430176	866.815491	8415.377930	1074.491699	2.751202
358.795654	866.221130	8460.627930	1067.432983	2.649474
359.161163	863.992004	8672.687500	1073.154297	2.678582
359.526581	852.698059	9106.616211	1082.962036	2.789754
359.892029	855.001465	9672.727539	1107.556274	2.864172
360.257416	851.063416	10247.013672	1126.726440	2.933849
360.622772	855.818787	10675.443359	1139.729370	2.891257
360.988098	861.614441	10902.958008	1138.243286	2.754899
361.353394	859.162415	10931.639648	1147.085449	2.858513
361.718658	853.292480	10714.006836	1146.565308	2.974154
362.083893	843.930359	10267.595703	1137.946167	3.119973
362.449097	845.936523	9650.958008	1124.645996	3.165347
362.814209	854.778503	8992.338867	1107.259155	3.102658
363.179382	859.236633	8413.892578	1105.475952	3.259438
363.544434	860.574158	8003.220703	1093.141602	3.256040
363.909546	856.858948	7792.646484	1081.847534	3.243879
364.274536	852.846680	7670.121094	1062.008789	3.068119
364.639587	860.277039	7557.478516	1049.451538	2.824680
365.004517	860.425537	7468.314941	1040.683960	2.727927
365.369507	867.187073	7412.142578	1046.330933	2.737129
365.734344	863.992004	7429.678223	1044.919067	2.755646
366.099274	865.106628	7431.906738	1050.714722	2.826462
366.464081	867.707214	7383.833496	1050.863403	2.810814
366.828918	864.883728	7317.480469	1054.504272	2.938670
367.193665	862.877441	7218.732422	1058.962402	3.085108
367.558411	862.951843	7148.665527	1055.172852	3.058062
367.923126	861.688660	7045.012207	1046.553833	2.989738
368.287781	860.945618	7012.839844	1044.176147	2.978441
368.652435	854.481262	6984.381348	1045.662231	3.118827
369.017059	858.419250	7010.907715	1050.417603	3.120662
369.381653	854.035461	7039.365234	1045.439331	3.094481
369.746185	858.419250	7107.277832	1044.399048	2.976220
370.110687	856.190247	7201.568359	1044.547607	2.968418
370.475220	857.304871	7276.019531	1043.656128	2.903249
370.839661	852.177917	7330.854980	1043.358765	2.950924
371.204041	857.230530	7349.802246	1051.755005	2.996108
371.568451	858.865173	7360.501465	1047.817017	2.906220
371.932770	859.756836	7348.464355	1050.120361	2.933766
372.297150	854.852844	7327.288574	1047.891235	2.982469
372.661377	859.831055	7350.916504	1060.745605	3.095238
373.025696	860.945618	7389.925781	1056.956177	3.002162
373.389862	856.115906	7456.128906	1050.863281	2.950712
373.754059	851.137695	7523.298828	1049.674438	2.975599
374.118225	857.824890	7653.626465	1049.823120	2.825248
374.482361	864.958008	7827.643066	1053.835449	2.712710
374.846436	864.809387	8064.669434	1055.915894	2.654309
375.210510	856.413269	8378.002930	1064.906616	2.771932
375.574524	852.400879	8699.362305	1080.287231	2.904135
375.938538	847.051086	9010.170898	1084.373901	2.907256
376.302460	843.410217	9210.639648	1102.057983	3.091200
376.666412	850.840515	9331.975586	1110.231201	3.058443
377.030304	853.961243	9320.235352	1121.525146	3.160350
377.394196	859.831116	9176.980469	1115.878174	3.078543
377.757996	854.704163	8933.564453	1106.664673	3.118763
378.121796	854.629883	8618.447266	1090.392456	3.036684
378.485565	852.326477	8347.835938	1069.810425	2.901523
378.849304	850.023193	8149.373535	1065.946777	2.958121
379.212982	853.069580	8015.703125	1068.324585	3.005249
379.576630	853.366760	7958.564941	1069.141968	3.036864
379.940277	857.899231	7944.669922	1070.999390	3.007014
380.303864	858.865051	7948.385254	1072.336792	3.011089
380.667450	860.054016	7972.756348	1075.680420	3.031568
381.030945	853.366760	7965.845703	1074.863159	3.114194
381.394501	855.075745	8019.417969	1069.587524	2.994159
381.757935	856.784668	8056.569824	1070.256348	2.964973
382.121399	860.202637	8159.033203	1068.473022	2.853476
382.484741	855.818665	8314.102539	1078.578247	2.986741
382.848145	854.407043	8489.829102	1087.420410	3.051742
383.211487	862.357422	8625.282227	1095.890869	3.008318
383.574768	859.905334	8698.545898	1091.581299	2.955563
383.938019	858.716553	8729.233398	1091.729858	2.960585
384.301270	850.914795	8736.365234	1076.126343	2.856039
384.664459	858.270691	8733.690430	1077.463745	2.783255
385.027649	854.035461	8766.977539	1077.538086	2.824520
385.390778	852.326477	8884.227539	1090.466797	2.964931
385.753876	846.530945	9023.099609	1086.157104	2.930645
386.116943	851.063293	9143.469727	1089.129272	2.870891
386.479980	853.366699	9177.204102	1085.265503	2.785960
386.842987	853.069519	9177.352539	1091.581177	2.865252
387.205994	859.013733	9151.420898	1097.302490	2.873578
387.568909	853.961121	9146.516602	1103.989868	3.015099
387.931793	864.066345	9083.061523	1108.447998	2.973376
388.294678	856.859070	9042.937500	1100.720581	2.978978
388.657471	867.187073	9031.124023	1099.754761	2.848720
389.020294	863.694885	9118.355469	1097.005371	2.826409
389.383057	870.679382	9338.588867	1095.519409	2.655201
389.745819	865.849609	9545.596680	1103.023926	2.732503
390.108521	870.902161	9809.964844	1105.847534	2.628300
390.471191	873.428467	10043.275391	1111.420044	2.595371
390.833801	874.022888	10259.421875	1118.033081	2.599891
391.196442	871.496582	10410.479492	1125.389038	2.661630
391.558960	866.072571	10405.798828	1136.460083	2.834332
391.921509	871.199402	10360.696289	1128.063843	2.706829
392.284027	864.586426	10288.177734	1127.320923	2.788050
392.646484	863.026062	10256.970703	1120.039185	2.735945
393.008911	858.345032	10237.949219	1122.565430	2.816967
393.371307	861.614319	10240.772461	1122.491211	2.781453
393.733673	863.992004	10208.227539	1131.853271	2.866594
394.096008	859.979736	10132.811523	1122.937012	2.835782
394.458344	859.385254	9977.517578	1126.726440	2.931973
394.820587	853.515381	9737.594727	1114.169312	2.933944
395.182831	860.574036	9514.463867	1117.364258	2.967339
395.545013	860.053955	9273.797852	1100.943481	2.863048
395.907196	866.666931	9123.185547	1098.417114	2.806875
396.269287	866.666931	9022.059570	1096.708130	2.820725
396.631409	863.769104	8992.858398	1100.646118	2.913943
396.993469	860.797058	8993.377930	1101.983643	2.965683
397.355530	854.778503	8997.688477	1101.686401	3.032182
397.717499	856.933289	9031.570313	1100.794922	2.983149
398.079468	857.973572	9075.854492	1101.537842	2.963833
398.441376	855.447205	9113.155273	1101.463501	2.979232
398.803284	848.091248	9092.424805	1095.890747	3.005695
399.165131	842.815735	9047.323242	1093.067261	3.050171
399.526978	840.215149	9011.062500	1083.556519	2.978166
399.888763	844.227478	8977.774414	1086.603027	2.979949
400.250519	848.239807	8991.223633	1089.500854	2.962809
400.612244	858.865051	9024.213867	1098.045532	2.929213
400.973938	865.106628	9151.568359	1096.931030	2.797628
401.335602	869.044617	9247.939453	1096.485352	2.714448
401.697205	862.877502	9426.637695	1091.804077	2.673202
402.058807	861.688660	9572.122070	1098.714233	2.721169
402.420349	856.710388	9831.438477	1105.847290	2.775983
402.781860	863.026123	10029.009766	1119.519165	2.798315
403.143341	861.985901	10244.785156	1130.590210	2.862731
403.504822	856.710388	10425.861328	1134.676880	2.904819
403.866241	855.595764	10578.479492	1146.416626	2.991097
404.227631	852.920898	10687.703125	1146.342407	2.983508
404.588959	855.744385	10681.461914	1146.491089	2.959038
404.950287	853.218201	10591.778320	1141.512695	2.960340
405.311554	854.481262	10445.625977	1139.357910	2.970205
405.672821	858.939453	10333.280273	1134.305298	2.906438
406.034027	854.258301	10220.042969	1127.618042	2.918706
406.395203	855.224304	10060.811523	1122.862793	2.907348
406.756348	860.722656	9937.022461	1117.067139	2.824328
407.117493	864.735107	9876.985352	1112.980469	2.754533
407.478516	862.728821	9956.713867	1108.002075	2.697093
407.839600	859.013672	10035.102539	1111.717285	2.753936
408.200592	862.580261	10174.717773	1121.525269	2.780726
408.561554	863.694824	10279.187500	1132.150513	2.851213
408.922485	859.236755	10428.684570	1140.026733	2.934234
409.283417	851.360596	10531.667969	1134.974121	2.929799
409.644257	850.097473	10641.115234	1135.048340	2.910329
410.005096	859.459534	10669.945313	1134.973999	2.808367
410.365906	862.208740	10630.861328	1133.488037	2.777039
410.726715	867.112793	10595.865234	1136.385864	2.767807
411.087433	861.317139	10529.958984	1133.190796	2.811912
411.448120	867.781494	10513.389648	1136.385864	2.784732
411.808807	875.434631	10469.475586	1134.231079	2.697471
412.169434	872.016785	10434.850586	1138.837769	2.790187
412.530029	872.685486	10479.655273	1141.884277	2.802120
412.890564	852.252197	10580.260742	1138.837769	2.945984
413.251099	850.171692	10755.318359	1147.828369	3.005071
413.611572	844.896240	10895.973633	1150.577515	3.041279
413.972076	851.657776	11037.222656	1161.723022	3.044164
414.332489	852.475098	11170.671875	1158.527954	2.966147
414.692871	847.645325	11398.409180	1160.682739	2.966964
415.053223	847.571106	11586.023438	1164.398071	2.950397
415.413574	851.583496	11868.002930	1173.908813	2.925863
415.773834	856.561768	12095.666992	1179.630005	2.874501
416.134094	859.088074	12429.286133	1192.038574	2.877656
416.494263	856.487488	12718.620117	1198.131348	2.880122
416.854462	855.372864	13097.118164	1207.567871	2.877000
417.214630	858.270752	13489.734375	1213.660645	2.813529
417.574738	849.057190	13884.801758	1221.016602	2.853381
417.934784	852.400879	14369.776367	1235.951538	2.837464
418.294861	853.292480	14948.964844	1255.418823	2.852836
418.654846	857.081848	15622.890625	1277.486694	2.847151
419.014832	854.035461	16269.843750	1296.062378	2.867361
419.374756	850.394592	16903.869141	1307.430664	2.846961
419.734680	854.778503	17566.871094	1327.269531	2.827240
420.094543	849.577332	18107.498047	1345.473633	2.873442
420.454376	847.199646	18415.781250	1358.996704	2.913138
420.814148	847.051025	18568.101563	1359.442505	2.891428
421.173920	854.704102	18654.664063	1353.795532	2.803891
421.533691	853.441101	18760.099609	1358.476563	2.820378
421.893341	855.595886	18810.847656	1353.795410	2.774673
422.253021	847.794128	18759.208984	1353.721313	2.824608
422.612640	847.273926	18708.310547	1347.702759	2.801790
422.972260	845.193420	18660.980469	1350.749146	2.837684
423.331757	854.704163	18759.654297	1354.018433	2.788694
423.691315	866.815613	18877.796875	1362.563354	2.752475
424.050781	866.889832	18920.966797	1370.513672	2.789530
424.410248	859.682434	18715.814453	1369.250610	2.853743
424.769653	849.948914	18385.167969	1354.092773	2.875036
425.128998	852.400879	17947.525391	1339.083618	2.846910
425.488373	856.338867	17470.130859	1327.195068	2.834128
425.847656	856.933289	17015.101563	1312.929077	2.822076
426.206940	855.967346	16572.255859	1298.142822	2.813485
426.566193	857.007629	16194.871094	1287.814819	2.808782
426.925385	851.657776	15757.229492	1278.898438	2.866315
427.284576	853.366699	15351.460938	1266.341309	2.848475
427.643677	849.280090	15041.024414	1255.047241	2.859177
428.002777	851.583496	14839.590820	1249.697388	2.846109
428.361847	849.651611	14661.264648	1248.211304	2.885685
428.720856	843.038757	14491.112305	1242.267212	2.925164
429.079865	846.605225	14390.281250	1235.505737	2.871455
429.438812	849.057190	14395.855469	1232.310669	2.829108
429.797760	861.837219	14389.315430	1228.818481	2.712858
430.156616	860.648438	14300.598633	1227.035278	2.726103
430.515503	864.512207	14215.596680	1229.264282	2.732003
430.874268	864.586426	14167.151367	1231.716187	2.759842
431.233093	869.341797	14231.795898	1234.465454	2.732460
431.591827	861.763000	14410.937500	1232.905029	2.739222
431.950562	857.750671	14602.268555	1248.582886	2.843550
432.309204	861.242859	14746.711914	1253.412476	2.824317
432.667877	863.694824	14890.339844	1265.672485	2.865815
433.026459	862.431702	14957.805664	1257.945068	2.805980
433.385010	855.744385	15065.395508	1261.585938	2.856098
433.743561	860.202637	15064.801758	1258.762329	2.805850
434.102051	856.933350	15080.331055	1261.808716	2.846545
434.460510	861.763000	15096.752930	1257.722168	2.781591
434.818939	860.128357	15102.027344	1254.898560	2.771893
435.177338	865.255188	15137.097656	1245.610840	2.665077
435.535675	861.094238	15153.000000	1248.805786	2.712805
435.894012	858.047852	15209.692383	1254.081421	2.759500
436.252289	863.917786	15402.210938	1260.545654	2.728160
436.610535	858.865173	15477.182617	1268.867554	2.804717
436.968719	859.979675	15718.516602	1269.016235	2.752872
437.326935	853.515381	15927.753906	1275.257690	2.797769
437.685028	861.837341	16253.276367	1280.013062	2.716937
438.043152	863.471985	16453.744141	1279.195679	2.666558
438.401215	860.054016	16758.681641	1286.997437	2.685410
438.759277	861.094238	17103.150391	1293.090210	2.659737
439.117249	857.527771	17664.134766	1314.638062	2.719825
439.475250	859.831116	18097.169922	1332.916626	2.744539
439.833130	855.521545	18533.847656	1337.597534	2.726932
440.191071	848.314209	18634.972656	1338.117676	2.753769
440.548889	849.205811	18664.173828	1334.179688	2.722283
440.906708	842.815735	18497.142578	1329.795776	2.758418
441.264496	849.057129	18280.773438	1324.891968	2.729707
441.622223	847.051025	18014.843750	1322.142700	2.767343
441.979950	851.211914	17751.291016	1320.285034	2.775568
442.337616	856.190247	17539.232422	1316.347046	2.758231
442.695251	863.397644	17315.728516	1303.269653	2.673615
443.052887	867.781433	17246.328125	1298.365845	2.628954
443.410461	863.769104	17368.408203	1300.000488	2.643084
443.768005	856.561768	17624.826172	1307.950806	2.691925
444.125458	855.670105	17941.431641	1323.257202	2.736706
444.482941	858.939453	18289.689453	1334.774048	2.729857
444.840393	864.735046	18804.681641	1352.755371	2.720300
445.197754	865.923889	19259.189453	1356.544800	2.667394
445.555084	863.397644	19625.130859	1366.278442	2.680354
445.912415	862.877502	19827.158203	1372.965820	2.689732
446.269714	862.580261	19923.529297	1382.253540	2.726377
446.626953	868.153015	19916.248047	1389.312134	2.736017
446.984161	869.564758	19735.619141	1381.436157	2.713187
447.341309	873.651428	19534.185547	1365.535522	2.635959
447.698456	866.815613	19237.048828	1348.817261	2.623819
448.055542	857.973572	19033.830078	1352.681030	2.721783
448.412598	855.670166	18634.677734	1350.526367	2.783374
448.769653	856.784668	18245.033203	1338.637817	2.771143
449.126617	861.911560	17729.447266	1321.622437	2.725418
449.483582	863.026123	17413.289063	1320.062134	2.761503
449.840515	869.341858	17147.880859	1311.442993	2.715853
450.197388	867.038513	16983.744141	1308.619507	2.739896
450.554230	858.122131	16852.080078	1308.173706	2.813885
450.911041	855.224304	16802.966797	1320.805176	2.919415
451.267822	856.338867	16860.849609	1322.216919	2.910917
451.624573	857.527649	16937.750000	1315.455200	2.847769
451.981262	855.744446	16920.216797	1308.173706	2.816334
452.337921	854.184082	16774.880859	1300.223267	2.801631
452.694580	859.682434	16441.259766	1296.062378	2.800615
453.051147	858.047791	16202.526367	1285.957153	2.788686
453.407715	862.134460	15820.238281	1280.013062	2.793660
453.764221	867.930115	15705.291992	1273.697388	2.734767
454.120728	859.459534	15360.528320	1273.251465	2.853527
454.477142	853.366699	15346.929688	1265.969727	2.846802
454.833557	850.840393	15225.148438	1259.579712	2.843541
455.189911	859.236633	15285.854492	1253.858398	2.735373
455.546265	869.416077	15355.102539	1255.567383	2.665744
455.902557	871.645203	15451.770508	1264.335083	2.693323
456.258820	877.886658	15710.195313	1268.793091	2.635506
456.615051	871.719543	15994.182617	1275.851929	2.672398
456.971252	862.877502	16346.672852	1283.282349	2.715128
457.327393	860.128357	16940.500000	1295.467896	2.707273
457.683502	860.574158	17630.474609	1321.176636	2.746602
458.039612	860.797058	18645.896484	1338.935059	2.688419
458.395630	863.323425	19582.630859	1362.860596	2.668567
458.751648	871.050781	20366.896484	1371.851196	2.568754
459.107605	878.555359	20962.953125	1390.203979	2.547493
459.463562	880.710144	21098.257813	1391.095581	2.524468
459.819458	872.982666	20902.841797	1391.244141	2.587444
460.175323	870.233398	20235.380859	1389.163696	2.679713
460.531158	869.193176	19410.843750	1377.869751	2.743427
460.886932	866.889893	18617.142578	1367.318726	2.819277
461.242676	863.323303	17937.568359	1336.260132	2.769884
461.598419	858.716553	17458.093750	1331.133301	2.845991
461.954102	862.283020	16962.046875	1315.529663	2.815238
462.309723	861.614441	16559.773438	1306.613281	2.834720
462.665344	861.688660	16248.221680	1290.935425	2.789756
463.020905	857.750671	16121.460938	1287.071655	2.812691
463.376373	860.054016	16093.820313	1284.768311	2.787980
463.731873	855.670105	16139.293945	1288.632202	2.832850
464.087341	857.230469	16154.452148	1291.901489	2.841503
464.442749	864.660828	16311.454102	1298.885864	2.811101
464.798126	868.524475	16425.062500	1292.941528	2.728223
465.153503	873.279968	16653.322266	1291.083984	2.647674
465.508820	858.716614	16807.126953	1292.198608	2.718026
465.864105	852.623718	16913.158203	1306.093262	2.823502
466.219330	850.320313	17120.312500	1309.511230	2.822318
466.574524	856.487488	17132.498047	1314.192261	2.812144
466.929657	857.824890	16990.134766	1303.567017	2.763040
467.284790	858.567871	16721.009766	1292.272949	2.734164
467.639893	851.806335	16473.435547	1288.780762	2.797240
467.994934	852.697998	16324.159180	1286.402954	2.803258
468.349945	843.781738	16159.504883	1285.808472	2.886098
468.704926	847.719727	16044.187500	1277.486694	2.828071
469.059875	849.577332	15925.303711	1278.824097	2.847271
469.414764	859.979675	15827.075195	1278.898438	2.798932
469.769653	863.323242	15769.043945	1277.338135	2.777557
470.124451	864.883606	15826.479492	1272.656982	2.725467
470.479248	857.081848	15895.507813	1276.669312	2.790102
470.834015	857.676270	15971.295898	1280.012939	2.794411
471.188721	863.769104	16176.817383	1286.402954	2.759959
471.543365	869.193176	16457.830078	1292.124146	2.713072
471.898010	860.945618	16775.029297	1294.501953	2.724356
472.252625	853.812683	17046.679688	1291.604126	2.703607
472.607178	851.063416	17288.683594	1285.957153	2.645722
472.961700	859.385254	17334.230469	1295.244995	2.645607
473.316193	859.459534	17357.189453	1305.944702	2.706343
473.670654	858.716553	17251.976563	1314.118042	2.777980
474.025055	853.812500	17337.648438	1316.495605	2.806890
474.379456	851.955017	17399.169922	1313.969360	2.792097
474.733795	854.481262	17610.560547	1316.272583	2.755963
475.088104	857.824951	17906.806641	1319.616211	2.708615
475.442383	863.843445	18268.066406	1335.368530	2.709257
475.796570	861.540039	18597.748047	1347.628418	2.740656
476.150787	862.431641	18979.960938	1370.142212	2.802317
476.504944	860.054016	19358.904297	1377.795410	2.798776
476.859070	862.654602	19669.712891	1387.528931	2.790837
477.213135	865.403809	19863.865234	1383.442383	2.726740
477.567200	869.936279	20082.613281	1392.061523	2.717608
477.921173	869.564758	20408.132813	1402.463867	2.727422
478.275146	860.722717	20719.609375	1402.315308	2.727205
478.629089	862.654602	21060.289063	1410.191406	2.710896
478.983002	861.911621	21487.826172	1419.999390	2.705760
479.336823	863.546204	22084.625000	1435.082642	2.693249
479.690643	855.744446	22793.400391	1448.828735	2.703499
480.044403	848.017029	23708.068359	1461.831665	2.685097
480.398163	844.376160	24935.843750	1496.976929	2.708846
480.751862	842.072754	26623.333984	1546.611328	2.732754
481.105499	850.245911	28925.158203	1609.396973	2.704019
481.459137	857.081848	32312.767578	1699.154663	2.677013
481.812744	861.391418	36803.921875	1809.568481	2.638036
482.166290	859.905457	42061.503906	1952.750000	2.652432
482.519806	861.688660	47213.511719	2098.754639	2.668861
482.873291	858.567932	51251.636719	2226.258057	2.714044
483.226715	861.019958	53707.046875	2319.062256	2.759038
483.580139	855.893066	54228.203125	2361.637695	2.821209
483.933502	859.831116	53218.425781	2336.077637	2.819492
484.286804	860.425476	50886.218750	2260.586182	2.798877
484.640106	862.060242	47806.816406	2156.413574	2.757184
484.993347	854.109863	44890.582031	2065.987061	2.751985
485.346558	846.605225	42907.070313	2003.201294	2.749841
485.699738	844.747559	42382.792969	1972.068481	2.713948
486.052887	845.193420	42950.242188	1981.802124	2.699459
486.405975	854.109802	44070.058594	2006.693726	2.667034
486.759064	860.871399	45052.269531	2033.368164	2.653224
487.112061	861.540039	45353.339844	2056.179443	2.685078
487.464996	854.927185	44850.015625	2054.618896	2.726876
487.817963	845.639343	43498.964844	2021.628418	2.757087
488.170868	845.565002	41534.847656	1953.492798	2.722898
488.523743	845.787903	39325.753906	1881.344727	2.691159
488.876587	850.171692	37407.781250	1837.357788	2.700357
489.229401	857.527771	36355.800781	1812.317749	2.689680
489.582153	866.815613	36279.644531	1808.750977	2.659870
489.934845	867.632996	37214.667969	1826.063477	2.636888
490.287537	859.905457	38522.394531	1852.292358	2.634948
490.640198	854.332703	39756.269531	1892.192993	2.667889
490.992798	852.400696	40155.644531	1895.462280	2.653882
491.345337	852.995178	39787.769531	1892.936035	2.670982
491.697876	856.338867	38403.734375	1851.475098	2.650347
492.050354	866.889893	36333.062500	1818.781860	2.683943
492.402832	868.450195	33684.542969	1760.751465	2.719096
492.755219	865.255188	30965.437500	1700.492188	2.774857
493.107605	858.419250	28562.041016	1630.424683	2.786659
493.459930	864.215027	26730.923828	1573.657349	2.742685
493.812225	867.855774	25575.591797	1540.295410	2.721575
494.164490	869.341797	24926.484375	1521.645508	2.711476
494.516724	870.456360	24698.521484	1516.592773	2.711661
494.868896	866.369690	24697.259766	1508.196655	2.693256
495.221039	863.620544	24953.529297	1517.707397	2.715190
495.573120	859.608215	25137.279297	1519.787720	2.719287
495.925201	873.056946	25429.437500	1526.474976	2.660889
496.277222	872.982666	25528.705078	1524.171509	2.641127
496.629211	875.583252	25531.083984	1528.184082	2.646877
496.981140	864.214905	25317.908203	1526.623657	2.708829
497.333069	862.357422	25053.390625	1525.434937	2.741005
497.684967	867.261414	24719.994141	1509.162476	2.691101
498.036804	862.283142	24303.525391	1499.428711	2.718054
498.388580	860.574158	23828.509766	1470.599487	2.655987
498.740326	855.372864	23330.978516	1461.683105	2.697637
499.092072	852.995300	22814.056641	1448.605957	2.712121
499.443756	853.515381	22392.835938	1450.760742	2.772814
499.795410	851.732117	22078.236328	1444.890991	2.794426
500.147003	859.608215	21804.505859	1443.256226	2.786588
500.498566	861.985840	21530.328125	1441.175415	2.802303
500.850098	860.648438	21323.617188	1429.064087	2.777777
501.201599	853.440979	21245.822266	1415.095337	2.754236
501.553009	854.778503	21216.548828	1408.110962	2.717507
501.904449	848.388367	21179.099609	1409.151245	2.758206
502.255859	853.589600	21190.021484	1419.033325	2.780447
502.607178	855.447205	21231.259766	1421.188110	2.776532
502.958405	863.620544	21345.832031	1420.445190	2.718577
503.309692	859.385254	21389.150391	1428.989868	2.774530
503.660919	855.967346	21534.857422	1421.411133	2.734401
504.012115	857.527771	21559.007813	1432.184937	2.775923
504.363251	862.134460	21574.015625	1423.417358	2.709956
504.714294	870.753601	21397.771484	1425.497681	2.702507
505.065369	874.245789	21245.154297	1415.317993	2.656102
505.416443	876.177673	21115.123047	1402.686646	2.601465
505.767395	877.217834	21102.937500	1403.429810	2.601697
506.118317	869.713379	21123.076172	1405.658813	2.646205
506.469238	862.357422	21265.513672	1421.113892	2.738579
506.820160	854.778564	21454.167969	1422.525757	2.756136
507.170929	855.670166	21649.212891	1429.138672	2.757916
507.521729	859.756836	21878.585938	1433.448242	2.729417
507.872498	852.623779	22105.728516	1434.116821	2.736038
508.223236	849.948914	22413.859375	1439.986816	2.736229
508.573883	842.741516	22650.515625	1440.209595	2.739702
508.924500	847.125305	22826.537109	1456.779175	2.773750
509.275116	849.280090	22971.427734	1464.135132	2.779364
509.625702	858.419373	23135.044922	1471.565430	2.752419
509.976196	855.967346	23315.673828	1467.255859	2.721712
510.326660	857.081848	23567.115234	1477.212402	2.730646
510.677124	849.948914	23782.000000	1481.224731	2.752810
511.027557	857.304871	23969.984375	1490.809692	2.740941
511.377869	860.574158	24092.359375	1481.893433	2.674436
511.728180	869.193176	24097.265625	1484.642700	2.649594
512.078430	871.496582	24071.482422	1485.237183	2.645435
512.428650	874.691589	23890.478516	1484.345581	2.648851
512.778931	874.914551	23706.062500	1474.017456	2.624059
513.129028	863.620544	23471.412109	1467.181519	2.669703
513.479126	847.868347	23356.912109	1467.107056	2.751066
513.829285	841.924133	23324.812500	1465.992676	2.775749
514.179382	846.902527	23297.171875	1464.506470	2.750987
514.529297	852.475098	23259.203125	1457.076294	2.698302
514.879272	857.750671	23349.406250	1459.453979	2.675229
515.229187	860.574036	23510.197266	1461.831665	2.654603
515.579163	865.998230	23929.634766	1480.556030	2.664618
515.928955	859.310974	24435.490234	1497.199829	2.705650
516.278748	858.196472	25191.296875	1517.335815	2.708818
516.628540	853.738281	26101.726563	1536.951782	2.706012
516.978333	862.283020	27075.615234	1565.632690	2.683175
517.327942	865.775330	28049.873047	1581.756348	2.633823
517.677612	866.295410	28671.859375	1586.883179	2.591524
518.027222	859.385254	29045.826172	1592.233032	2.600001
518.376831	856.784668	29023.384766	1606.127563	2.660395
518.726379	855.967285	28766.224609	1614.375366	2.717309
519.075867	850.617493	28107.755859	1601.446655	2.754615
519.425293	852.772278	27366.212891	1582.276489	2.751451
519.774658	857.453369	26573.849609	1563.775024	2.746581
520.124084	862.580322	25984.923828	1552.852539	2.747643
520.473389	857.602051	25571.578125	1521.125366	2.684810
520.822693	860.425537	25350.156250	1513.174927	2.665401
521.171997	867.929993	25231.939453	1498.983032	2.590103
521.521240	869.638977	25265.822266	1517.038696	2.653692
521.870361	855.447205	25364.423828	1515.329712	2.692411
522.219482	856.636047	25634.884766	1524.691772	2.696138
522.568604	861.837219	25910.326172	1533.979614	2.683365
522.917664	870.010559	26411.646484	1547.279907	2.651629
523.266724	864.289307	27055.478516	1559.465454	2.654237
523.615662	853.589661	28042.439453	1578.635620	2.666703
523.964600	855.149963	29200.150391	1604.195679	2.642603
524.313538	851.434814	30544.583984	1642.090210	2.662754
524.662354	856.487488	31874.380859	1676.640747	2.644130
525.011169	856.933289	33110.855469	1719.513306	2.674341
525.359985	863.620605	34355.574219	1744.924805	2.631391
525.708740	862.506042	35670.953125	1789.729492	2.663789
526.057434	868.301575	37312.152344	1827.846802	2.632941
526.406067	870.827881	39598.449219	1887.289063	2.624641
526.754700	870.976501	42586.160156	1957.208008	2.603924
527.103333	868.895996	46052.312500	2051.423828	2.617172
527.451782	869.564758	49387.386719	2159.014404	2.657683
527.800293	872.759766	51813.890625	2239.781250	2.683532
528.148743	873.354187	53126.964844	2285.254639	2.702015
528.497131	876.251953	52756.191406	2279.904785	2.705579
528.845642	870.976563	51098.355469	2228.635986	2.703027
529.193909	868.078796	48251.667969	2140.810059	2.686017
529.542175	856.636169	44746.136719	2045.108032	2.707873
529.890503	865.552429	41195.433594	1950.520874	2.690235
530.238770	866.295410	38145.457031	1870.125366	2.692738
530.586914	870.679199	36224.730469	1806.522095	2.647060
530.934998	865.552307	35243.941406	1779.624390	2.658857
531.283142	860.945618	35410.746094	1785.048462	2.674698
531.631226	856.190247	36159.199219	1808.676758	2.698032
531.979248	856.115967	37524.660156	1836.317383	2.673140
532.327148	857.156250	38751.917969	1866.335571	2.663110
532.675110	861.911621	39608.777344	1891.227173	2.656513
533.023071	860.871338	39682.480469	1896.428345	2.667476
533.370850	863.471863	38808.089844	1881.716431	2.683502
533.718689	865.478088	37394.253906	1843.004761	2.676045
534.066467	859.608154	35615.152344	1794.856445	2.690933
534.414246	851.880676	34079.835938	1746.856934	2.693444
534.761963	843.038635	32965.296875	1711.191772	2.702653
535.109619	849.354309	32510.562500	1703.910156	2.699063
535.457153	857.304871	32423.033203	1696.033813	2.657087
535.804749	863.917725	32419.318359	1703.018188	2.659134
536.152344	861.391418	32227.617188	1699.897461	2.673277
536.499817	862.580261	31797.404297	1698.039917	2.700709
536.847229	860.648438	31156.171875	1673.520142	2.683141
537.194641	862.506042	30302.804688	1645.285156	2.658870
537.542114	856.041687	29473.734375	1616.901733	2.658705
537.889404	858.567932	28804.859375	1601.520874	2.658503
538.236694	860.054016	28500.962891	1599.068848	2.673627
538.583984	861.242859	28865.271484	1607.539429	2.664961
538.931213	857.156250	29873.705078	1636.071655	2.684383
539.278381	859.905457	31560.228516	1671.736816	2.644374
539.625488	861.837219	33556.523438	1725.086304	2.640335
539.972595	866.295410	35983.769531	1797.605835	2.651986
540.319641	866.518250	38350.386719	1854.447266	2.635611
540.666687	868.153015	40254.832031	1916.564453	2.661843
541.013611	861.094177	41222.253906	1935.140015	2.661088
541.360596	859.979675	41145.355469	1943.536255	2.689702
541.707458	856.710388	40204.609375	1917.827515	2.696757
542.054260	857.453430	38619.433594	1884.168335	2.718912
542.401062	851.880676	36793.890625	1843.599121	2.759218
542.747864	855.967346	34850.425781	1793.519165	2.757955
543.094666	866.518311	33026.742188	1746.856934	2.737352
543.441284	872.908386	31238.572266	1695.439453	2.708754
543.787903	868.747375	29787.958984	1653.829956	2.714744
544.134460	854.332703	28598.226563	1617.198730	2.749672
544.481079	856.190247	27867.013672	1594.610718	2.733795
544.827637	854.109680	27402.916016	1577.892578	2.726235
545.174072	860.796875	27145.978516	1568.753296	2.693367
545.520508	858.567871	27043.591797	1572.691406	2.727221
545.866943	863.174805	26986.898438	1572.839966	2.716554
546.213318	861.465820	26906.873047	1564.963867	2.701045
546.559631	860.276917	26614.789063	1563.329224	2.729822
546.905823	863.620605	26023.562500	1559.688354	2.766572
547.252136	862.803223	25157.416016	1539.403809	2.784982
547.598389	863.026123	24205.744141	1506.116211	2.754992
547.944458	864.066345	23260.837891	1479.218628	2.746611
548.290588	866.815491	22328.787109	1465.992676	2.791809
548.636658	865.552429	21486.490234	1444.444946	2.807305
548.982727	854.704163	20787.820313	1416.061157	2.816203
549.328735	865.626648	20343.046875	1395.107788	2.718436
549.674622	865.329407	19964.771484	1380.395874	2.696762
550.020569	874.097168	19763.484375	1380.767456	2.682302
550.366455	871.719543	19581.738281	1376.234985	2.696499
550.712280	872.016663	19570.443359	1368.507446	2.655254
551.058044	866.964172	19622.158203	1354.835815	2.601262
551.403748	862.877441	19733.835938	1354.910156	2.607354
551.749512	864.215027	19927.916016	1367.987305	2.642573
552.095154	862.357361	20021.314453	1381.584595	2.710102
552.440735	857.081848	20107.728516	1381.659180	2.724986
552.786316	857.304688	19960.757813	1375.194702	2.710976
553.131897	864.214905	19780.794922	1374.228882	2.696121
553.477417	865.255188	19434.322266	1378.092651	2.761784
553.822815	860.499817	19024.765625	1374.080200	2.827422
554.168213	861.391418	18579.099609	1357.436401	2.799713
554.513672	862.654602	18211.298828	1348.371460	2.799740
554.859009	865.180908	17987.796875	1340.198242	2.774210
555.204285	854.927063	17808.800781	1332.024902	2.814094
555.549500	847.125305	17686.648438	1322.217041	2.821290
555.894714	849.354309	17543.244141	1323.182983	2.838336
556.239990	853.069519	17470.947266	1326.154907	2.846846
556.585022	866.221130	17356.892578	1328.978516	2.806177
556.930115	866.741211	17266.541016	1316.569946	2.742892
557.275146	871.422363	17095.125000	1302.675293	2.658166
557.620178	859.682434	16999.126953	1294.873413	2.696443
557.965149	856.338867	16920.140625	1297.251099	2.744756
558.310059	852.995178	16897.255859	1309.956909	2.848132
558.654968	857.676331	16849.404297	1300.297607	2.767814
558.999756	856.858948	16811.064453	1294.724854	2.744517
559.344604	860.722717	16869.912109	1283.951050	2.643659
559.689331	855.149963	16985.082031	1287.591797	2.680990
560.033997	855.744446	17104.041016	1295.244995	2.704902
560.378723	853.292480	17194.244141	1309.511108	2.791873
560.723389	857.973572	17175.593750	1313.077759	2.789035
561.067932	854.332703	17177.824219	1309.734131	2.789853
561.412476	855.595886	17083.978516	1300.743530	2.743019
561.757019	864.363525	16998.083984	1303.195435	2.719967
562.101501	871.347961	16922.666016	1301.189209	2.677919
562.445862	878.406738	16867.013672	1302.155151	2.650315
562.790222	867.558594	16846.804688	1302.303833	2.720687
563.134644	873.205566	16866.865234	1305.498779	2.702904
563.478943	866.518372	16947.707031	1301.857910	2.707135
563.823181	876.920715	17067.408203	1302.823853	2.630576
564.167358	873.354187	17272.632813	1310.774292	2.667313
564.511536	870.233398	17623.193359	1322.588501	2.700150
564.855774	859.533875	18052.958984	1324.074463	2.701850
565.199768	850.766174	18490.306641	1331.058960	2.722819
565.543823	845.193542	18771.689453	1341.758545	2.770006
565.887817	843.558838	18973.199219	1352.755371	2.808641
566.231812	850.246094	18935.083984	1354.241333	2.786839
566.575745	859.459656	18794.724609	1349.560303	2.732609
566.919617	863.397644	18526.267578	1341.015503	2.704079
567.263428	860.054016	18229.875000	1318.055908	2.636768
567.607239	858.865234	17995.525391	1308.619507	2.624515
567.950989	858.493652	17783.314453	1301.040649	2.614781
568.294678	861.985901	17660.048828	1303.641235	2.629204
568.638367	855.447266	17570.587891	1299.405884	2.656027
568.981995	859.979736	17569.621094	1306.390503	2.671576
569.325623	857.379150	17676.320313	1326.155029	2.787190
569.669128	862.431641	17820.689453	1337.820435	2.803288
570.012573	854.481262	18073.169922	1339.380981	2.816124
570.356140	852.995178	18333.007813	1341.684326	2.795703
570.699524	857.304871	18598.861328	1342.873169	2.736898
571.042908	856.859070	18897.857422	1359.071167	2.783727
571.386230	858.196472	19088.591797	1361.523071	2.760920
571.729492	852.103577	19182.955078	1369.622070	2.823210
572.072815	856.264648	19088.740234	1362.340332	2.775683
572.416016	855.075684	18906.103516	1358.773804	2.790412
572.759094	858.493713	18721.833984	1351.046387	2.757338
573.102234	862.208801	18518.837891	1344.284790	2.730283
573.445374	861.985840	18389.255859	1331.430420	2.678367
573.788391	859.087952	18219.474609	1328.458374	2.703686
574.131409	857.899170	18120.427734	1327.640991	2.721164
574.474365	850.394592	18036.912109	1334.699707	2.817936
574.817261	853.886902	17989.505859	1332.396362	2.792484
575.160156	846.679443	17823.958984	1329.795776	2.845664
575.502930	858.642273	17576.904297	1319.764893	2.758197
575.845703	857.602051	17289.351563	1302.898193	2.709974
576.188477	871.868164	16963.533203	1294.873535	2.628723
576.531250	863.249023	16609.927734	1279.790039	2.645263
576.873901	862.505920	16194.054688	1278.155396	2.711073
577.216431	853.292480	15885.625000	1262.626099	2.723022
577.559082	857.750671	15548.141602	1257.499268	2.721157
577.901611	852.772400	15320.776367	1246.428101	2.720871
578.244080	850.246033	15048.604492	1237.883301	2.730155
578.586487	853.143860	14858.241211	1236.694458	2.738650
578.928955	873.205566	14633.624023	1256.607544	2.786267
579.271301	880.412903	14452.399414	1258.390991	2.784987
579.613647	887.991760	14253.713867	1244.347656	2.666193
579.955872	875.063171	14088.910156	1216.484253	2.583813
580.298157	874.914551	13951.229492	1215.963989	2.608146
580.640320	866.444031	13852.480469	1221.239624	2.732131
580.982483	868.598816	13810.793945	1222.131226	2.731626
581.324524	860.202576	13727.352539	1217.301392	2.775275
581.666626	862.654602	13658.770508	1208.162231	2.700098
582.008728	859.682556	13576.147461	1204.447144	2.711167
582.350647	861.391418	13515.070313	1196.273804	2.646522
582.692566	859.979675	13497.088867	1204.892944	2.729368
583.034424	855.298584	13474.277344	1210.985718	2.818668
583.376343	857.007568	13451.838867	1214.775146	2.840590
583.718201	854.109802	13407.554688	1209.202515	2.828647
584.059937	855.818787	13337.562500	1192.038574	2.693692
584.401611	848.834290	13277.301758	1186.243042	2.714806
584.743347	852.400696	13239.703125	1187.952026	2.708833
585.085022	847.571106	13211.394531	1196.348145	2.820948
585.426514	856.710266	13210.428711	1201.549316	2.791378
585.768127	858.716492	13204.187500	1196.942505	2.739677
586.109619	868.970215	13179.593750	1195.159180	2.649654
586.451172	870.159180	13155.593750	1196.496704	2.656296
586.792542	859.459534	13182.863281	1201.177734	2.772921
587.133850	856.413269	13224.174805	1203.629761	2.807432
587.475220	850.989075	13306.057617	1204.372681	2.837267
587.816589	861.242859	13366.614258	1211.208618	2.798524
588.157776	866.518372	13481.856445	1222.279785	2.820071
588.498962	866.964172	13550.067383	1223.468628	2.810861
588.840210	864.883728	13633.211914	1221.908325	2.796173
589.181335	864.883606	13704.617188	1217.004272	2.742430
589.522400	867.112793	13749.718750	1218.118774	2.724651
589.863403	861.911621	13736.566406	1212.248901	2.721139
590.204407	859.013855	13670.511719	1210.317017	2.742093
590.545410	856.041687	13609.062500	1207.419312	2.755250
590.886353	861.688660	13469.152344	1210.762817	2.768790
591.227112	856.264587	13356.807617	1208.310791	2.816247
591.567932	863.174744	13236.882813	1198.428589	2.709405
591.908752	861.391418	13178.405273	1201.697998	2.762898
592.249512	867.929993	13180.635742	1200.434937	2.700503
592.590149	869.267517	13190.442383	1212.991943	2.789705
592.930786	867.632813	13296.250000	1205.412964	2.717761
593.271423	865.552429	13364.458008	1206.824829	2.730418
593.612000	858.939453	13555.639648	1202.218018	2.703683
593.952576	856.190247	13715.614258	1215.443970	2.793700
594.292969	853.069580	13909.840820	1220.719360	2.815779
594.633484	854.555603	14076.948242	1225.920532	2.808606
594.973877	862.357422	14295.471680	1222.502563	2.681025
595.314209	866.592590	14551.964844	1228.446899	2.644095
595.654480	874.988831	14878.153320	1233.870972	2.562865
595.994812	871.570862	15230.573242	1243.827637	2.592498
596.335022	865.180908	15496.426758	1246.651001	2.607229
596.675171	861.614441	15530.606445	1251.703735	2.659278
597.015320	861.763000	15370.484375	1255.567505	2.714261
597.355408	865.032288	15016.729492	1248.582886	2.710280
597.695496	851.955017	14609.476563	1249.177368	2.887311
598.035461	848.239929	14124.575195	1232.087769	2.891218
598.375366	849.874512	13700.531250	1225.697754	2.924545
598.715271	857.750671	13324.410156	1204.892944	2.784565
599.055176	858.939453	12976.301758	1191.072632	2.740969
599.395081	858.122070	12710.075195	1176.880737	2.689503
599.734802	859.979675	12494.746094	1170.044800	2.664988
600.074524	863.769226	12424.233398	1171.010864	2.657693
600.414246	863.620544	12390.424805	1179.555664	2.740873
600.753906	869.713379	12425.346680	1184.311157	2.722463
601.093506	871.942444	12502.101563	1186.094238	2.701182
601.433044	871.199402	12676.043945	1184.459595	2.653658
601.772583	865.552429	12889.441406	1192.187012	2.716547
602.112122	861.614319	13200.918945	1195.381958	2.704915
602.451538	863.620544	13546.128906	1208.310791	2.717840
602.790894	859.385254	13925.890625	1217.970215	2.744306
603.130310	856.413147	14286.481445	1231.790527	2.795052
603.469604	848.462708	14645.511719	1239.443726	2.833802
603.808838	849.354309	14984.778320	1253.412598	2.858480
604.148010	841.478271	15200.702148	1265.672485	2.954158
604.487305	847.571106	15211.252930	1269.833374	2.939791
604.826416	853.292419	15069.112305	1261.511597	2.871584
605.165527	862.951721	14749.833008	1257.796509	2.843294
605.504456	868.524475	14422.604492	1249.920410	2.813883
605.843445	860.128357	13974.708008	1233.053711	2.843594
606.182434	854.555664	13543.454102	1207.642212	2.782641
606.521423	851.657898	13118.218750	1195.828125	2.805760
606.860229	857.379150	12835.051758	1192.930176	2.801471
607.199036	862.951843	12694.768555	1190.849731	2.771323
607.537903	862.431641	12715.796875	1189.661011	2.760645
607.876648	860.722656	12847.609375	1194.119141	2.781343
608.215271	857.304749	13072.375000	1210.242798	2.889366
608.553955	848.165527	13311.183594	1218.639038	2.972583
608.892578	840.809570	13497.832031	1221.982544	3.011553
609.231140	841.552551	13573.027344	1214.477905	2.929161
609.569641	841.552551	13539.144531	1213.586426	2.929956
609.908081	845.044861	13407.628906	1211.803101	2.919449
610.246521	850.023132	13174.762695	1214.775146	2.959511
610.584961	854.109802	12892.487305	1199.022949	2.865113
610.923340	855.670105	12567.190430	1197.388306	2.917795
611.261597	853.366699	12208.976563	1193.970459	2.999432
611.599854	858.047852	11893.338867	1191.741333	3.023876
611.938110	862.654602	11640.487305	1174.800293	2.896182
612.276245	867.112793	11510.829102	1163.134644	2.781189
612.614319	866.964172	11346.916992	1162.391724	2.818978
612.952393	865.775391	11201.581055	1153.624023	2.784966
613.290466	861.985901	11065.977539	1146.268188	2.785991
613.628479	857.007629	10914.326172	1135.419922	2.768256
613.966370	857.750549	10798.934570	1137.351807	2.812555
614.304260	863.397644	10687.183594	1138.986450	2.805322
614.642151	859.905334	10577.809570	1135.642700	2.837416
614.979980	865.626648	10493.847656	1140.398071	2.853813
615.317749	864.140625	10422.368164	1135.494019	2.838951
615.655396	872.685486	10411.222656	1142.478638	2.828454
615.993164	865.775391	10411.445313	1135.865601	2.829453
616.330811	862.506042	10402.751953	1136.534302	2.872339
616.668396	862.803223	10396.659180	1132.819214	2.832181
617.005859	866.369812	10375.483398	1134.305298	2.817671
617.343445	868.524475	10348.881836	1125.017456	2.705520
617.680908	870.902161	10360.696289	1122.342651	2.649589
618.018311	871.719543	10343.904297	1126.949341	2.694519
618.355652	869.193298	10339.743164	1133.785156	2.793839
618.692993	866.741272	10284.610352	1136.237183	2.861538
619.030273	858.345032	10270.493164	1135.865723	2.948537
619.367554	865.775330	10235.868164	1134.602661	2.868993
619.704712	859.013733	10215.806641	1132.447876	2.922306
620.041870	863.397644	10201.837891	1122.937012	2.779258
620.379028	857.973450	10187.051758	1115.209595	2.757359
620.716064	863.471863	10191.287109	1116.398438	2.711531
621.053040	858.567932	10139.573242	1113.054810	2.742018
621.389954	858.493652	10100.339844	1119.667847	2.825996
621.726929	857.379089	10061.925781	1109.116821	2.734928
622.063843	862.134460	10058.656250	1107.853516	2.671870
622.400635	860.871338	10054.124023	1104.212769	2.646957
622.737427	861.911560	10031.165039	1112.609009	2.734110
623.074219	866.369690	10044.985352	1115.803955	2.717559
623.410889	867.409973	10069.504883	1121.079468	2.756649
623.747559	868.747375	10123.597656	1120.484985	2.720061
624.084167	863.174744	10168.922852	1125.314697	2.816968
624.420715	862.951843	10276.512695	1127.989624	2.815489
624.757324	857.973572	10392.202148	1130.441650	2.857788
625.093750	860.202576	10570.528320	1133.933716	2.818969
625.430176	858.196472	10762.229492	1138.689209	2.832106
625.766602	860.871338	10971.687500	1141.958496	2.780064
626.102905	855.447266	11168.887695	1142.255737	2.780920
626.439209	860.054016	11272.987305	1145.376465	2.740077
626.775452	853.515320	11345.356445	1145.079224	2.778959
627.111694	856.933289	11274.621094	1151.469238	2.827268
627.447876	852.029297	11182.485352	1150.651978	2.890702
627.783997	859.088074	11010.846680	1151.469116	2.880102
628.120056	868.598816	10890.401367	1142.924316	2.737287
628.456055	872.611145	10719.875977	1129.995728	2.613767
628.792053	875.434631	10551.358398	1121.376587	2.541793
629.128052	864.883606	10370.876953	1119.147583	2.674776
629.463928	865.700989	10274.581055	1114.243530	2.641574
629.799744	871.570984	10210.680664	1115.506836	2.611982
630.135559	870.382080	10118.619141	1104.361450	2.529989
630.471375	858.716492	9986.583008	1108.002075	2.731039
630.807068	849.280090	9881.742188	1113.129150	2.921120
631.142700	852.400818	9832.776367	1123.234253	3.015836
631.478333	860.574036	9760.851563	1118.776001	2.901055
631.813965	863.992004	9680.975586	1111.642944	2.808794
632.149475	864.066406	9604.370117	1104.064087	2.745873
632.484924	875.508972	9625.768555	1103.692749	2.607737
632.820435	875.806152	9688.926758	1102.429565	2.571432
633.155884	870.753601	9752.381836	1108.002319	2.671230
633.491150	861.391418	9782.993164	1109.042480	2.775859
633.826477	853.961182	9738.932617	1103.989868	2.814063
634.161804	857.973450	9683.502930	1091.804199	2.649481
634.497009	856.487488	9560.606445	1089.575073	2.677900
634.832153	855.001465	9479.541992	1090.540894	2.731037
635.167297	850.840515	9390.898438	1094.999146	2.858981
635.502380	847.051025	9326.031250	1093.884644	2.911124
635.837463	848.165527	9205.958008	1093.438843	2.934666
636.172424	856.115967	9075.706055	1092.398560	2.874628
636.507324	856.858948	8967.297852	1087.345947	2.841856
636.842224	857.601990	8897.378906	1081.996216	2.791050
637.177124	856.264465	8819.733398	1082.144897	2.836458
637.511963	856.115906	8731.089844	1078.058105	2.818323
637.846741	860.053955	8657.975586	1076.349243	2.773756
638.181396	855.818787	8580.106445	1067.284302	2.737670
638.516113	858.567932	8505.877930	1067.953003	2.738023
638.850769	863.174744	8434.844727	1066.466919	2.684905
639.185303	868.895996	8376.219727	1073.302856	2.722766
639.519836	866.072510	8331.860352	1072.782715	2.768766
639.854370	865.255188	8286.165039	1072.634155	2.794522
640.188843	862.060120	8241.954102	1066.466919	2.769780
640.523254	862.283020	8235.788086	1065.798218	2.760088
640.857605	865.106628	8180.357910	1068.770386	2.784098
641.191895	860.351257	8134.067871	1062.826172	2.783651
641.526184	863.992004	8052.111816	1056.956177	2.684488
641.860413	853.515381	8003.146484	1050.268921	2.751940
642.194580	863.843506	7961.165527	1043.730347	2.534573
642.528748	857.602051	7924.904785	1036.374390	2.529570
642.862793	864.660828	7860.187500	1042.392944	2.540654
643.196838	862.951843	7817.240723	1050.566284	2.697824
643.530823	866.072571	7778.677246	1057.030518	2.762460
643.864746	861.168518	7778.380371	1050.640503	2.739138
644.198669	859.905457	7800.894043	1052.572266	2.775783
644.532532	861.168518	7813.153809	1056.659058	2.812010
644.866333	860.871338	7856.843750	1049.823120	2.700865
645.200073	860.054016	7851.791504	1057.030396	2.817274
645.533813	861.465637	7861.525391	1055.098511	2.766160
645.867554	864.660828	7854.243652	1060.002563	2.794755
646.201172	864.735046	7863.902832	1054.801392	2.715556
646.534729	862.431641	7875.122559	1059.110962	2.804620
646.868225	857.230469	7875.345215	1054.429932	2.809864
647.201782	845.936523	7882.850098	1050.491821	2.906889
647.535217	837.688904	7888.645996	1055.618774	3.090784
647.868591	837.540283	7877.796875	1067.432983	3.265402
648.201965	846.679504	7844.881348	1074.714478	3.258480
648.535278	853.441101	7805.426270	1070.404907	3.120890
648.868591	860.797058	7806.021484	1066.912720	2.967732
649.201782	857.899170	7815.458496	1062.380371	2.938979
649.534912	859.162415	7823.408203	1067.358521	2.989500
649.868103	852.029297	7817.538574	1071.148071	3.145768
650.201172	859.682434	7808.695313	1072.336914	3.060211
650.534180	862.728943	7797.698730	1062.528931	2.881051
650.867188	869.564697	7786.404785	1056.658936	2.704909
651.200134	872.908386	7791.011719	1052.795288	2.600234
651.533020	868.821716	7775.853516	1050.937622	2.636674
651.865845	863.546204	7756.535156	1048.857178	2.688398
652.198608	852.400879	7725.923340	1051.457886	2.895997
652.531433	850.989075	7703.482910	1051.457764	2.925485
652.864136	855.001465	7674.505371	1054.801392	2.929831
653.196777	960.659851	7738.107910	1152.212280	2.826321
653.529358	970.987976	7688.919434	1148.571533	2.643426
653.861938	965.563904	7605.031250	1140.472534	2.634377
654.194519	864.214905	7416.377441	1031.693237	2.556077
654.526978	858.419250	7354.260254	1029.315552	2.630857
654.859375	865.849609	7317.628906	1031.990479	2.575117
655.191833	872.165344	7312.799316	1039.197876	2.593418
655.524170	870.753601	7331.003906	1045.364990	2.702858
655.856445	867.484192	7360.056152	1044.696167	2.729457
656.188660	872.016785	7389.703125	1051.531982	2.754278
656.520874	873.725647	7414.891113	1052.349365	2.730763
656.853088	870.382019	7468.018066	1053.835449	2.780593
657.185181	860.054016	7542.246094	1048.337036	2.817683
657.517212	859.608154	7684.387207	1043.061523	2.688048
657.849243	863.397644	7870.069824	1048.634277	2.643718
658.181274	864.660828	8090.823730	1050.937622	2.577811
658.513123	861.837219	8305.038086	1061.934570	2.688324
658.844971	860.499817	8495.847656	1067.432983	2.710200
659.176819	857.453430	8597.494141	1073.822876	2.795456
659.508667	856.858948	8610.422852	1082.590698	2.911329
659.840393	858.047852	8565.246094	1084.448242	2.937519
660.172058	856.264465	8474.745117	1081.624756	2.958074
660.503662	861.019836	8325.545898	1071.222290	2.816019
660.835266	860.648376	8131.392578	1060.374146	2.746978
661.166931	864.140625	7932.484375	1062.677368	2.808816
661.498413	865.923889	7770.504395	1058.293701	2.786119
661.829773	866.964172	7590.914551	1057.773560	2.837757
662.161194	867.632813	7397.281738	1046.405273	2.737857
662.492615	862.283020	7204.763672	1043.730347	2.860826
662.823975	858.047852	7073.767578	1041.055420	2.944270
663.155212	855.075684	6978.511230	1041.575562	3.045674
663.486450	857.601990	6918.400879	1043.507446	3.067343
663.817627	860.722717	6845.435547	1040.906860	3.010740
664.148743	856.859070	6794.686035	1042.541626	3.127113
664.479858	854.555664	6741.114746	1038.454956	3.124054
664.810913	855.744446	6707.826660	1033.327881	3.034534
665.141907	860.351257	6692.669434	1027.012207	2.857542
665.472778	858.790833	6682.117676	1026.194824	2.874714
665.803711	859.905457	6709.981934	1036.002930	3.010174
666.134583	864.958008	6705.894531	1033.030762	2.877497
666.465454	865.478088	6707.603516	1031.470337	2.841299
666.796143	861.688660	6688.730469	1020.102051	2.718590
667.126831	863.323303	6687.765625	1019.582031	2.682810
667.457458	871.273743	6676.842285	1020.919434	2.577623
667.788147	870.456360	6677.140137	1022.999817	2.627032
668.118774	871.125183	6690.439941	1018.838867	2.538335
668.449219	865.255188	6714.514160	1016.832703	2.591397
668.779663	866.369690	6698.242188	1014.529297	2.540515
669.110107	853.886902	6696.458984	1021.067932	2.861428
669.440552	851.732117	6684.570313	1021.959656	2.918434
669.770874	853.218201	6651.654297	1021.885437	2.908840
670.101135	857.304749	6600.384766	1019.136169	2.817851
670.431396	859.608154	6544.138184	1014.009277	2.716163
670.761597	855.298645	6495.172363	1015.643860	2.843064
671.091797	856.710388	6464.411621	1016.386902	2.847450
671.421875	861.688660	6430.529297	1013.266174	2.721886
671.751892	869.936218	6409.947266	1010.442688	2.536213
672.081909	877.812317	6359.050293	1009.625305	2.404803
672.411865	874.765930	6297.824219	1014.306458	2.573097
672.741821	874.171570	6253.391113	1014.603699	2.610641
673.071716	869.341858	6228.871094	1013.191956	2.684006
673.401550	867.781494	6196.103516	1014.529358	2.754110
673.731262	863.100403	6186.295410	1022.331116	2.991262
674.060974	857.379089	6149.218750	1018.987488	3.053917
674.390625	858.047852	6154.568848	1016.684082	2.995102
674.720276	854.184082	6125.888184	1006.876160	2.896446
675.049927	864.140686	6114.593750	1010.739929	2.792125
675.379395	862.283142	6082.197754	999.594482	2.630528
675.708923	864.660828	6049.132813	999.520264	2.601218
676.038330	856.710388	6032.117676	1005.464539	2.874250
676.367737	858.865173	6023.943848	1013.414856	2.992204
676.697083	859.385254	6017.925781	1015.792480	3.032005
677.026428	858.939453	6021.046875	1009.105286	2.909003
677.355652	853.515320	6042.000000	1008.213562	2.981569
677.684875	857.007568	6119.126465	1014.009216	2.983620
678.013977	858.716553	6189.044922	1015.643799	2.944045
678.343079	868.301575	6271.446777	1024.634399	2.893367
678.672180	871.347961	6332.003418	1019.359070	2.710501
679.001221	867.335693	6393.005859	1013.786377	2.650370
679.330139	861.688660	6458.169434	1010.145508	2.652682
679.659058	860.574036	6539.085449	1013.563477	2.694182
679.987976	861.837219	6641.028809	1016.238281	2.671672
680.316772	859.236633	6673.796387	1017.798645	2.726982
680.645630	853.663879	6664.434082	1016.461243	2.801649
680.974304	859.310974	6617.846191	1018.764648	2.768997
681.302979	855.447266	6579.060059	1019.953430	2.874166
681.631653	864.735107	6511.593262	1025.749023	2.851389
681.960266	866.295471	6424.733887	1022.999817	2.819215
682.288757	871.273682	6342.108887	1023.074158	2.774722
682.617249	863.694824	6273.155762	1017.055664	2.835048
682.945679	860.871277	6194.617676	1018.021667	2.946342
683.274109	870.159180	6107.832031	1008.139404	2.634380
683.602478	875.806152	5982.111816	1003.012451	2.491161
683.930725	873.799988	5889.233887	1004.424255	2.604446
684.259033	860.797058	5797.915527	1001.006287	2.839900
684.587280	853.292419	5775.104980	998.628601	2.952900
684.915344	852.400818	5749.321777	993.798828	2.887488
685.243469	858.493652	5757.717285	992.907227	2.743569
685.571533	860.797058	5726.361816	992.015625	2.696882
685.899536	861.837219	5715.365234	990.752441	2.656114
686.227539	856.710388	5685.347168	991.272522	2.786752
686.555420	853.961182	5689.507813	1003.532532	3.093163
686.883301	851.955078	5703.253906	1002.418030	3.101498
687.211121	855.818787	5739.662109	1004.647156	3.047362
687.538940	858.345032	5762.398926	1000.411926	2.896928
687.866638	858.790833	5760.169434	1002.343750	2.928828
688.194336	854.035583	5730.597656	998.851563	2.969633
688.521973	853.069519	5688.467285	994.096130	2.916546
688.849609	848.091248	5614.387207	988.895020	2.954155
689.177063	855.967285	5538.970215	989.860840	2.859139
689.504578	858.122070	5481.237793	992.832947	2.913855
689.832031	859.162354	5419.417480	1000.188904	3.092515
690.159485	856.264587	5334.638184	1002.120789	3.256901
690.486816	849.651672	5257.214844	996.696716	3.336198
690.814087	859.236755	5214.639160	996.102295	3.142431
691.141296	859.013855	5184.026855	992.164246	3.078612
691.468506	861.465759	5136.695801	986.591492	2.926760
691.795715	861.168457	5086.913086	977.675232	2.757071
692.122803	861.242859	5056.597656	981.687500	2.870905
692.449829	859.905334	5037.873047	981.241699	2.904196
692.776855	859.311035	5000.127441	977.229309	2.847706
693.103821	855.372986	4978.653809	965.861023	2.679615
693.430664	870.159180	4948.486816	961.923035	2.250036
693.757568	868.970398	4925.378418	964.597900	2.357443
694.084351	874.988831	4892.462402	966.455505	2.276721
694.411133	865.329407	4884.512207	971.285156	2.636251
694.737854	862.654602	4866.977051	972.251038	2.736953
695.064575	861.837219	4853.379395	974.405823	2.820178
695.391174	861.465759	4840.302246	969.576172	2.717136
695.717773	863.843445	4865.342285	967.347107	2.586622
696.044250	860.202637	4924.264160	974.405945	2.810078
696.370789	861.317078	4988.981934	977.972473	2.826184
696.697205	855.447205	5103.333496	980.573059	2.945603
697.023621	859.236633	5240.868164	980.870300	2.775990
697.349915	858.567871	5431.751953	990.678223	2.888805
697.676208	865.106628	5631.179688	998.479980	2.798391
698.002380	862.580261	5847.623535	1002.715271	2.811109
698.328674	862.580261	6068.154785	1000.634766	2.652051
698.654724	857.007629	6193.429199	999.222961	2.664994
698.980896	856.190247	6271.520996	997.365417	2.606954
699.306946	846.753723	6227.830566	993.724609	2.731254
699.632935	848.908630	6165.416504	998.405701	2.811941
699.958862	847.496887	6021.195313	1001.526367	2.977164
700.284729	857.007629	5855.500000	1007.470642	3.010168
700.610596	856.264587	5660.826660	999.891785	2.989392
700.936340	856.413086	5468.160156	990.455322	2.906539
701.262146	853.292419	5286.192871	983.619446	2.939995
701.587830	852.029297	5140.410645	984.808289	3.096250
701.913513	859.236633	5010.009766	979.532715	2.898161
702.239075	864.289246	4898.109863	971.210876	2.650629
702.564697	867.558533	4795.349121	961.923035	2.402483
702.890137	856.784668	4704.104980	955.235840	2.558954
703.215698	855.670105	4617.468262	961.774414	2.820574
703.541016	856.338867	4551.562012	951.817871	2.583849
703.866455	857.676331	4497.469238	952.189392	2.596660
704.191711	853.441101	4474.435059	941.415527	2.429566
704.517029	857.824890	4440.776367	946.096619	2.463660
704.842163	866.518311	4402.213379	950.406189	2.372599
705.167419	872.016785	4358.969238	944.981995	2.092521
705.492493	862.580322	4329.396973	947.805481	2.458312
705.817566	858.493652	4311.415527	953.229553	2.743644
706.142578	852.549500	4290.462402	962.443115	3.196521
706.467590	859.459534	4281.099609	961.551514	2.983715
706.792480	858.865173	4264.827637	952.783752	2.757476
707.117371	856.561707	4269.805664	951.000488	2.766834
707.442200	862.505920	4272.629395	957.093262	2.773722
707.766907	866.146790	4293.136719	962.517395	2.812106
708.091675	871.793762	4303.613281	961.179993	2.604631
708.416321	864.289246	4315.130371	960.139832	2.777601
708.741028	857.750671	4326.721191	954.121277	2.778075
709.065552	854.555664	4347.675293	952.412292	2.801411
709.390137	851.360596	4378.213379	949.960266	2.795684
709.714600	843.707336	4398.423828	957.464844	3.200185
710.039063	850.394592	4435.872559	967.792969	3.274274
710.363403	852.920898	4449.395508	967.570007	3.187819
710.687744	861.317139	4503.488281	964.746521	2.839773
711.012085	861.019836	4547.698242	956.721863	2.595887
711.336304	857.750549	4610.483887	961.848694	2.773929
711.660461	862.654602	4633.963379	961.328613	2.616439
711.984619	854.407043	4624.378418	962.666016	2.871613
712.308716	858.939453	4563.970215	962.443115	2.793598
712.632751	858.196472	4507.648926	959.471008	2.775061
712.956726	864.883606	4446.869141	965.117981	2.798291
713.280701	861.837219	4411.798340	962.888977	2.846560
713.604553	869.639099	4364.541504	963.260498	2.678799
713.928467	860.499817	4343.811035	957.762024	2.792234
714.252258	856.116028	4322.783691	956.276062	2.889231
714.575989	850.097473	4321.223145	956.350281	3.061048
714.899719	856.115967	4296.703613	959.025146	2.991035
715.223267	866.741272	4296.257813	955.904480	2.599877
715.546936	857.676331	4296.332031	956.796143	2.882516
715.870422	857.081848	4301.756348	950.926270	2.724334
716.193970	855.967285	4273.446777	946.765198	2.656868
716.517395	862.803223	4241.570801	948.028320	2.522372
716.840820	857.081848	4202.784668	946.839539	2.682775
717.164124	849.725891	4173.509766	951.743469	3.069320
717.487488	848.314148	4115.033691	945.724915	2.981914
717.810730	852.475098	4048.384033	947.656921	2.978240
718.133972	853.961182	3965.610352	941.415466	2.810544
718.457092	856.487488	3895.840576	946.542297	2.962960
718.780212	858.939453	3834.020508	947.062500	2.962039
719.103210	857.156250	3797.463623	943.347351	2.931364
719.426208	858.196472	3760.163818	933.687988	2.601391
719.749207	857.824890	3729.699463	930.715881	2.538098
720.072083	859.459473	3700.647217	936.288574	2.704119
720.394958	849.874512	3674.120850	940.821106	3.220207
720.717773	851.583435	3637.861084	939.260742	3.146754
721.040527	847.199646	3609.254639	941.118347	3.400320
721.363281	854.109680	3583.991455	943.124512	3.260758
721.685913	853.663879	3581.093994	949.663086	3.519768
722.008545	857.750488	3554.567627	950.183167	3.427473
722.331055	855.075623	3540.524658	947.879700	3.455812
722.653503	862.951843	3525.738281	942.975830	3.005272
722.976013	862.208801	3522.766357	940.672363	2.949140
723.298401	868.747375	3524.549561	938.963440	2.643874
723.620789	856.636047	3522.840576	931.607483	2.811916
723.943115	861.614441	3511.917969	937.328796	2.856818
724.265381	859.756836	3492.525146	941.712708	3.112916
724.587585	866.518372	3484.797607	951.297791	3.237982
724.909790	862.208801	3487.769531	950.406189	3.359183
725.231873	862.060242	3480.636719	946.839539	3.237610
725.553894	861.391418	3481.156982	943.198730	3.122696
725.875916	912.140137	3536.512451	991.421204	3.020953
726.197937	905.378601	3554.270752	993.650208	3.332397
726.519775	903.669678	3559.323486	993.724609	3.391064
726.841675	859.831116	3525.887451	939.706543	2.996014
727.163513	866.666992	3556.425781	932.945007	2.464088
727.485291	860.722717	3600.487061	941.861328	2.961518
727.806946	856.115967	3641.873291	941.489746	3.064652
728.128662	853.292480	3655.842529	942.529968	3.184153
728.450256	857.824890	3657.997070	935.025391	2.756991
728.771790	857.676331	3653.984619	935.694153	2.790029
729.093323	871.793762	3661.563721	935.694153	2.290525
729.414795	874.691589	3664.387451	933.390808	2.104144
729.736145	877.143616	3659.037354	935.991394	2.115386
730.057495	860.871277	3652.276123	943.793152	2.970614
730.378845	867.112793	3647.669189	948.622864	2.931430
730.700134	868.598877	3660.375000	938.814941	2.515104
731.021301	872.982727	3694.108398	939.557922	2.359880
731.342468	868.153015	3740.918945	938.814880	2.459715
731.663574	870.604980	3782.751709	943.273132	2.495347
731.984680	866.444031	3790.627686	937.254578	2.421549
732.305664	857.304871	3778.590576	931.904785	2.553667
732.626648	845.416321	3744.039795	936.288574	3.135014
732.947571	844.301819	3728.584717	943.793274	3.449435
733.268433	853.143860	3698.863525	949.440247	3.383903
733.589233	850.989075	3683.111328	944.759094	3.310945
733.909973	851.880676	3664.981689	939.929443	3.129954
734.230713	849.725891	3627.458984	939.929382	3.247378
734.551331	853.143860	3576.561768	935.396973	3.020216
734.871948	853.143860	3513.627197	935.322693	3.088868
735.192505	855.967346	3479.001953	930.716003	2.849701
735.513062	866.444031	3428.104736	928.486816	2.421975
735.833435	874.022949	3376.538330	919.124695	1.802256
736.153931	869.193176	3326.904297	919.496155	2.046741
736.474304	862.654602	3316.204834	926.554871	2.604400
736.794617	860.128235	3307.288330	928.189514	2.781235
737.114807	861.317139	3314.718750	928.635315	2.743871
737.434998	863.100403	3310.037842	925.291748	2.541599
737.755188	867.855774	3321.034424	934.579590	2.719892
738.075256	876.400635	3334.037354	933.762268	2.334016
738.395325	875.508972	3353.653076	943.718933	2.752461
738.715271	873.279846	3379.584961	940.672546	2.688926
739.035278	865.552307	3373.269531	938.071838	2.891854
739.355164	866.444031	3371.560547	931.087402	2.580454
739.675049	867.261414	3347.337646	922.245361	2.217026
739.994873	863.323303	3343.547852	921.205139	2.333734
740.314636	857.973572	3314.272705	922.171082	2.613587
740.634277	853.589661	3282.619873	930.567322	3.169070
740.953979	856.784668	3243.388428	933.762390	3.225409
741.273499	862.431641	3206.756836	929.898621	2.877885
741.593140	864.660828	3185.654541	934.802490	3.022053
741.912598	860.722656	3161.506104	931.458923	3.074443
742.232117	859.979675	3133.048828	918.604492	2.579104
742.551453	857.527649	3096.937500	913.180420	2.485153
742.870850	854.406982	3054.733643	911.768738	2.606966
743.190063	855.150085	3022.188721	921.279480	3.051602
743.509338	856.487366	2987.861328	912.660400	2.635531
743.828552	865.626709	2969.434326	908.870911	2.055521
744.147705	864.437805	2956.876953	910.282654	2.190976
744.466797	871.199402	2938.672607	916.449707	2.188677
744.785828	873.948547	2936.815186	919.719055	2.218782
745.104858	877.440735	2918.387939	920.016357	2.086072
745.423706	869.639099	2923.514893	917.267151	2.318935
745.742615	871.348083	2901.149658	919.570557	2.375724
746.061401	869.341858	2905.905029	918.604492	2.418910
746.380249	869.193298	2894.536865	921.650940	2.590061
746.698975	861.837219	2905.385010	921.205078	2.905137
747.017639	862.357361	2895.577148	921.873840	2.927203
747.336304	860.425537	2880.641846	918.604553	2.879841
747.654907	855.818665	2873.063232	919.719055	3.167706
747.973389	849.354431	2874.994873	922.691162	3.620422
748.291931	843.707336	2886.437500	917.118469	3.593775
748.610352	846.828125	2882.499756	906.864685	2.949226
748.928711	859.162292	2884.431641	903.595398	2.193936
749.247070	870.159180	2885.843506	910.356934	1.994249
749.565308	872.685547	2872.914795	919.124695	2.321691
749.883545	869.044678	2862.215088	915.632507	2.337373
750.201782	865.403809	2855.899414	917.415710	2.613013
750.519836	859.533875	2860.802979	916.301086	2.836561
750.837952	850.617493	2854.264404	924.177246	3.671293
751.155884	849.725891	2842.301758	925.291748	3.792370
751.473877	853.515320	2814.364014	922.839783	3.535432
751.791809	854.184021	2807.973877	918.084412	3.270587
752.109619	862.580261	2797.125977	915.186584	2.719311
752.427490	865.775208	2805.225342	916.598389	2.620494
752.745300	865.329529	2818.079346	919.644775	2.781475
753.062988	856.413269	2831.305420	917.787292	3.107715
753.380615	857.081970	2835.614990	915.260925	2.940510
753.698303	860.276855	2819.862549	911.545715	2.616311
754.015808	859.682434	2813.843750	912.140137	2.684410
754.333374	857.602051	2804.407471	913.626282	2.877752
754.650757	854.927185	2794.599609	922.245361	3.470595
754.968262	856.933350	2787.615234	923.657166	3.455971
755.285583	857.899231	2789.621094	925.886230	3.519502
755.602905	863.397644	2793.930908	916.672668	2.759602
755.920105	860.276855	2782.042236	911.545715	2.667800
756.237305	861.465759	2779.218994	908.053528	2.429289
756.554443	859.831055	2775.875000	907.384766	2.481869
756.871582	866.666992	2783.751221	910.654053	2.294477
757.188599	864.437927	2797.125732	907.979187	2.252887
757.505615	863.917786	2818.748047	905.527161	2.128541
757.822510	865.775330	2842.599365	905.081360	1.988342
758.139465	867.484192	2878.635986	910.654114	2.146527
758.456238	857.899170	2896.542969	922.691162	3.178191
758.773010	853.069519	2920.245361	923.954346	3.429066
759.089783	847.868347	2918.908203	920.239258	3.494424
759.406433	854.035461	2933.620117	909.836731	2.683289
759.723145	852.103699	2934.957275	901.069092	2.350880
760.039673	853.218201	2942.461914	903.372559	2.400599
760.356201	854.852844	2958.437256	905.824524	2.423087
760.672668	856.784668	2968.319336	915.558105	2.783447
760.989136	865.923889	2968.319336	914.815125	2.325501
761.305481	873.279968	2964.901611	917.564392	2.117229
761.621826	872.016785	2954.350342	914.220703	2.026761
761.938049	865.106628	2970.325439	925.663330	2.876504
762.254333	854.852844	2997.966064	930.047180	3.508650
762.570496	855.224304	3102.658936	934.282471	3.517707
762.886597	854.852783	3252.824463	928.561096	3.073777
763.202637	854.852844	3466.519287	928.486816	2.819425
763.518677	858.939453	3713.278564	933.985168	2.629180
763.834656	863.397644	3929.425049	946.096497	2.697264
764.150574	866.518311	4060.049072	956.201660	2.808282
764.466370	857.750671	4075.281250	959.173828	3.152205
764.782288	853.961182	3969.028320	955.830261	3.270205
765.097961	858.642273	3809.351807	949.886047	3.092266
765.413696	863.100403	3602.196045	951.520691	3.228083
765.729309	867.632813	3428.178955	943.496033	2.962775
766.044861	865.552429	3272.960693	939.855164	3.086420
766.360474	871.199402	3163.884521	929.452820	2.540838
766.675903	867.558594	3080.219482	925.737610	2.629369
766.991394	864.512207	3021.891602	925.737610	2.837953
767.306763	859.088074	2969.731201	925.440369	3.143700
767.622131	855.670105	2921.508789	922.022461	3.211885
767.937378	855.447266	2868.605225	918.084412	3.111387
768.252625	863.620544	2809.757080	921.056458	2.951279
768.567810	863.323303	2751.727295	923.731445	3.198899
768.882996	865.106628	2710.489014	922.022461	3.084230
769.197998	856.116028	2681.733887	913.180481	3.125761
769.513062	851.286316	2685.003174	916.226868	3.541471
769.828064	852.920898	2667.541992	911.025635	3.202031
770.142944	861.168518	2663.752686	909.613953	2.687555
770.457825	865.552429	2624.594971	897.725525	1.829012
770.772705	861.911621	2595.988525	897.799805	2.069584
771.087402	851.286316	2564.409912	903.446777	3.044758
771.402100	853.069519	2550.143799	907.013367	3.178638
771.716736	861.317139	2524.955078	908.053528	2.809289
772.031372	862.877502	2495.382568	909.242493	2.840113
772.345947	868.524475	2466.850342	908.945129	2.528937
772.660461	865.032227	2452.955811	904.784241	2.503396
772.974854	869.267517	2453.624512	898.171326	1.824324
773.289246	865.478027	2454.961914	903.372559	2.384078
773.603638	868.821716	2441.810303	907.459167	2.456309
773.917908	859.310852	2422.491455	907.979248	3.113421
774.232178	862.506042	2401.463867	909.539612	3.056196
774.546265	856.338867	2395.891113	909.316711	3.441120
774.860474	858.865173	2390.764404	911.768738	3.453463
775.174561	860.054016	2387.718018	905.601563	2.981516
775.488586	861.242859	2383.928467	908.796570	3.123016
775.802551	865.998230	2371.148682	908.276550	2.808910
776.116516	864.289246	2343.210693	903.000977	2.617565
776.430359	866.518311	2335.557617	907.384766	2.781849
776.744202	873.354187	2327.904297	913.106140	2.732938
777.057922	874.765930	2338.232422	916.226868	2.833064
777.371704	877.292175	2332.436768	905.378662	1.930151
777.685303	869.267578	2325.006592	890.295227	1.444466
777.998962	868.450195	2319.210938	887.917542	1.341872
778.312500	861.762939	2308.214111	879.446960	1.222580
778.626038	861.168640	2297.811768	891.558350	2.115328
778.939453	858.419434	2286.146240	896.908142	2.695803
779.252869	855.298645	2285.031494	908.350769	3.710632
779.566223	853.441101	2284.139893	903.966980	3.531553
779.879578	848.982910	2290.901367	900.325989	3.560748
780.192749	848.908630	2284.363037	901.514893	3.664781
780.505920	849.280090	2281.019043	906.493164	3.996055
780.819031	851.360535	2267.718994	908.053528	4.002729
781.132141	864.363525	2269.353516	905.007080	2.892800
781.445190	866.815613	2273.737549	895.124817	2.012138
781.758118	863.174744	2281.836670	894.158875	2.184039
782.071045	864.215027	2273.663330	901.291992	2.630601
782.383911	871.050842	2261.626465	898.468506	1.971677
782.696838	880.115723	2240.004150	898.988586	1.387824
783.009583	871.645203	2216.747314	887.991882	1.215274
783.322266	863.917725	2198.246094	889.032043	1.882169
783.634888	861.540100	2185.168701	882.270508	1.566180
783.947510	856.710388	2178.110107	882.493408	1.951190
784.260132	851.880676	2167.187256	889.998047	2.897984
784.572571	847.422546	2153.738525	900.103210	4.032766
784.885010	854.035461	2143.707764	905.007141	3.952297
785.197449	863.546204	2141.404297	906.047363	3.325969
785.509766	866.295410	2151.955566	904.487061	2.970587
785.822083	866.592590	2155.224854	898.840027	2.502455
786.134277	861.540039	2158.865479	891.112610	2.279503
786.446533	856.413269	2146.977051	885.614197	2.262649
786.758606	854.927063	2150.617920	881.081726	2.018588
787.070740	855.967285	2144.376709	883.756531	2.156864
787.382690	861.391418	2160.723145	886.431458	1.927147
787.694641	865.032227	2184.871338	896.536621	2.386987
788.006653	869.936218	2237.180664	901.589172	2.315091
788.318481	877.738098	2289.712646	907.979309	2.141767
788.630310	862.431641	2332.510986	907.087646	3.037660
788.942017	856.636047	2345.959717	903.372498	3.138099
789.253784	848.239929	2347.222900	896.239441	3.202139
789.565430	853.218079	2327.606934	892.747253	2.681055
789.877014	852.177917	2303.012695	893.415955	2.842366
790.188538	856.264465	2249.812256	891.261169	2.511338
790.500061	863.397644	2213.552490	888.957764	1.893125
790.811462	860.722656	2175.732178	879.967102	1.463445
791.122925	852.326477	2160.351563	871.496582	1.465576
791.434204	847.422546	2135.014160	886.357178	3.023834
791.745483	848.016907	2117.032959	885.093994	2.921719
792.056702	848.834290	2094.296631	895.124939	3.716744
792.367920	849.354431	2080.104736	882.121887	2.662397
792.678955	848.982910	2059.745605	886.728699	3.117522
792.990112	848.165527	2041.690063	888.214783	3.355545
793.301086	850.617493	2021.925415	892.672913	3.590467
793.612122	850.171631	2030.470337	903.892639	4.551476
793.922974	857.081848	2033.219727	905.304382	4.100075
794.233826	855.818787	2042.358887	905.973083	4.226937
794.544556	863.769226	2043.622070	901.589172	3.205480
794.855286	856.710388	2052.018311	900.771912	3.686207
795.166016	855.372864	2052.984131	895.273499	3.331685
795.476624	851.731995	2060.785889	889.923645	3.158804
795.787292	852.177917	2080.178955	892.672913	3.297635
796.097778	852.400818	2120.451172	894.381836	3.310674
796.408264	853.589661	2148.686035	902.629578	3.786584
796.718689	855.818665	2161.614502	896.016541	3.078419
797.029053	854.481262	2163.175049	894.307556	3.043209
797.339355	855.001465	2150.618164	891.261047	2.798635
797.649658	856.190247	2144.005127	893.861633	2.925217
797.959839	863.174744	2121.937256	894.456116	2.485089
798.270020	864.883728	2105.590576	898.171204	2.682945
798.580078	863.843445	2079.733154	902.480774	3.177700
798.890137	858.642273	2055.213379	909.093750	4.216338
799.200195	856.264587	2039.386841	902.332214	3.893733
799.510071	854.704285	2023.040161	896.536621	3.580506
799.820007	851.360596	2012.786499	892.821472	3.569825
800.129883	850.246094	1996.885742	897.428223	4.114818
800.439575	856.933289	1993.096313	896.462341	3.479171
800.749329	863.620605	1985.740234	892.895813	2.608920
801.058960	871.496582	1971.250977	886.877380	1.398567
801.368591	865.700989	1967.090210	889.329346	2.145323
801.678162	867.484192	1956.242065	892.970154	2.340829
801.987671	867.781494	1958.173828	894.381836	2.439520
802.297119	872.834167	1956.093384	892.450012	1.810817
802.606506	863.917786	1958.248169	890.220886	2.403580
802.915894	856.561829	1950.446411	891.706970	3.212875
803.225159	852.029297	1930.087524	891.038269	3.618448
803.534424	853.738220	1918.570679	884.796814	2.916759
803.843628	857.156189	1916.118530	881.898926	2.336508
804.152771	861.614319	1924.068970	877.812317	1.524583
804.461792	864.586426	1932.836548	891.632629	2.531823
804.770874	861.019958	1937.814941	889.700745	2.663533
805.079773	860.499817	1948.143066	898.171326	3.463590
805.388733	859.385254	1955.870605	888.289063	2.636041
805.697571	864.363586	1971.994263	883.162109	1.697183
806.006470	865.032227	1978.607056	881.601807	1.487963
806.315125	864.289246	1989.009399	884.276672	1.777102
806.623901	872.091003	1989.083862	887.991882	1.423543
806.932495	875.731750	1970.136597	884.351013	0.787575
807.241150	877.515137	1950.446411	884.276672	0.630193
807.549622	868.970398	1948.886108	895.422058	2.449419
807.858154	861.094238	1942.867554	901.886414	3.770862
808.166565	858.790833	1939.895508	894.010315	3.257731
808.474915	850.394714	1917.233276	884.648132	3.210740
808.783264	848.016907	1907.648071	880.115723	3.029244
809.091492	846.307922	1887.586426	891.038147	4.295702
809.399719	845.936523	1866.855957	899.583008	5.254723
809.707825	847.645325	1850.435059	896.908203	4.912583
810.015930	854.555603	1843.301880	889.106384	3.494403
810.323975	863.471863	1835.128540	877.663757	1.460587
810.632080	865.329407	1836.466187	885.762695	2.104059
810.939880	868.450195	1833.568237	882.270508	1.431982
811.247864	861.317139	1829.481445	887.991760	2.755175
811.555664	858.196472	1818.930542	881.007385	2.374321
811.863464	852.698059	1811.946167	883.162109	3.175826
812.171143	852.475098	1810.980103	879.298340	2.798446
812.478882	859.088074	1803.475708	880.784485	2.297405
812.786438	865.329590	1785.345825	886.951599	2.350177
813.094055	874.468750	1769.742188	897.651184	2.589425
813.401489	872.091064	1765.581177	896.982422	2.785857
813.708984	861.391418	1779.698853	895.050537	3.665343
814.016357	852.326477	1788.986694	886.951599	3.696658
814.323730	849.280090	1791.513062	889.254944	4.242566
814.630981	852.549377	1772.342773	886.728699	3.715978
814.938232	858.865173	1755.476074	887.991882	3.248534
815.245361	856.933289	1742.993164	882.419128	2.876311
815.552490	862.951843	1750.497681	883.013611	2.260364
815.859619	857.824890	1766.026978	879.149719	2.348027
816.166565	863.174622	1785.494263	880.635925	1.893194
816.473572	860.276917	1798.497437	882.047607	2.320424
816.780457	865.998230	1806.893555	885.836975	2.108496
817.087341	866.592712	1808.156738	883.533691	1.799238
817.394043	867.484314	1814.769897	887.100159	2.070742
817.700806	863.397644	1823.166016	891.261169	2.903151
818.007507	863.323242	1833.642578	895.719238	3.338694
818.314209	862.357361	1836.168823	894.604736	3.311460
818.620667	866.295410	1844.416382	884.499512	1.861130
818.927246	863.620544	1868.936157	889.552185	2.579453
819.233704	859.162415	1909.654175	882.493408	2.220959
819.540161	857.304871	1949.480469	891.186829	3.102245
819.846497	866.072571	2009.071289	886.728699	1.807187
820.152832	870.010559	2075.052002	894.233215	2.010110
820.458984	865.775391	2181.379395	896.388000	2.326886
820.765259	854.927063	2282.208008	903.000977	3.368217
821.071350	860.202576	2411.717529	907.310547	3.036257
821.377502	865.998230	2606.465088	904.784241	2.228483
821.683472	870.382080	2999.377930	911.843018	1.947441
821.989441	866.815613	3786.243408	931.979004	2.232060
822.295349	862.580322	4969.811523	973.439941	2.699132
822.601196	863.992004	6462.998535	1018.244446	2.754997
822.907043	859.682434	7811.296387	1052.498047	2.773681
823.212769	859.831055	8566.137695	1069.885010	2.725741
823.518494	855.967285	8475.339844	1068.621826	2.790972
823.824097	854.035461	7689.662598	1047.891235	2.835962
824.129700	850.617615	6587.382324	1023.519836	3.013933
824.435242	848.016907	5502.710938	981.761780	2.873333
824.740723	850.320313	4587.747559	960.511292	2.948311
825.046082	854.184082	3935.072021	934.356689	2.602257
825.351501	858.716553	3481.379639	926.852112	2.597953
825.656799	859.979736	3193.382568	920.313477	2.585655
825.962036	860.053955	3010.746338	909.762512	2.311282
826.267212	859.756775	2931.762451	903.223877	2.097827
826.572449	862.283020	2958.808594	898.394226	1.722431
826.877502	867.558533	3127.550049	910.356934	1.893742
827.182495	869.787598	3428.402100	925.811951	2.189636
827.487488	864.660828	3785.352295	936.585876	2.462604
827.792419	857.379150	4044.817139	945.873718	2.776354
828.097290	854.629944	4083.157227	944.610535	2.787048
828.402100	862.283142	3899.183838	938.517761	2.510277
828.706848	867.112793	3574.183838	927.595215	2.234238
829.011597	866.592712	3198.955078	915.781006	2.108947
829.316223	863.843445	2841.633057	909.911133	2.329251
829.620789	866.369690	2563.146484	903.000977	2.158875
829.925354	869.490417	2350.195068	899.508789	2.027303
830.229797	873.354187	2196.536865	896.462402	1.746412
830.534302	874.022949	2059.448486	895.422180	1.805194
830.838562	871.645264	1968.056030	894.976318	2.127948
831.142944	868.078674	1904.601563	885.688477	1.698930
831.447144	860.128235	1862.694824	882.642029	2.245616
831.751404	854.481262	1832.750977	880.784485	2.688750
832.055542	853.886902	1818.782104	883.979492	3.118742
832.359619	852.697998	1818.410522	879.001221	2.723711
832.663635	860.202637	1858.756836	883.905212	2.373689
832.967651	862.208740	1923.623047	885.316895	2.177110
833.271545	863.174622	2060.860107	891.484070	2.363680
833.575439	860.053955	2234.505615	894.456238	2.502982
833.879211	859.831055	2483.419922	903.372559	2.681806
834.183044	859.385254	2719.999756	911.248596	2.787431
834.486694	860.128235	2898.549072	918.678894	2.872354
834.790344	852.029297	2953.681641	929.750000	3.698076
835.093933	856.264648	2899.143555	926.852112	3.455294
835.397522	857.527649	2717.696289	916.524109	3.171565
835.700928	863.843445	2489.289795	904.041199	2.473029
836.004395	867.781494	2263.112305	902.926575	2.518763
836.307739	866.666931	2107.373779	897.279602	2.467357
836.611023	868.598816	1980.762085	891.261047	2.037671
836.914307	869.787659	1881.344849	880.784424	1.087113
837.217529	868.153015	1800.726440	889.626465	2.302602
837.520691	868.375793	1737.271851	886.505676	2.086542
837.823730	865.552429	1680.058716	884.053772	2.271479
838.126831	870.382080	1623.960083	875.434753	0.670491
838.429749	868.673096	1593.421875	877.292236	1.189259
838.732727	865.032227	1562.957642	881.824707	2.406057
839.035522	863.471924	1550.623413	879.224121	2.292391
839.338379	854.852783	1544.827759	874.022949	2.778386
839.641113	855.595886	1569.942261	876.474915	2.922816
839.943848	855.447266	1604.121460	877.738098	2.977374
840.246460	861.911560	1657.842285	887.620300	3.230022
840.549072	860.202637	1711.265991	886.505798	3.090623
840.851563	859.013672	1756.442017	888.066101	3.237298
841.154053	860.351135	1759.339966	883.533691	2.578737
841.456482	863.249023	1710.523071	882.790710	2.306419
841.758850	868.821716	1640.307007	880.041443	1.454302
842.061157	865.700989	1569.050659	879.075439	1.901536
842.363403	863.249023	1516.221313	874.543030	1.729630
842.665588	856.338867	1475.057617	885.539856	4.719590
842.967712	859.013733	1440.655640	875.286072	2.797656
843.269775	860.574158	1419.033325	874.765930	2.541237
843.571777	860.351257	1404.618652	861.763000	0.259384
843.873840	859.756836	1391.169922	863.546204	0.713074
844.175659	853.961121	1375.789429	866.666992	2.434876
844.477600	856.710266	1366.278442	876.623535	3.907871
844.779297	858.790833	1367.690308	886.282898	5.402258
845.081116	861.317139	1354.390015	886.802979	5.168777
845.382751	860.202637	1343.616089	877.143616	3.504449
845.684387	861.465759	1317.535767	871.347961	2.166817
845.985962	862.728821	1302.378052	871.496582	1.994263
846.287537	852.549500	1276.595093	874.988770	5.291712
846.588989	847.422546	1263.666382	882.419128	8.407712
846.890381	851.509216	1263.517700	876.846436	6.149684
847.191711	866.369812	1271.468140	871.942444	1.375625
847.493042	868.450195	1271.319580	864.289246	-1.032828
847.794250	867.781433	1275.331909	868.227295	0.109400
848.095459	864.363586	1272.434082	866.666931	0.564448
848.396606	867.335632	1264.186523	869.862000	0.636604
848.697693	869.341797	1256.087524	877.217957	2.036521
848.998657	866.146790	1247.914185	879.446960	3.483841
849.299622	853.738281	1254.527100	877.589417	5.951048
849.600464	847.199646	1242.564453	873.948547	6.765625
849.901367	845.564941	1240.186646	876.697815	7.889296
850.202087	853.218079	1234.093872	879.818542	6.984026
850.502808	854.555664	1230.527344	868.747375	3.774676
850.803467	852.920959	1225.177490	864.066345	2.994007
851.104065	851.955017	1221.833862	865.626648	3.696246
851.404663	855.595886	1232.533447	869.862000	3.784742
851.705139	858.790833	1235.728516	867.855774	2.404891
852.005615	860.648438	1227.183716	861.540039	0.243251
852.306030	859.682434	1221.685303	861.763000	0.574738
852.606384	861.094238	1215.592651	862.877502	0.503039
852.906616	862.060242	1218.267456	860.054016	-0.563219
853.206909	855.893066	1207.047729	859.013733	0.888687
853.506958	854.258362	1210.614258	861.614441	2.064251
853.807129	856.413269	1211.134277	859.236633	0.795939
854.107178	860.722717	1218.416016	861.985901	0.353147
854.407166	861.911621	1209.425415	868.524597	1.902939
854.707092	862.951843	1212.100220	872.091064	2.617575
855.007019	860.648438	1197.908569	870.233459	2.842026
855.306763	853.812561	1204.447144	862.357422	2.436970
855.606567	849.948792	1200.137573	860.945618	3.140257
855.906250	856.264465	1200.137573	870.010559	3.997432
856.205933	865.849609	1195.828003	874.468750	2.612032
856.505493	870.679260	1190.255249	878.406738	2.418041
856.805054	874.468750	1199.914673	877.663757	0.981732
857.104492	873.354187	1197.611206	867.038513	-1.947737
857.403931	867.187073	1197.016846	871.793762	1.396687
857.703308	859.162415	1191.072632	865.998230	2.059537
858.002563	858.345032	1189.586548	874.468750	4.867662
858.301819	858.047852	1190.403931	871.422363	4.024151
858.601013	857.676270	1186.094360	867.409973	2.963815
858.900208	857.156189	1181.413330	868.895996	3.620524
859.199219	856.264465	1183.642334	863.769104	2.292348
859.498291	853.143799	1183.716675	863.471863	3.124293
859.797302	859.013855	1181.859009	866.592590	2.347483
860.096191	864.215027	1177.029419	866.072510	0.593797
860.395020	867.632874	1169.376343	864.586426	-1.009615
860.693787	868.895996	1162.020386	857.230469	-3.979719
860.992554	865.106506	1162.391724	861.762878	-1.124721
861.291260	874.394348	1168.038696	874.394348	0.000000
861.589844	869.564758	1179.630005	875.360352	1.869153
861.888428	875.806152	1176.583618	868.673157	-2.371519
862.186890	871.273682	1173.240112	857.676270	-4.502955
862.485413	864.809326	1172.942749	856.115906	-2.821317
862.783813	860.351135	1172.719849	861.837219	0.475747
863.082153	856.115967	1177.029419	864.660828	2.662668
863.380371	862.283020	1181.338989	862.283020	0.000000
863.678589	858.493652	1181.784790	860.128235	0.505607
863.976746	855.447266	1186.763062	854.927063	-0.157011
864.274902	856.338867	1180.521606	855.447266	-0.275031
864.572937	865.626648	1177.029419	850.320313	-4.915286
864.870911	864.512146	1173.537109	856.933289	-2.452507
865.168884	868.673096	1166.552612	858.047791	-3.566981
865.466736	860.722656	1164.546509	859.831055	-0.293460
865.764587	872.982605	1160.608398	859.682434	-4.624123
866.062317	868.747375	1163.803467	867.409973	-0.453271
866.360107	879.372742	1165.512451	868.375916	-3.843167
866.657715	875.360352	1159.419678	864.883728	-3.688181
866.955322	874.468750	1158.082153	854.629883	-6.995039
867.252808	865.329407	1151.915161	864.809387	-0.181453
867.550293	863.917725	1158.007935	860.054016	-1.313783
867.847717	859.311035	1151.246338	864.958008	1.934323
868.145081	854.629944	1155.333008	856.115967	0.494183
868.442383	847.348328	1149.834595	864.586426	5.698803
868.739624	844.450439	1151.915039	870.976501	8.627355
869.036804	851.880676	1152.658081	870.976501	6.348823
869.333984	855.149963	1156.967651	871.199402	5.317594
869.631042	860.945618	1164.174927	863.694824	0.906643
869.928101	859.979675	1164.620850	868.970276	2.951210
870.224976	864.066345	1159.271118	861.985840	-0.704767
870.521851	866.444031	1167.890259	873.131348	2.218411
870.818726	859.608215	1162.391724	869.416199	3.239273
871.115479	860.945618	1159.270996	879.744202	6.301369
871.412231	854.332703	1153.772583	869.713379	5.136482
871.708862	858.345032	1153.995483	868.524414	3.443046
872.005493	857.602051	1166.404175	870.382019	4.138562
872.302063	868.895996	1162.688843	873.948547	1.719767
872.598572	865.329407	1170.564941	874.022888	2.848122
872.895020	863.249023	1166.329834	859.831055	-1.127742
873.191406	850.246033	1166.998657	858.345032	2.556885
873.487671	848.908691	1169.970703	860.054016	3.471393
873.783997	848.462830	1173.685913	862.357239	4.272270
874.080200	862.654602	1171.307983	863.174622	0.168480
874.376343	867.335632	1158.453735	863.992004	-1.148547
874.672424	865.255127	1159.196655	869.862000	1.567275
874.968445	858.419250	1154.292725	873.205566	4.997513
875.264465	859.385254	1166.627075	874.914551	5.054421
875.560364	858.345032	1162.614624	876.400574	5.934061
875.856201	860.276855	1163.729248	874.914551	4.823720
876.152039	865.923889	1160.088379	881.007324	5.127551
876.447754	869.936218	1160.162720	875.508972	1.920140
876.743469	871.942383	1159.865601	872.982666	0.361306
877.039063	870.233398	1164.175171	864.215027	-2.047471
877.334595	870.307800	1160.608521	870.084900	-0.076783
877.630127	866.964172	1173.314331	869.713379	0.897407
877.925537	862.283020	1168.484619	875.434753	4.295122
878.221008	855.447205	1170.193481	872.165344	5.311624
878.516296	852.400818	1166.404175	871.868164	6.199726
878.811646	855.521484	1180.447266	871.050781	4.779336
879.106812	861.094238	1198.205688	873.428406	3.658780
879.401978	862.951721	1218.267334	872.759766	2.760375
879.697083	854.184082	1249.920410	873.428467	4.862931
879.992126	860.574036	1293.313110	865.924011	1.236305
880.287109	862.654602	1350.452026	863.843445	0.243716
880.582031	871.868164	1428.024048	868.301575	-0.641293
880.876892	862.580322	1588.443726	874.022949	1.576416
881.171753	854.555664	1869.902344	884.053772	2.905225
881.466492	856.933289	2324.486084	896.016541	2.663158
881.761230	862.357422	2904.641846	912.660339	2.463071
882.055786	867.335632	3481.973877	927.075012	2.284805
882.350403	866.444031	3834.912109	932.424866	2.222723
882.644958	860.945618	3864.038330	938.740540	2.590493
882.939453	859.905334	3605.613525	928.561096	2.500475
883.233826	856.190247	3198.880615	916.821289	2.588094
883.528137	856.710388	2781.522217	903.446838	2.428105
883.822449	855.447205	2416.398926	896.388000	2.622810
884.116577	857.750488	2144.302246	889.700867	2.483412
884.410828	861.168457	1926.000977	885.168274	2.253858
884.704956	865.106628	1757.110718	891.558350	2.965426
884.999023	864.289246	1621.136841	887.620300	3.082662
885.292969	865.329529	1520.828125	884.425293	2.913166
885.586914	865.626709	1450.686401	878.481018	2.197093
885.880798	876.623535	1400.903442	872.759766	-0.736967
886.174622	874.022949	1370.439453	868.227295	-1.167498
886.468384	871.942383	1345.325073	862.208801	-2.056176
886.762085	860.053955	1317.387207	865.329407	1.153525
887.055664	860.053955	1283.059448	865.255188	1.229590
887.349304	858.939453	1253.189575	864.883606	1.507711
887.642822	849.725891	1237.511841	858.790771	2.337599
887.936340	845.862244	1228.744141	861.762939	4.152898
888.229736	845.119141	1212.100464	863.769104	5.081993
888.523071	851.657715	1188.620728	867.632874	4.740923
888.816284	854.704163	1166.181274	868.450195	4.413176
889.109619	859.088074	1147.679810	869.862000	3.733276
889.402710	860.351135	1147.605591	869.713379	3.259216
889.695862	861.391418	1140.472534	870.827820	3.381240
889.988892	861.985840	1136.459961	867.707092	2.084441
890.281921	867.781555	1116.992798	863.546204	-1.699503
>>>>>End Processed Spectral Data<<<<<
