Jaz Data File
++++++++++++++++++++++++++++++++++++
Date: Fri Jun 04 16:40:57 2021
User: jaz
Dark Spectrum Present: Yes
Reference Spectrum Present: Yes
Processed Spectrum Present: Yes
Spectrometers: JAZA3586
Integration Time (usec): 24400 (JAZA3586)
Spectra Averaged: 10 (JAZA3586)
Boxcar Smoothing: 1 (JAZA3586)
Correct for Electrical Dark: No (JAZA3586)
Strobe/Lamp Enabled: Yes (JAZA3586)
Correct for Detector Non-linearity: No (JAZA3586)
Correct for Stray Light: No (JAZA3586)
Number of Pixels in Processed Spectrum: 2048
>>>>>Begin Processed Spectral Data<<<<<
W	D	R	S	P
191.335022	0.000000	0.000000	0.000000	0.000000
191.713211	234.499390	230.487045	239.923462	-135.184616
192.091385	471.747955	472.490997	480.218414	1139.970459
192.469528	709.665283	712.117249	721.627930	487.879913
192.847641	718.878906	723.559875	727.200684	177.778931
193.225739	727.126465	723.336975	732.401917	-139.212723
193.603790	728.761047	731.584534	741.095398	436.848236
193.981842	720.587830	734.779602	745.182068	173.299271
194.359863	726.383362	741.689758	748.376953	143.688889
194.737854	739.237793	743.398682	750.011658	258.931824
195.115829	760.636902	748.971436	748.525574	103.822067
195.493774	758.259277	751.200500	754.767029	49.473846
195.871704	756.401672	756.847473	748.005554	-1883.379028
196.249603	754.989929	757.219055	752.760925	-99.994522
196.627457	752.909485	755.807312	750.160217	-94.873413
197.005310	756.847473	745.702148	759.299500	-22.000492
197.383133	753.875427	743.695984	760.934143	-69.342850
197.760910	758.036377	750.754700	761.454285	-46.938469
198.138687	750.754700	751.794922	764.129150	1285.730225
198.516449	748.302673	750.828918	761.008484	502.952393
198.894180	752.983704	749.863098	757.887756	-157.150681
199.271866	760.191162	750.531799	752.389343	80.769501
199.649536	759.596741	749.417236	748.228455	111.678192
200.027191	750.234619	743.547363	752.092102	-27.776459
200.404816	738.643372	742.581360	749.417297	273.589600
200.782410	736.488586	750.531799	751.720642	108.465607
201.159988	741.169617	762.494568	745.479187	20.209051
201.537537	737.677429	777.429382	751.720642	35.327103
201.915070	738.866211	781.738953	750.828918	27.902828
202.292557	733.665039	778.618164	747.188171	30.082741
202.670029	742.209961	774.903076	739.683594	-7.727520
203.047485	743.324463	772.599670	741.764099	-5.329984
203.424911	736.191406	769.256104	740.872375	14.157001
203.802292	728.463867	765.615234	740.055115	31.200056
204.179688	718.432922	760.711243	733.516418	35.676670
204.557037	725.937500	768.587341	734.408020	19.860613
204.934357	733.590759	771.782410	738.791992	13.618770
205.311661	738.866272	775.720398	735.671204	-8.669499
205.688934	733.665039	769.924805	740.798096	19.672098
206.066177	727.052063	773.416992	731.956055	10.576942
206.443390	723.485657	770.221985	743.472961	42.766098
206.820587	725.789001	765.392334	738.791992	32.833073
207.197769	721.256531	758.482178	742.804382	57.884426
207.574921	725.194580	762.345886	733.739441	23.000162
207.952042	722.222473	765.169434	730.841614	20.069267
208.329147	726.383362	765.838135	726.086182	-0.753217
208.706223	732.327637	776.463379	733.442200	2.525307
209.083267	738.048889	783.522156	737.974609	-0.163348
209.460297	737.677429	787.237305	737.157288	-1.049522
209.837280	731.213074	773.491394	724.600159	-15.641385
210.214264	723.114014	766.506836	722.891174	-0.513540
210.591217	722.148132	763.163269	725.194580	7.427618
210.968124	719.918945	761.305664	729.727051	23.698679
211.345016	726.606262	768.290039	731.436035	11.586697
211.721893	729.132568	771.187927	734.036621	11.660946
212.098724	733.590759	773.417053	736.488586	7.276165
212.475555	738.717590	767.472839	740.352356	5.685103
212.852356	736.191345	760.859863	738.569031	9.638542
213.229126	734.482361	763.980530	732.179016	-7.808433
213.605865	733.887939	763.906250	724.823059	-30.197836
213.982590	737.603088	767.324219	716.575439	-70.749832
214.359283	740.278015	762.940369	723.114075	-75.737679
214.735931	731.436035	761.157043	719.176025	-41.250317
215.112579	738.866211	756.996155	727.200684	-64.343979
215.489197	730.024231	761.454346	721.999512	-25.531944
215.865799	734.556702	765.838196	731.510254	-9.738818
216.242355	732.699158	772.674072	727.423645	-13.197058
216.618896	747.262451	774.977356	725.937561	-76.943764
216.995407	747.633972	778.172424	722.891174	-81.021782
217.371902	740.129395	773.491394	730.544373	-28.730358
217.748367	725.417419	761.157043	737.677429	34.303688
218.124802	717.764221	758.036377	731.658875	34.501884
218.501236	719.027405	760.562683	720.736389	4.114537
218.877609	725.343201	771.782410	717.318359	-17.280313
219.253983	732.253357	769.479004	722.742493	-25.549225
219.630295	735.596924	766.729736	726.086121	-30.549129
220.006592	733.293518	766.283997	727.572266	-17.342133
220.382889	732.104675	764.352051	729.652771	-7.603423
220.759140	724.971619	766.729797	740.055115	36.121059
221.135391	724.005676	766.804016	742.729980	43.750072
221.511581	723.634094	768.513000	739.312073	34.933960
221.887772	725.937561	770.816406	725.937683	0.000272
222.263931	727.646545	772.228210	719.176086	-18.999872
222.640060	727.795166	778.395325	721.033630	-13.362677
223.016159	729.281189	776.909241	729.949951	1.404135
223.392212	730.767273	778.692566	738.123230	15.348800
223.768265	733.665039	779.584167	736.414307	5.987195
224.144302	734.556824	776.983582	733.813660	-1.751640
224.520294	735.745605	769.404724	734.036621	-5.077330
224.896286	734.853943	759.893860	735.448303	2.373652
225.272217	743.250061	763.014648	736.562805	-33.834534
225.648148	744.216064	760.859863	732.550476	-70.089699
226.024048	745.702148	766.729736	729.281250	-78.092163
226.399902	734.036560	765.392334	731.436035	-8.293608
226.775772	729.132568	763.683350	730.470032	3.871008
227.151581	726.680603	758.630798	731.436035	14.883891
227.527374	734.333740	762.717468	724.451477	-34.816650
227.903137	738.569031	770.816345	731.584534	-21.659159
228.278870	743.695984	773.119812	733.590759	-34.343678
228.654572	737.082947	774.085693	738.123230	2.811368
229.030273	736.637207	775.348877	734.853943	-4.606529
229.405930	729.132629	775.423157	732.922058	8.186186
229.781555	729.578430	777.206482	731.510254	4.056063
230.157181	725.640381	776.686340	727.274963	3.202178
230.532761	727.795166	776.463562	734.779602	14.351071
230.908325	735.374023	771.187988	734.333801	-2.904516
231.283859	740.278015	769.404724	730.915833	-32.142948
231.659332	741.021057	776.017578	724.154297	-48.195534
232.034821	731.361633	777.577942	719.473328	-25.723183
232.410263	717.987122	777.949463	724.377197	10.656815
232.785690	713.528992	770.147766	720.884949	12.992081
233.161087	716.649719	770.296387	719.844727	5.955649
233.536469	722.593994	765.763855	719.473328	-7.228808
233.911804	720.810730	768.141602	722.445374	3.453652
234.287140	720.141907	763.609070	728.761047	19.829084
234.662430	724.154297	770.370605	726.754944	5.627120
235.037704	727.497864	767.472839	725.268860	-5.575998
235.412933	727.795166	770.519226	728.166687	0.869583
235.788162	722.222412	771.782410	727.349304	10.344819
236.163345	726.532043	773.045471	726.903503	0.798608
236.538513	732.253357	775.943359	722.593994	-22.108864
236.913635	730.767273	777.726563	725.120300	-12.025251
237.288742	730.024231	781.813232	724.005676	-11.621299
237.663834	727.423645	790.135071	723.336975	-6.516627
238.038879	732.476257	792.810059	724.897400	-12.561544
238.413910	728.612488	794.890442	730.841553	3.363207
238.788910	725.714661	793.404480	732.476257	9.989090
239.163879	725.194519	788.351868	730.321472	8.117746
239.538834	723.708496	781.813232	728.686768	8.567755
239.913757	726.680603	776.983582	728.612488	3.840498
240.288651	728.389587	774.011414	724.674500	-8.143225
240.663528	729.281250	775.200256	728.761047	-1.132870
241.038361	726.234863	768.736023	730.395813	9.790203
241.413177	728.463867	777.577942	730.024231	3.177020
241.787979	729.801331	781.441711	721.776672	-15.539502
242.162735	725.714661	789.615051	721.479492	-6.627766
242.537476	726.531982	785.008240	721.330811	-8.894502
242.912170	727.720886	793.553040	729.206848	2.257198
243.286865	731.658936	796.525146	730.692932	-1.489224
243.661514	725.714661	806.927490	739.163513	16.560009
244.036148	725.789001	797.342468	739.609314	19.314665
244.410751	726.606262	796.153625	738.643372	17.307787
244.785339	726.011902	791.175476	734.779602	13.454910
245.159882	720.885010	795.856445	730.544434	12.884139
245.534378	719.621887	795.707825	724.228699	6.054748
245.908890	722.816895	797.788330	717.541321	-7.036778
246.283356	721.033630	808.042053	725.566101	5.209232
246.657791	726.160461	812.425964	735.596924	10.938860
247.032196	726.680603	819.856262	743.324402	17.862818
247.406586	728.835388	828.252441	734.928223	6.128561
247.780960	725.640381	836.722961	730.915833	4.749126
248.155289	723.039795	834.791016	735.076843	10.771290
248.529602	731.658875	821.193665	741.169678	10.622467
248.903870	733.665039	815.249451	737.083008	4.189487
249.278122	736.934387	814.877930	722.816895	-18.112459
249.652344	732.922058	817.552734	717.987244	-17.647047
250.026550	735.745544	813.317566	727.200684	-11.015390
250.400711	736.711426	805.738708	737.528809	1.184145
250.774857	736.934387	804.401184	740.872375	5.836928
251.148987	719.547546	800.537415	733.144836	16.788877
251.523071	713.008972	803.361023	729.578369	18.338705
251.897125	714.197754	804.772766	723.114075	9.844129
252.271164	728.984070	816.512512	723.782898	-5.942265
252.645187	735.448303	829.887024	731.584656	-4.091169
253.019165	732.996338	824.908875	734.482422	1.616846
253.393112	729.875671	822.754089	737.603027	8.319861
253.767044	727.572266	820.673523	730.841553	3.511539
254.140930	724.080017	825.057434	731.658875	7.505497
254.514801	730.470032	827.212219	721.553711	-9.216579
254.888657	732.847717	817.998718	718.433044	-16.928366
255.262466	735.522644	818.518799	713.603333	-26.410032
255.636276	730.470032	811.831543	723.262695	-8.858410
256.010010	729.429871	818.295898	732.550476	3.511584
256.383759	731.881836	818.890320	739.683594	8.966663
256.757446	730.024231	831.075989	739.386414	9.264740
257.131134	731.213074	834.419617	731.435974	0.215975
257.504791	726.829285	839.695068	729.132568	2.040728
257.878418	726.457703	843.038757	726.309082	-0.127483
258.252014	718.061462	845.862122	731.881836	10.814008
258.625580	726.680664	856.115906	738.123230	8.840379
258.999115	732.699219	861.242859	745.627747	10.057695
259.372650	727.943787	875.583252	742.507080	9.864093
259.746124	723.039795	894.307556	731.436035	4.902406
260.119598	719.547546	918.084412	733.219238	6.886223
260.493042	727.572266	938.889160	735.522644	3.762301
260.866425	732.996399	945.502136	746.445129	6.328643
261.239838	730.395691	941.935547	736.265625	2.774860
261.613159	735.596924	924.994629	738.866211	1.726149
261.986511	724.674500	906.195984	730.247131	3.069957
262.359802	728.538269	900.177490	736.414246	4.588681
262.733063	729.132629	894.976257	734.853943	3.449824
263.106293	738.049011	898.394226	736.042786	-1.251191
263.479523	733.813660	890.072266	732.030457	-1.141187
263.852692	727.349304	887.025879	729.281189	1.209874
264.225861	725.343201	886.951660	722.965515	-1.471263
264.598969	719.101746	889.552246	728.612488	5.579768
264.972076	714.049133	889.403625	724.377197	5.889820
265.345154	717.095520	888.660461	723.931396	3.984425
265.718201	725.640381	892.747131	716.649719	-5.380190
266.091217	737.603210	907.459167	724.154297	-7.917834
266.464203	730.024231	918.901672	733.144958	1.652250
266.837158	727.349304	937.923279	733.367859	2.858166
267.210114	719.696106	945.725098	728.686707	3.977632
267.583038	723.634277	954.269836	726.011902	1.030901
267.955902	725.045959	952.635193	725.640381	0.261182
268.328766	730.618652	946.542419	728.463867	-0.997938
268.701569	730.098572	950.034668	727.275085	-1.283776
269.074371	729.578430	953.526855	728.389587	-0.530856
269.447144	723.262695	974.331543	727.275085	1.598123
269.819885	728.538269	980.721619	732.773438	1.679401
270.192596	727.943848	993.501648	739.237793	4.252914
270.565277	738.271790	993.724609	742.729980	1.745211
270.937927	733.590820	1008.362244	741.243958	2.785274
271.310577	731.510254	1033.476563	742.581360	3.666338
271.683136	723.857117	1066.689819	735.225403	3.315986
272.055725	724.377197	1092.844360	732.773438	2.278694
272.428284	727.349365	1101.314941	723.188293	-1.112688
272.800812	741.095276	1098.565796	727.572266	-3.782972
273.173279	749.268555	1089.500854	731.584534	-5.197631
273.545776	752.240723	1071.519531	728.612488	-7.400502
273.918152	745.999329	1069.141846	733.516418	-3.862974
274.290558	734.779602	1064.757935	727.052063	-2.341832
274.662964	735.448425	1064.015015	731.510254	-1.198592
275.035278	731.956055	1059.705444	730.098572	-0.566739
275.407593	731.584656	1058.145142	732.624817	0.318520
275.779907	728.686768	1068.844727	735.968506	2.140693
276.152161	731.584656	1076.274902	733.367859	0.517335
276.524384	739.832214	1099.085815	727.349365	-3.474662
276.896606	730.990234	1109.339722	725.863281	-1.355084
277.268799	735.076843	1120.039185	723.634216	-2.972402
277.640930	724.525818	1125.017456	728.538147	1.001851
278.013031	730.618652	1133.339355	730.915833	0.073793
278.385162	724.154297	1138.911987	734.928223	2.597643
278.757233	727.126465	1140.992554	740.203796	3.159798
279.129272	729.281250	1146.119507	740.055115	2.584663
279.501282	732.253235	1151.617798	739.312073	1.683222
279.873230	734.408020	1158.230835	731.287354	-0.736314
280.245178	737.751709	1179.258423	732.327637	-1.228537
280.617126	732.476257	1204.595703	728.463867	-0.849868
280.988983	727.869446	1222.874146	726.309082	-0.315222
281.360870	725.789001	1242.861694	722.668274	-0.603537
281.732697	726.754883	1269.313354	730.915833	0.766913
282.104492	730.990234	1301.486450	738.940613	1.393590
282.476288	726.680664	1324.817505	739.312073	2.111793
282.848053	729.058289	1334.848511	730.470032	0.233042
283.219757	730.915833	1337.151733	726.829163	-0.674106
283.591461	730.024231	1331.579102	724.228577	-0.963446
283.963135	730.098633	1329.498535	735.671204	0.929692
284.334747	729.801331	1336.334351	742.507080	2.094816
284.706360	736.414307	1349.040161	744.810486	1.370523
285.077942	730.767273	1372.371094	740.129395	1.459175
285.449524	732.401855	1395.182251	735.374084	0.448449
285.821014	731.361633	1417.101563	736.042725	0.682634
286.192535	742.135559	1439.912476	727.720886	-2.065800
286.563995	742.432800	1468.370483	720.884949	-2.968278
286.935425	738.123230	1486.128784	718.061462	-2.682034
287.306824	728.166687	1493.261719	724.377258	-0.495289
287.678223	729.801270	1479.218750	732.550598	0.366862
288.049561	734.631042	1464.803833	734.556702	-0.010181
288.420898	735.745544	1444.147827	734.779602	-0.136355
288.792145	731.287354	1436.940308	730.618652	-0.094763
289.163452	728.909668	1443.033203	726.977783	-0.270525
289.534668	729.355469	1470.302246	725.714661	-0.491372
289.905914	721.702332	1494.376343	724.748718	0.394265
290.277039	722.519714	1528.332642	732.847656	1.281680
290.648193	724.748718	1561.917603	730.172852	0.647914
291.019318	729.875671	1598.102905	731.287354	0.162594
291.390381	732.773438	1625.372070	726.160461	-0.740868
291.761475	734.110840	1621.359741	724.080017	-1.130553
292.132507	734.408020	1616.975952	725.491760	-1.010263
292.503510	733.962219	1595.205078	723.336975	-1.233711
292.874481	731.584656	1584.059570	731.733215	0.017427
293.245422	731.807556	1578.264160	737.528809	0.675906
293.616364	731.064453	1598.697266	740.352295	1.070481
293.987213	733.813660	1638.598022	738.346191	0.500952
294.358093	734.110840	1685.111450	737.751770	0.382853
294.728943	737.751770	1731.625000	734.036560	-0.373811
295.099731	735.894226	1773.308716	729.429749	-0.623133
295.470490	736.265686	1805.184692	720.736328	-1.452810
295.841248	728.166687	1834.014038	722.222412	-0.537531
296.211975	726.903564	1849.320313	726.309082	-0.052965
296.582642	725.566101	1885.134277	735.076843	0.820197
296.953308	725.789001	1923.177368	739.609314	1.154205
297.323883	724.525818	1980.464844	739.980774	1.230550
297.694519	727.497864	2006.842163	726.903503	-0.046458
298.065063	731.138855	2010.260132	728.761047	-0.185894
298.435608	725.714661	1982.545288	725.566101	-0.011820
298.806122	722.073792	1934.545776	733.442200	0.937622
299.176575	720.587830	1872.131348	723.336975	0.238736
299.547028	730.990173	1821.977173	722.519714	-0.776403
299.917450	738.197571	1796.862915	718.210144	-1.887984
300.287872	743.101501	1790.249878	720.810730	-2.128712
300.658234	743.993164	1794.187866	721.850891	-2.108397
301.028564	741.987000	1788.466431	727.349304	-1.398756
301.398865	732.773438	1784.379883	736.191406	0.325024
301.769135	727.126465	1780.738892	735.596924	0.803944
302.139374	720.513489	1796.119751	734.928223	1.340150
302.509583	721.628113	1804.813110	729.652771	0.740839
302.879791	721.182190	1803.847046	731.510315	0.953954
303.249939	724.600098	1795.599487	734.853943	0.957409
303.620087	729.281250	1791.290039	732.847839	0.335834
303.990173	730.544434	1784.528320	731.064453	0.049338
304.360260	730.841553	1781.407837	723.114075	-0.735554
304.730286	731.436035	1792.924683	727.795166	-0.342997
305.100281	731.287354	1797.085571	726.457703	-0.453149
305.470276	724.228699	1808.305298	730.915833	0.616851
305.840179	721.330811	1806.967773	726.829163	0.506463
306.210144	719.993408	1822.794312	729.058289	0.821987
306.579987	721.107910	1825.023438	726.606262	0.498077
306.949890	724.377197	1833.568237	726.754883	0.214362
307.319702	727.572266	1849.097534	726.160461	-0.125883
307.689484	732.327637	1863.214966	728.166687	-0.367937
308.059265	735.299805	1895.388062	735.076843	-0.019219
308.429016	732.922058	1931.202026	736.117126	0.266638
308.798737	735.374023	1983.808228	735.671204	0.023804
309.168396	735.448425	2034.928589	730.915833	-0.348800
309.538055	745.479187	2072.674316	726.977783	-1.394023
309.907684	746.593750	2098.531738	733.070618	-1.000278
310.277313	743.175781	2109.825928	736.191406	-0.511058
310.646851	737.305908	2119.336426	742.804260	0.397846
311.016388	741.243958	2140.364014	740.872498	-0.026550
311.385895	742.952881	2152.921387	740.129395	-0.200252
311.755371	740.129395	2169.416748	730.841553	-0.649823
312.124817	735.819824	2172.908691	728.240906	-0.527380
312.494232	737.677429	2166.295654	721.999512	-1.097418
312.863617	738.643372	2155.596436	728.166687	-0.739381
313.232971	736.934326	2137.094971	725.863281	-0.790698
313.602295	735.968445	2120.005127	725.417480	-0.762333
313.971619	736.637146	2119.559326	721.182190	-1.117558
314.340820	734.928223	2130.853271	724.971680	-0.713258
314.710083	734.630920	2162.952148	727.497986	-0.499393
315.079285	731.807434	2183.682617	734.556702	0.189360
315.448486	740.946716	2216.227295	731.881836	-0.614451
315.817596	736.785828	2222.171631	728.835449	-0.535240
316.186707	740.203674	2197.651611	728.538086	-0.800412
316.555786	727.349365	2144.673828	730.990173	0.256879
316.924866	723.485657	2101.355225	731.733215	0.598573
317.293884	723.559875	2087.386230	727.349365	0.277857
317.662872	731.213074	2094.667969	728.240967	-0.217984
318.031830	728.240967	2108.339600	728.983948	0.053835
318.400757	717.764221	2123.720459	735.448242	1.257793
318.769684	715.609436	2125.726318	734.408142	1.333131
319.138550	726.680603	2136.723145	734.928223	0.584920
319.507416	732.179016	2155.744873	736.414307	0.297513
319.876190	729.206848	2180.784668	731.138855	0.133097
320.244995	732.030457	2195.645264	731.658875	-0.025388
320.613770	736.042786	2178.406982	725.268860	-0.746963
320.982483	738.048889	2154.035889	733.367859	-0.330584
321.351166	735.894104	2129.590088	732.476257	-0.245236
321.719818	732.699036	2111.980469	735.448303	0.199326
322.088440	739.089172	2110.865967	729.726990	-0.682486
322.457062	736.934326	2133.974121	736.711426	-0.015955
322.825623	745.776367	2173.726318	733.516418	-0.858570
323.194183	742.878662	2219.570801	736.711487	-0.417634
323.562653	741.169617	2257.390869	728.092346	-0.862491
323.931183	725.120300	2316.015625	720.513489	-0.289574
324.299591	722.742493	2378.950195	716.649841	-0.367868
324.668060	721.405090	2428.733154	715.386658	-0.352506
325.036407	732.179016	2472.051514	727.349304	-0.277590
325.404755	733.070618	2497.686279	728.538147	-0.256853
325.773102	739.014832	2510.243408	732.550537	-0.364961
326.141388	734.110840	2511.580811	723.857117	-0.576872
326.509674	727.200745	2518.862305	727.572266	0.020736
326.877899	714.346375	2542.787842	729.801270	0.845250
327.246124	716.798340	2556.905273	732.996338	0.880275
327.614288	723.559875	2559.580322	730.767273	0.392555
327.982422	726.680664	2549.549316	719.547546	-0.391313
328.350525	725.714661	2538.032471	717.244141	-0.467386
328.718628	725.491699	2519.308105	714.792236	-0.596464
329.086700	726.086121	2525.029541	726.086243	0.000007
329.454712	728.835388	2528.595947	732.773438	0.218810
329.822693	730.098572	2546.205811	731.733215	0.090008
330.190674	735.522644	2549.400879	730.767273	-0.262166
330.558563	737.751709	2569.388184	730.990234	-0.369149
330.926483	730.098572	2591.604736	732.922058	0.151678
331.294312	730.990234	2616.347656	736.785828	0.307400
331.662231	719.993408	2642.873779	732.847717	0.668492
332.029999	720.959290	2683.071533	732.699036	0.598322
332.397766	719.398926	2720.148438	740.426575	1.050989
332.765503	733.070618	2761.014893	738.866211	0.285787
333.133240	736.934387	2814.215576	738.717590	0.085843
333.500916	734.185242	2870.016846	732.847656	-0.062626
333.868561	722.519714	2911.552002	734.556641	0.549874
334.236176	720.959290	2927.675781	733.739441	0.579148
334.603790	724.303040	2929.533203	728.612488	0.195419
334.971344	725.491882	2922.326172	723.708496	-0.081180
335.338867	728.241028	2903.527588	723.708496	-0.208365
335.706360	725.045898	2914.821289	720.736389	-0.196801
336.073853	730.618652	2927.452881	727.126465	-0.158965
336.441284	729.652649	2955.687744	728.761047	-0.040053
336.808655	735.151123	2928.567383	738.643311	0.159212
337.176086	729.652771	2896.468750	736.117004	0.298329
337.543396	732.550598	2813.175049	739.237793	0.321403
337.910706	728.761169	2760.643311	733.665039	0.241346
338.277954	729.281250	2758.934326	741.243958	0.589397
338.645264	727.795166	2842.153564	737.825989	0.474414
339.012421	724.674377	2966.833252	731.064453	0.284997
339.379669	730.024170	3088.318359	723.634216	-0.270957
339.746796	724.302917	3185.506104	723.188293	-0.045288
340.113953	725.045898	3246.434326	730.990173	0.235754
340.481018	721.999512	3265.381592	733.813660	0.464505
340.848114	722.148132	3265.901611	743.027161	0.820796
341.215118	725.194580	3261.889404	740.129395	0.588751
341.582153	722.742615	3272.440430	737.454529	0.577006
341.949066	726.309082	3286.929688	723.782898	-0.098655
342.316010	721.479492	3309.666016	723.336975	0.071768
342.682922	720.662109	3328.836182	726.383362	0.219359
343.049835	721.182190	3350.904297	735.299744	0.536846
343.416656	730.767273	3397.789063	739.014893	0.309245
343.783478	733.144836	3471.794678	731.138855	-0.073247
344.150269	736.860107	3573.589111	729.875671	-0.246214
344.516998	741.912659	3676.647217	731.213196	-0.364580
344.883728	743.175781	3771.606201	738.420471	-0.157022
345.250427	739.089172	3847.468994	733.962219	-0.164940
345.617065	728.835449	3889.673096	728.240967	-0.018808
345.983704	730.915833	3904.979492	726.011902	-0.154500
346.350281	733.367859	3885.586670	728.092468	-0.167355
346.716827	733.219238	3844.943115	730.841553	-0.076411
347.083405	727.943665	3800.806885	725.788879	-0.070123
347.449860	729.949951	3745.154297	733.293457	0.110888
347.816376	730.470032	3707.185547	730.692932	0.007488
348.182770	734.036621	3664.981689	727.646545	-0.218021
348.549194	726.754883	3649.526611	724.823059	-0.066096
348.915558	718.730225	3655.545654	722.742615	0.136624
349.281921	722.593994	3669.588623	737.008728	0.489133
349.648193	723.039795	3713.129883	729.578430	0.218677
350.014526	729.058289	3755.036377	732.624817	0.117864
350.380737	730.395691	3807.345703	721.627991	-0.284948
350.746948	730.767273	3866.565186	724.451477	-0.201410
351.113159	730.247131	3919.023193	726.754883	-0.109517
351.479309	721.182190	3951.641846	734.928223	0.425513
351.845428	723.039795	3969.028564	741.095398	0.556244
352.211517	723.336975	3983.666016	743.621643	0.622166
352.577576	720.513489	4022.006592	742.507019	0.666169
352.943604	721.925293	4068.296875	736.562805	0.437414
353.309601	728.612488	4138.215332	732.104675	0.102422
353.675537	737.900391	4221.062988	739.089172	0.034129
354.041473	733.070618	4319.514160	743.844543	0.300407
354.407379	728.018066	4432.975098	745.999329	0.485330
354.773254	727.720886	4540.639648	739.237793	0.302050
355.139038	735.968445	4626.310547	734.854004	-0.028646
355.504913	737.528809	4706.483398	733.962341	-0.089859
355.870636	731.361633	4801.962402	728.538086	-0.069364
356.236389	725.863281	4909.478516	733.516418	0.182931
356.602081	730.098572	5044.708984	733.367859	0.075772
356.967804	738.791992	5162.924316	741.095398	0.052065
357.333405	739.757874	5299.121094	738.346191	-0.030962
357.699036	735.225403	5421.275391	737.305908	0.044398
358.064606	731.658875	5574.785156	735.745544	0.084381
358.430176	735.448242	5697.978516	734.408142	-0.020959
358.795654	734.630920	5749.470215	725.714661	-0.177798
359.161163	737.751709	5740.256348	723.411316	-0.286664
359.526581	742.358459	5718.411621	710.854187	-0.633118
359.892029	747.262512	5737.730469	719.324646	-0.559825
360.257416	740.872375	5821.767090	723.411316	-0.343661
360.622772	729.801331	5995.263672	732.327637	0.047979
360.988098	722.148132	6238.902344	734.482422	0.223579
361.353394	720.067688	6525.413574	731.510254	0.197104
361.718658	727.720886	6799.665527	735.076843	0.121147
362.083893	733.962341	7043.154785	730.618652	-0.052997
362.449097	740.872498	7184.255859	725.045959	-0.245625
362.814209	739.163574	7190.571777	721.553711	-0.272962
363.179382	739.683594	7001.619629	726.234802	-0.214770
363.544434	738.643372	6697.721191	731.733215	-0.115960
363.909546	737.751709	6319.669434	733.590759	-0.074543
364.274536	734.853943	6016.068359	733.219238	-0.030953
364.639587	737.825928	5793.457520	733.219238	-0.091120
365.004517	735.151062	5679.997559	733.739441	-0.028547
365.369507	737.157227	5614.610840	733.516418	-0.074646
365.734344	722.445313	5570.326660	733.367859	0.225306
366.099274	724.377258	5523.664063	735.745605	0.236876
366.464081	727.052063	5495.280762	732.699219	0.118433
366.828918	738.420410	5496.171875	730.693054	-0.162416
367.193665	742.135559	5501.076660	729.281250	-0.270109
367.558411	734.408142	5515.416504	736.488586	0.043515
367.923126	735.745605	5509.695313	738.420471	0.056030
368.287781	733.367859	5507.688965	731.658936	-0.035794
368.652435	734.853943	5481.609375	729.875671	-0.104877
369.017059	738.791931	5450.996094	726.606262	-0.258598
369.381653	738.717590	5422.761230	731.733215	-0.149110
369.746185	744.736145	5397.646484	726.532043	-0.391241
370.110687	738.717590	5404.259766	730.024231	-0.186331
370.475220	738.717712	5452.259277	728.538269	-0.215962
370.839661	733.293640	5522.772949	728.389587	-0.102392
371.204041	733.293640	5595.515137	724.080017	-0.189494
371.568451	740.203674	5641.730957	727.572266	-0.257704
371.932770	737.380188	5695.229004	729.429871	-0.160358
372.297150	736.637207	5733.420410	730.990173	-0.113013
372.661377	733.219238	5775.921875	729.875671	-0.066305
373.025696	743.993164	5810.101563	728.835388	-0.299200
373.389862	738.048889	5812.701660	729.949951	-0.159596
373.754059	736.117004	5810.918457	724.971680	-0.219621
374.118225	719.250305	5810.695313	721.553711	0.045241
374.482361	727.869446	5840.714355	728.315247	0.008719
374.846436	730.470032	5899.338379	737.603210	0.138003
375.210510	738.643311	5979.808594	743.770264	0.097821
375.574524	738.569031	6091.187988	738.494812	-0.001387
375.938538	735.299744	6240.239746	733.888000	-0.025645
376.302460	732.476257	6377.253906	732.773438	0.005265
376.666412	732.699158	6556.545410	733.442139	0.012758
377.030304	730.098572	6702.253906	730.618652	0.008708
377.394196	733.442200	6865.645020	729.429871	-0.065430
377.757996	728.463867	6979.477051	725.937561	-0.040414
378.121796	732.327637	7059.724121	732.996399	0.010569
378.485565	734.631042	7080.454590	728.984070	-0.088987
378.849304	733.665100	7012.914063	728.092346	-0.088749
379.212982	727.423645	6873.521973	730.693054	0.053195
379.576630	724.897278	6708.867188	734.556702	0.161422
379.940277	725.120300	6588.496094	735.299805	0.173612
380.303864	723.782898	6498.812988	732.476257	0.150534
380.667450	725.714661	6465.673828	732.550537	0.119093
381.030945	721.925293	6455.865723	730.470032	0.149020
381.394501	730.692932	6481.352051	723.559875	-0.124039
381.757935	734.482422	6507.357910	724.377258	-0.175046
382.121399	748.451355	6502.008301	725.789001	-0.393884
382.484741	746.816650	6533.289551	730.098633	-0.288916
382.848145	746.147949	6564.273926	732.550598	-0.233707
383.211487	745.925049	6652.991699	734.482422	-0.193711
383.574768	737.825989	6737.474121	732.624817	-0.086691
383.938019	731.807556	6834.810059	727.497864	-0.070616
384.301270	717.912903	6918.623535	723.411316	0.088674
384.664459	725.417480	7009.049316	721.107910	-0.068584
385.027649	728.835449	7067.600098	729.281250	0.007033
385.390778	739.683594	7133.878418	734.556702	-0.080180
385.753876	740.946716	7169.320801	737.603088	-0.052014
386.116943	741.541199	7209.221191	727.423645	-0.218278
386.479980	733.219238	7219.400879	724.971680	-0.127156
386.842987	723.485596	7277.283203	724.154297	0.010203
387.205994	719.696106	7321.344238	725.863281	0.093419
387.568909	725.194519	7385.542480	729.281189	0.061358
387.931793	723.039734	7404.191895	732.327637	0.139016
388.294678	722.816895	7452.042969	735.671204	0.191022
388.657471	721.256531	7490.457031	733.219238	0.176723
389.020294	730.172852	7509.851074	728.315247	-0.027400
389.383057	731.807434	7521.812988	730.470032	-0.019697
389.745819	731.584534	7523.001953	732.550537	0.014224
390.108521	728.240967	7537.490723	743.918762	0.230243
390.471191	718.061523	7584.747559	735.671204	0.256451
390.833801	719.250305	7693.972656	733.219238	0.200279
391.196442	717.987244	7873.116699	728.240967	0.143306
391.558960	722.148193	8064.074219	730.692871	0.116382
391.921509	723.857117	8256.370117	733.665039	0.130208
392.284027	725.491760	8436.777344	727.497864	0.026015
392.646484	732.699219	8552.616211	736.414307	0.047508
393.008911	735.002502	8574.459961	733.887939	-0.014217
393.371307	730.693054	8509.444336	733.813660	0.040117
393.733673	725.714661	8463.303711	725.120300	-0.007681
394.096008	719.250305	8405.717773	728.092346	0.115034
394.458344	729.281250	8420.801758	733.516541	0.055064
394.820587	739.312073	8436.702148	734.482422	-0.062744
395.182831	744.513245	8500.379883	729.355469	-0.195436
395.545013	735.002502	8476.379883	729.281067	-0.073907
395.907196	731.436035	8379.489258	733.293457	0.024286
396.269287	736.934387	8235.044922	743.101501	0.082249
396.631409	737.305847	8102.117676	739.534973	0.030267
396.993469	727.943787	7986.131348	741.169678	0.182220
397.355530	714.494934	7893.178223	734.779602	0.282568
397.717499	717.689941	7879.432129	725.937561	0.115162
398.079468	729.355469	7869.921387	718.581604	-0.150883
398.441376	730.395691	7870.962402	719.844727	-0.147761
398.803284	730.395752	7843.990234	733.516418	0.043869
399.165131	723.485596	7857.364746	740.575256	0.239556
399.526978	725.491882	7883.741699	744.661926	0.267803
399.888763	729.058289	7907.072754	740.055176	0.153202
400.250519	726.829163	7913.908203	732.847717	0.083741
400.612244	732.253357	7938.428223	731.287415	-0.013404
400.973938	734.779602	7947.419434	736.265625	0.020603
401.335602	738.049011	7986.874512	741.987000	0.054326
401.697205	731.733215	8039.257813	731.733154	-0.000001
402.058807	731.064514	8106.204590	728.389587	-0.036270
402.420349	727.423645	8202.425781	726.754883	-0.008947
402.781860	726.309082	8297.310547	730.544373	0.055941
403.143341	719.919006	8426.299805	732.847717	0.167766
403.504822	725.343079	8575.797852	731.956055	0.084237
403.866241	729.504089	8759.844727	732.104736	0.032385
404.227631	735.819824	8919.818359	731.436035	-0.053565
404.588959	734.482422	9088.782227	731.956055	-0.030240
404.950287	736.414246	9231.666992	737.305847	0.010495
405.311554	730.544434	9344.831055	734.630920	0.047438
405.672821	738.049011	9375.294922	731.436035	-0.076563
406.034027	740.426575	9354.563477	729.652771	-0.125071
406.395203	744.067444	9267.778320	727.126465	-0.198751
406.756348	730.618652	9186.045898	725.714661	-0.057998
407.117493	726.606262	9096.064453	728.686829	0.024859
407.478516	722.519714	9084.176758	737.008728	0.173279
407.839600	725.343201	9093.018555	741.243958	0.190026
408.200592	728.463928	9117.538086	737.974670	0.113371
408.561554	725.789001	9092.126953	729.652649	0.046181
408.922485	725.045959	9102.380859	722.593933	-0.029270
409.283417	725.343201	9112.336914	720.736389	-0.054928
409.644257	727.200745	9221.413086	723.708496	-0.041113
410.005096	729.504150	9339.331055	734.482422	0.057821
410.365906	730.692932	9469.063477	733.590820	0.033163
410.726715	735.968445	9561.868164	728.909668	-0.079978
411.087433	736.860046	9650.584961	720.067688	-0.188388
411.448120	733.590759	9754.386719	721.776672	-0.130965
411.808807	728.538147	9780.094727	733.145020	0.050896
412.169434	732.104736	9714.114258	730.841614	-0.014063
412.530029	727.795166	9637.286133	727.572266	-0.002502
412.890564	729.801331	9610.387695	719.770508	-0.112952
413.251099	734.259460	9630.895508	721.553711	-0.142815
413.611572	739.386414	9660.765625	726.457703	-0.144918
413.972076	736.191406	9711.959961	724.748718	-0.127484
414.332489	726.903503	9755.500977	734.928223	0.088881
414.692871	723.336975	9881.816406	732.401917	0.098979
415.053223	733.887939	10009.914063	737.157227	0.035244
415.413574	737.305908	10238.023438	731.733215	-0.058655
415.773834	741.912659	10403.496094	726.309082	-0.161501
416.134094	744.736145	10580.929688	721.553711	-0.235685
416.494263	738.940613	10710.291992	722.668274	-0.163191
416.854462	737.900391	10954.226563	727.052063	-0.106186
417.214630	728.240967	11207.079102	731.658875	0.032617
417.574738	731.436035	11493.145508	729.355469	-0.019333
417.934784	730.395813	11763.235352	729.727051	-0.006062
418.294861	732.922058	12116.916992	721.256531	-0.102473
418.654846	731.436035	12549.655273	723.188416	-0.069787
419.014832	733.070618	12967.385742	723.857117	-0.075309
419.374756	728.463867	13464.840820	728.761047	0.002333
419.734680	734.110840	13974.929688	729.727051	-0.033108
420.094543	729.578430	14499.581055	734.036621	0.032376
420.454376	734.630920	14956.320313	741.318298	0.047022
420.814148	732.104675	15371.300781	741.318298	0.062938
421.173920	733.888000	15842.159180	734.631042	0.004918
421.533691	736.637207	16279.429688	724.748718	-0.076489
421.893341	734.928223	16630.806641	725.343201	-0.060299
422.253021	736.042786	16851.560547	736.637207	0.003689
422.612640	735.819824	16893.986328	743.175842	0.045525
422.972260	739.906494	16863.894531	743.547363	0.022580
423.331757	736.265625	16766.039063	730.915833	-0.033374
423.691315	730.990173	16782.904297	731.881836	0.005555
424.050781	724.600159	16890.791016	728.761047	0.025738
424.410248	723.262695	17014.951172	733.813660	0.064763
424.769653	719.473328	17164.968750	728.463867	0.054669
425.128998	725.566101	17213.191406	730.767273	0.031546
425.488373	725.491760	17146.541016	726.680664	0.007240
425.847656	732.030457	16947.482422	728.538269	-0.021536
426.206940	727.943787	16749.169922	727.869446	-0.000464
426.566193	727.572266	16431.822266	731.881836	0.027442
426.925385	722.296692	16107.714844	728.463867	0.040085
427.284576	730.544373	15609.218750	730.618652	0.000499
427.643677	735.596985	15275.450195	732.030457	-0.024529
428.002777	740.649597	14929.942383	731.213135	-0.066504
428.361847	739.237793	14609.327148	724.897400	-0.103391
428.720856	735.596985	14301.936523	723.782776	-0.087085
429.079865	739.460693	14064.687500	741.095398	0.012268
429.438812	731.881836	13915.637695	750.828918	0.143715
429.797760	729.504089	13796.828125	755.807312	0.201290
430.156616	721.405090	13629.051758	745.479187	0.186510
430.515503	715.832336	13550.140625	737.008789	0.164999
430.874268	715.906677	13514.401367	733.070618	0.134109
431.233093	724.748718	13564.706055	729.801331	0.039351
431.591827	732.847717	13622.438477	736.191406	0.025941
431.950562	738.569092	13654.461914	732.550537	-0.046598
432.309204	732.179016	13711.750000	732.922058	0.005725
432.667877	731.361633	13791.105469	723.931396	-0.056894
433.026459	733.962219	13928.194336	730.767273	-0.024215
433.385010	742.135559	14052.575195	730.767273	-0.085409
433.743561	740.872375	14270.208008	736.340027	-0.033500
434.102051	733.219238	14407.296875	740.055115	0.049991
434.460510	729.727051	14588.668945	739.460693	0.070234
434.818939	731.138733	14607.617188	742.878601	0.084603
435.177338	725.566101	14635.851563	732.699158	0.051279
435.535675	721.256531	14537.475586	734.556641	0.096264
435.894012	721.107910	14508.200195	725.863281	0.034491
436.252289	731.881775	14550.999023	726.309082	-0.040326
436.610535	728.389587	14576.113281	727.572266	-0.005902
436.968719	729.652771	14675.976563	738.346130	0.062334
437.326935	726.309082	14755.331055	741.764099	0.110165
437.685028	732.550476	14895.020508	735.374023	0.019937
438.043152	731.213074	14995.032227	734.408020	0.022399
438.401215	727.795166	15188.442383	734.482422	0.046245
438.759277	724.005676	15423.015625	737.528809	0.092000
439.117249	729.949890	15819.421875	733.293518	0.022159
439.475250	736.934387	16143.828125	729.578369	-0.047745
439.833130	740.575256	16532.058594	733.144958	-0.047053
440.191071	737.231628	16801.705078	735.522644	-0.010638
440.548889	745.033386	17086.580078	734.036621	-0.067293
440.906708	740.798096	17380.968750	727.423584	-0.080375
441.264496	742.878601	17580.767578	717.318542	-0.151801
441.622223	730.172852	17761.248047	723.634216	-0.038392
441.979950	732.476257	17829.308594	726.680664	-0.033899
442.337616	728.761047	17830.794922	739.980774	0.065605
442.695251	722.742493	17711.763672	739.980774	0.101467
443.052887	723.708496	17502.451172	738.866272	0.090339
443.410461	723.559875	17338.912109	730.544373	0.042036
443.768005	738.569092	17182.058594	726.754883	-0.071847
444.125458	737.305847	17098.617188	729.504150	-0.047684
444.482941	732.476135	17139.185547	736.860107	0.026721
444.840393	729.206848	17255.470703	733.813721	0.027876
445.197754	731.807434	17532.619141	731.213074	-0.003538
445.555084	742.358459	17810.955078	728.984070	-0.078357
445.912415	741.392578	18180.835938	733.516418	-0.045163
446.269714	740.203796	18433.464844	741.689697	0.008398
446.626953	733.665100	18741.375000	739.014832	0.029708
446.984161	730.024231	19037.099609	734.556702	0.024758
447.341309	724.451599	19324.800781	732.699158	0.044341
447.698456	722.222473	19500.898438	733.070618	0.057768
448.055542	729.132629	19573.937500	738.643372	0.050469
448.412598	735.522705	19520.439453	736.117004	0.003164
448.769653	739.609314	19381.195313	737.825989	-0.009566
449.126617	730.024231	19071.501953	741.541199	0.062792
449.483582	725.937561	18841.982422	745.776367	0.109510
449.840515	723.188293	18478.566406	745.033386	0.123034
450.197388	725.863220	18273.937500	738.866211	0.074099
450.554230	727.200745	18019.748047	734.482422	0.042109
450.911041	729.132629	17885.111328	726.977844	-0.012560
451.267822	728.538147	17751.291016	729.058289	0.003056
451.624573	730.767273	17567.466797	720.884949	-0.058695
451.981262	729.578430	17467.083984	726.086121	-0.020865
452.337921	731.956116	17282.664063	726.309082	-0.034120
452.694580	732.847839	17233.177734	734.853821	0.012157
453.051147	733.665039	17189.933594	736.785828	0.018964
453.407715	727.720886	17121.128906	730.618652	0.017676
453.764221	721.182190	17097.873047	737.454529	0.099363
454.120728	719.919128	16866.716797	739.386414	0.120564
454.477142	725.789001	16813.517578	742.729980	0.105304
454.833557	725.194519	16633.705078	730.321472	0.032228
455.189911	729.875549	16516.974609	724.154297	-0.036240
455.546265	731.435852	16326.239258	721.107910	-0.066227
455.902557	737.380188	16195.245117	722.816833	-0.094213
456.258820	738.494690	16178.601563	730.247070	-0.053417
456.615051	740.129395	16247.776367	732.476257	-0.049351
456.971252	739.014832	16252.604492	733.219238	-0.037358
457.327393	732.476257	16444.677734	731.584656	-0.005675
457.683502	734.556641	16679.623047	729.504150	-0.031687
458.039612	737.157288	17135.916016	732.104675	-0.030811
458.395630	736.711426	17543.021484	734.185242	-0.015031
458.751648	729.652649	17995.822266	740.426575	0.062399
459.107605	719.176086	18619.445313	733.219238	0.078452
459.463562	716.649719	19301.990234	727.720764	0.059569
459.819458	718.210144	19972.794922	725.343079	0.037045
460.175323	720.810730	20509.855469	729.355469	0.043179
460.531158	727.572266	20996.390625	735.448303	0.038858
460.886932	729.504150	21260.164063	740.426575	0.053201
461.242676	732.699158	21373.773438	745.776367	0.063355
461.598419	734.705322	21127.978516	745.627869	0.053560
461.954102	734.333801	20717.679688	741.466797	0.035695
462.309723	731.584656	20060.992188	737.974609	0.033058
462.665344	728.612488	19427.486328	731.510254	0.015497
463.020905	723.782715	18872.666016	734.333801	0.058136
463.376373	726.531982	18488.892578	738.940613	0.069859
463.731873	732.104675	18137.812500	739.089172	0.040128
464.087341	734.705261	17875.376953	730.544373	-0.024275
464.442749	737.083008	17713.099609	728.612488	-0.049897
464.798126	725.566101	17639.093750	723.114075	-0.014497
465.153503	726.234863	17700.021484	732.030457	0.034144
465.508820	722.593933	17747.205078	733.813660	0.065903
465.864105	726.977844	17902.052734	744.438965	0.101665
466.219330	735.002625	18157.060547	745.776428	0.061840
466.574524	733.367920	18391.781250	746.073669	0.071953
466.929657	730.172852	18562.083984	745.553528	0.086254
467.284790	723.782776	18737.064453	740.426575	0.092397
467.639893	724.600098	18890.128906	741.392578	0.092441
467.994934	727.795227	19051.589844	736.042725	0.045010
468.349945	725.640442	19092.232422	732.253357	0.036005
468.704926	733.293518	19031.453125	721.628113	-0.063752
469.059875	729.429871	18827.417969	721.182190	-0.045572
469.414764	728.463867	18546.775391	727.275085	-0.006672
469.769653	723.336975	18345.416016	726.903503	0.020239
470.124451	728.018005	18261.529297	729.652649	0.009323
470.479248	730.841492	18150.373047	726.234802	-0.026446
470.834015	733.665039	18090.259766	736.414246	0.015840
471.188721	731.510254	18167.388672	740.203674	0.049859
471.543365	729.504089	18292.810547	744.067383	0.082919
471.898010	730.841553	18401.439453	736.414246	0.031537
472.252625	735.225403	18510.070313	731.881836	-0.018811
472.607178	736.042725	18762.552734	725.491760	-0.058530
472.961700	731.213074	19015.626953	726.829163	-0.023976
473.316193	727.349365	19339.513672	720.141907	-0.038724
473.670654	728.538269	19464.490234	722.816833	-0.030537
474.025055	733.219238	19654.111328	724.971680	-0.043590
474.379456	729.727051	19745.353516	733.813660	0.021491
474.733795	726.903503	19897.080078	735.076843	0.042636
475.088104	730.470032	20032.978516	734.408020	0.020401
475.442383	735.968445	20061.214844	730.618652	-0.027683
475.796570	739.906494	20175.791016	725.491699	-0.074166
476.150787	737.157288	20340.445313	725.343079	-0.060266
476.504944	741.763977	20628.886719	722.742493	-0.095647
476.859070	741.466858	20929.218750	728.463867	-0.064410
477.213135	731.287354	21236.460938	735.299744	0.019568
477.567200	725.417480	21652.037109	739.014893	0.064977
477.921173	725.863281	22034.619141	737.231628	0.053351
478.275146	733.442139	22511.494141	730.692871	-0.012624
478.629089	737.603027	22803.728516	732.327576	-0.023907
478.983002	734.110840	23195.974609	738.940491	0.021502
479.336823	740.723816	23491.548828	739.906433	-0.003593
479.690643	734.408020	23901.849609	735.596924	0.005132
480.044403	733.887939	24393.287109	726.829285	-0.029834
480.398163	721.776611	25084.375000	731.064453	0.038123
480.751862	726.903503	25995.251953	741.615479	0.058223
481.105499	733.442200	27115.515625	736.340027	0.010984
481.459137	735.002502	28580.986328	738.866272	0.013876
481.812744	728.761047	30372.203125	734.705322	0.020053
482.166290	725.194519	32559.525391	754.321289	0.091495
482.519806	723.411316	35216.296875	745.256348	0.063332
482.873291	724.080017	38326.382813	741.689758	0.046832
483.226715	724.154358	41898.636719	732.179016	0.019489
483.580139	724.451599	45383.656250	741.541199	0.038267
483.933502	727.423645	48725.792969	742.878601	0.032199
484.286804	725.566101	51446.386719	748.079773	0.044387
484.640106	728.463867	53510.515625	741.095276	0.023931
484.993347	724.897400	54637.093750	739.386414	0.026875
485.346558	726.234863	54899.828125	729.504089	0.006035
485.699738	733.144958	54222.035156	732.476257	-0.001250
486.052887	733.665039	52984.156250	734.408142	0.001422
486.405975	732.104736	51374.386719	733.665039	0.003081
486.759064	729.429749	49756.000000	733.516418	0.008336
487.112061	734.779602	48402.652344	732.179016	-0.005456
487.464996	732.996338	47607.984375	739.237793	0.013315
487.817963	731.064514	47443.402344	739.757874	0.018610
488.170868	727.349304	47511.464844	742.432800	0.032241
488.523743	728.909729	47600.625000	747.188171	0.038997
488.876587	728.909668	47485.832031	745.925049	0.036391
489.229401	736.934387	47060.824219	746.965271	0.021654
489.582153	741.392578	46267.636719	749.045715	0.016810
489.934845	742.358582	45187.125000	749.120056	0.015213
490.287537	746.965271	44062.261719	749.491516	0.005832
490.640198	748.228333	43202.351563	742.952881	-0.012426
490.992798	750.457458	42621.675781	736.860046	-0.032474
491.345337	737.231628	42533.105469	740.798035	0.008533
491.697876	732.179016	42586.234375	740.946716	0.020948
492.050354	726.160461	42972.085938	749.714539	0.055755
492.402832	725.640320	43217.808594	748.822815	0.054557
492.755219	728.166687	43088.593750	746.668152	0.043676
493.107605	729.206848	42354.332031	741.689758	0.029989
493.459930	737.305847	41033.011719	738.049011	0.001844
493.812225	743.027161	39304.656250	740.426697	-0.006744
494.164490	742.358459	37354.207031	745.107666	0.007509
494.516724	740.575195	35390.757813	743.993103	0.009864
494.868896	732.253235	33593.375000	738.866211	0.020124
495.221039	736.191345	32156.953125	740.723816	0.014425
495.573120	742.878601	31015.443359	735.819824	-0.023317
495.925201	745.924988	30403.335938	739.163391	-0.022799
496.277222	746.890930	30035.166016	731.436035	-0.052768
496.629211	734.705261	29984.787109	736.785828	0.007113
496.981140	728.240967	29914.796875	734.928223	0.022912
497.333069	733.813660	29997.271484	742.135559	0.028438
497.684967	736.637207	30074.771484	740.129395	0.011903
498.036804	740.649475	30179.537109	740.500916	-0.000505
498.388580	737.751709	30090.220703	738.643372	0.003038
498.740326	737.825989	29938.052734	740.352356	0.008652
499.092072	743.695984	29614.462891	743.547363	-0.000515
499.443756	732.699158	29314.056641	734.779602	0.007279
499.795410	739.832214	28956.664063	724.600098	-0.053982
500.147003	735.968445	28661.158203	725.863281	-0.036187
500.498566	737.751709	28278.427734	729.801331	-0.028868
500.850098	725.566101	27869.314453	739.683594	0.052010
501.201599	719.398926	27479.599609	732.996338	0.050812
501.553009	721.033630	27133.349609	732.104675	0.041916
501.904449	728.092346	26945.806641	731.956116	0.014737
502.255859	735.374023	26756.333984	729.058350	-0.024271
502.607178	738.420410	26726.093750	731.138733	-0.028020
502.958405	734.333801	26630.390625	724.377197	-0.038448
503.309692	732.104675	26565.750000	724.674500	-0.028762
503.660919	730.841553	26566.492188	718.135742	-0.049179
504.012115	731.658875	26588.337891	724.674500	-0.027012
504.363251	729.801270	26711.009766	727.126404	-0.010295
504.714294	728.612488	26791.927734	733.962219	0.020526
505.065369	722.891174	26865.486328	723.411194	0.001989
505.416443	723.559875	26834.875000	718.284363	-0.020204
505.767395	721.405090	26776.771484	717.987122	-0.013118
506.118317	728.018066	26721.634766	731.064453	0.011720
506.469238	726.606262	26764.062500	741.541077	0.057359
506.820160	726.309082	26732.111328	739.312012	0.050000
507.170929	722.593994	26765.326172	733.739319	0.042796
507.521729	722.668274	26869.423828	731.213074	0.032680
507.872498	725.343262	26991.130859	731.287415	0.022631
508.223236	727.423645	27131.490234	730.172852	0.010412
508.573883	728.463867	27269.541016	732.699158	0.015957
508.924500	730.098572	27503.896484	732.847717	0.010268
509.275116	734.408020	27736.687500	734.556702	0.000551
509.625702	734.333740	27997.490234	730.098633	-0.015534
509.976196	728.761047	28262.302734	733.739441	0.018081
510.326660	725.343262	28537.669922	734.259583	0.032059
510.677124	724.897400	28750.771484	736.191406	0.040298
511.027557	728.538147	28945.666016	737.305969	0.031073
511.377869	727.795166	29146.951172	738.346191	0.037126
511.728180	728.612488	29343.853516	733.739319	0.017916
512.078430	731.213074	29488.076172	730.915833	-0.001034
512.428650	728.984070	29612.009766	732.401855	0.011833
512.778931	731.287415	29687.130859	742.135559	0.037464
513.129028	724.228577	29741.818359	744.959167	0.071441
513.479126	728.240967	29770.201172	749.194336	0.072149
513.829285	726.903503	29718.859375	751.200500	0.083806
514.179382	732.624817	29631.775391	747.856873	0.052708
514.529297	729.058289	29501.599609	735.819824	0.023500
514.879272	732.847717	29476.929688	730.544250	-0.008014
515.229187	729.206848	29419.640625	730.247070	0.003626
515.579163	725.566101	29464.669922	736.637146	0.038523
515.928955	719.398926	29473.509766	734.110840	0.051165
516.278748	725.640320	29679.775391	740.946716	0.052864
516.628540	733.293518	29936.119141	743.695984	0.035621
516.978333	738.717590	30419.755859	746.890930	0.027537
517.327942	735.374023	30963.576172	741.243958	0.019419
517.677612	731.807434	31612.759766	740.352356	0.027671
518.027222	727.200684	32220.109375	740.426575	0.041996
518.376831	727.200684	32940.179688	744.216064	0.052822
518.726379	726.606262	33582.972656	742.432800	0.048169
519.075867	725.714661	34108.886719	735.374023	0.028935
519.425293	723.857178	34482.183594	731.584656	0.022891
519.774658	719.770508	34644.535156	730.544434	0.031758
520.124084	725.863281	34682.425781	736.117004	0.030197
520.473389	734.779602	34437.902344	734.482422	-0.000882
520.822693	742.952881	34068.839844	738.643311	-0.012932
521.171997	737.231628	33614.402344	734.928223	-0.007006
521.521240	733.144958	33181.816406	737.008728	0.011907
521.870361	730.915833	32823.750000	730.915833	0.000000
522.219482	733.888000	32516.580078	735.151123	0.003974
522.568604	734.333801	32276.287109	734.408020	0.000235
522.917664	732.996338	32128.570313	735.894104	0.009230
523.266724	729.355469	32162.826172	730.098572	0.002364
523.615662	733.516418	32451.562500	724.823059	-0.027408
523.964600	737.231628	32914.988281	725.937683	-0.035099
524.313538	742.581360	33513.496094	732.550537	-0.030609
524.662354	735.374023	34154.359375	741.689758	0.018899
525.011169	733.888000	35010.847656	742.209900	0.024278
525.359985	731.213074	36017.871094	735.374023	0.011792
525.708740	735.448425	37223.359375	726.383362	-0.024844
526.057434	735.225403	38586.890625	729.132568	-0.016097
526.406067	736.637207	40109.355469	734.185242	-0.006228
526.754700	727.497986	41800.855469	739.237793	0.028583
527.103333	730.692932	43698.324219	740.798157	0.023518
527.451782	733.219238	45820.925781	739.906494	0.014832
527.800293	732.699036	48010.925781	733.739441	0.002201
528.148743	726.383362	50109.675781	739.609314	0.026782
528.497131	717.467041	51969.402344	745.553528	0.054801
528.845642	721.925232	53491.500000	750.754700	0.054633
529.193909	720.662109	54667.562500	740.575256	0.036912
529.542175	723.262695	55447.957031	734.705322	0.020909
529.890503	724.228699	55786.035156	738.569031	0.026044
530.238770	732.030457	55511.488281	741.095276	0.016548
530.586914	736.339905	54707.535156	751.200500	0.027534
530.934998	738.346191	53440.300781	752.017761	0.025941
531.283142	737.825989	51960.933594	754.841309	0.033218
531.631226	736.414307	50174.250000	743.993103	0.015330
531.979248	738.197510	48381.996094	739.089172	0.001872
532.327148	735.968445	46744.878906	736.785828	0.001777
532.675110	733.813721	45635.097656	737.751709	0.008770
533.023071	727.349304	45070.988281	736.488525	0.020610
533.370850	731.510254	44967.410156	735.299622	0.008566
533.718689	729.504150	45187.574219	737.677429	0.018384
534.066467	735.151123	45402.531250	743.621582	0.018963
534.414246	726.086243	45507.667969	746.222229	0.044965
534.761963	728.240906	45303.925781	742.209900	0.031338
535.109619	728.315247	44947.574219	742.729980	0.032598
535.457153	730.172852	44288.214844	739.163513	0.020641
535.804749	731.510254	43521.484375	737.157288	0.013197
536.152344	722.891174	42571.152344	738.569031	0.037464
536.499817	725.863281	41648.234375	736.637207	0.026328
536.847229	727.200745	40711.500000	741.763977	0.036422
537.194641	730.767273	39908.878906	736.488525	0.014603
537.542114	735.596863	39305.246094	737.157227	0.004046
537.889404	730.470032	38823.097656	732.550537	0.005462
538.236694	726.829285	38426.765625	732.476257	0.014979
538.583984	720.364929	38014.308594	734.928223	0.039050
538.931213	724.823059	37731.218750	739.237793	0.038952
539.278381	727.720886	37543.750000	734.779602	0.019173
539.625488	725.863281	37612.781250	735.745544	0.026791
539.972595	728.612549	37967.207031	738.791992	0.027336
540.319641	726.532043	38678.433594	746.519470	0.052665
540.666687	730.172852	39658.187500	746.222229	0.041228
541.013611	726.977844	40930.917969	741.838379	0.036963
541.360596	734.259460	42329.441406	742.952881	0.020900
541.707458	737.825989	43709.613281	746.296570	0.019712
542.054260	739.683594	44887.238281	751.051941	0.025751
542.401062	733.070740	45863.425781	752.537903	0.043135
542.747864	727.423645	46392.019531	755.658691	0.061831
543.094666	725.268860	46350.781250	754.692688	0.064490
543.441284	724.823059	45664.371094	757.367676	0.072419
543.787903	730.247131	44623.464844	753.132385	0.052138
544.134460	728.092346	43323.613281	751.126221	0.054076
544.481079	732.253357	41945.222656	748.154114	0.038582
544.827637	724.005676	40409.535156	746.147949	0.055794
545.174072	720.587830	38848.878906	748.748535	0.073858
545.520508	719.919128	37439.656250	739.460693	0.053218
545.866943	720.216309	36273.769531	735.745605	0.043679
546.213318	727.052063	35412.007813	731.435974	0.012639
546.559631	729.875671	34725.894531	734.556702	0.013769
546.905823	735.894104	34178.136719	740.426575	0.013553
547.252136	737.454590	33774.675781	744.438965	0.021141
547.598389	733.962341	33350.406250	746.222229	0.037588
547.944458	728.761047	32971.457031	741.689758	0.040098
548.290588	729.281250	32352.666016	738.271790	0.028430
548.636658	738.346130	31736.177734	741.318298	0.009588
548.982727	740.352295	30950.500000	745.404968	0.016725
549.328735	734.928223	30268.921875	745.479248	0.035725
549.674622	725.491699	29484.732422	740.426575	0.051931
550.020569	716.798340	28780.638672	737.083008	0.072280
550.366455	718.953125	28042.070313	731.881836	0.047318
550.712280	720.736389	27380.703125	730.470032	0.036510
551.058044	723.782898	26874.849609	726.160461	0.009092
551.403748	718.135803	26476.585938	729.429871	0.043846
551.749512	717.244141	26206.939453	731.287415	0.055094
552.095154	719.250305	26036.490234	736.042786	0.066328
552.440735	726.234863	25965.306641	737.677429	0.045337
552.786316	726.977844	25973.556641	732.476257	0.021779
553.131897	734.110901	25998.968750	725.194519	-0.035292
553.477417	736.934387	26064.132813	729.801331	-0.028164
553.822815	738.420410	26090.806641	732.253357	-0.024325
554.168213	737.380188	26067.994141	733.219238	-0.016427
554.513672	736.934387	25955.875000	732.253235	-0.018562
554.859009	738.569031	25749.236328	735.448242	-0.012478
555.204285	739.312012	25528.708984	734.556641	-0.019183
555.549500	739.014893	25266.716797	729.801331	-0.037564
555.894714	732.476257	25037.193359	732.996338	0.002140
556.239990	738.271790	24733.146484	744.661865	0.026631
556.585022	734.036621	24432.591797	748.302734	0.060198
556.930115	736.414307	24119.330078	740.500916	0.017477
557.275146	738.271790	23832.447266	725.789001	-0.054052
557.620178	739.237793	23656.427734	719.398926	-0.086568
557.965149	743.547363	23502.619141	727.795105	-0.069213
558.310059	730.172852	23359.068359	740.723816	0.046626
558.654968	732.327576	23182.818359	739.683594	0.032766
558.999756	725.566101	23049.669922	729.429871	0.017308
559.344604	732.773438	22992.009766	728.984070	-0.017024
559.689331	728.166687	22954.117188	736.637207	0.038111
560.033997	730.990173	22914.515625	744.661865	0.061630
560.378723	726.086182	22889.398438	739.237793	0.059340
560.723389	729.652771	22884.791016	732.847717	0.014421
561.067932	728.538147	22913.250000	730.544373	0.009043
561.412476	726.754883	22924.765625	730.767273	0.018075
561.757019	723.411316	22907.974609	737.825989	0.064976
562.101501	722.371094	22913.173828	736.191406	0.062279
562.445862	727.423645	22878.328125	735.151123	0.034886
562.790222	730.990173	22912.728516	733.070740	0.009380
563.134644	734.185242	22876.541016	742.952942	0.039597
563.478943	734.333801	22882.115234	751.349121	0.076826
563.823181	734.408142	22818.810547	752.017822	0.079738
564.167358	729.206848	22833.150391	743.621582	0.065213
564.511536	729.875549	22865.619141	732.179016	0.010406
564.855774	732.030457	22934.130859	722.668213	-0.042168
565.199768	739.237793	23083.921875	724.451477	-0.066174
565.543823	734.631042	23260.021484	727.052063	-0.033646
565.887817	726.383484	23494.000000	734.036621	0.033614
566.231812	723.931396	23678.865234	737.008728	0.056970
566.575745	726.457703	23835.939453	738.569031	0.052408
566.919617	734.631042	24013.599609	739.980774	0.022981
567.263428	735.076843	24126.017578	733.813660	-0.005400
567.607239	732.030457	24263.626953	734.408020	0.010104
567.950989	730.321472	24274.921875	734.036621	0.015779
568.294678	728.463867	24284.953125	735.299744	0.029019
568.638367	726.457703	24144.593750	726.234802	-0.000952
568.981995	723.262695	23982.615234	725.194580	0.008306
569.325623	727.720886	23786.900391	724.823059	-0.012567
569.669128	733.887939	23668.091797	732.699158	-0.005183
570.012573	735.299744	23590.146484	727.869446	-0.032511
570.356140	730.841492	23560.130859	729.949951	-0.003905
570.699524	723.931335	23540.365234	732.253357	0.036474
571.042908	722.148132	23603.076172	733.887939	0.051308
571.386230	719.398926	23715.048828	729.504089	0.043944
571.729492	721.182190	23881.787109	728.686768	0.032402
572.072815	722.222473	24035.517578	729.949951	0.033146
572.416016	724.748718	24171.640625	737.528809	0.054507
572.759094	728.612488	24336.146484	738.940613	0.043749
573.102234	735.299744	24435.193359	743.547363	0.034800
573.445374	729.801270	24471.304688	744.736145	0.062906
573.788391	719.696106	24429.623047	743.621582	0.100909
574.131409	717.392822	24391.429688	745.033386	0.116755
574.474365	727.869446	24327.453125	744.290283	0.069581
574.817261	739.534973	24198.537109	749.268616	0.041492
575.160156	739.163391	24027.568359	750.531738	0.048815
575.502930	742.061279	23806.146484	746.965271	0.021262
575.845703	741.763977	23596.240234	744.959045	0.013980
576.188477	739.906494	23350.076172	732.030457	-0.034834
576.531250	731.213074	23117.435547	729.578430	-0.007302
576.873901	733.739319	22818.068359	725.863281	-0.035663
577.216431	733.813721	22542.703125	731.138733	-0.012266
577.559082	742.432800	22225.728516	733.442139	-0.041850
577.901611	736.117004	21909.421875	732.178955	-0.018599
578.244080	733.144958	21581.373047	732.327637	-0.003920
578.586487	730.767273	21248.423828	727.795105	-0.014486
578.928955	757.739197	20926.990234	759.819641	0.010315
579.271301	760.042542	20605.185547	762.345886	0.011607
579.613647	758.556458	20298.759766	761.454285	0.014830
579.955872	732.179016	20011.580078	731.956116	-0.001156
580.298157	737.231628	19731.830078	730.321472	-0.036380
580.640320	736.488525	19518.732422	729.058350	-0.039560
580.982483	736.414307	19308.304688	723.039795	-0.072015
581.324524	735.671204	19104.046875	720.736389	-0.081307
581.666626	735.225403	18930.847656	728.761047	-0.035527
582.008728	734.259460	18824.447266	735.671204	0.007804
582.350647	733.665039	18713.363281	734.556702	0.004959
582.692566	739.014893	18645.748047	735.894226	-0.017427
583.034424	734.779602	18529.166016	735.002502	0.001253
583.376343	733.070618	18448.474609	737.603088	0.025585
583.718201	726.754883	18352.474609	733.144958	0.036254
584.059937	737.603088	18278.617188	735.151123	-0.013978
584.401611	726.383362	18179.943359	732.624817	0.035760
584.743347	719.919128	18104.080078	728.018066	0.046588
585.085022	710.631165	18026.880859	729.801331	0.110706
585.426514	717.912903	17995.525391	731.807434	0.080419
585.768127	725.417480	17908.515625	730.767273	0.031134
586.109619	729.949951	17854.943359	724.080017	-0.034277
586.451172	730.767273	17809.171875	725.417480	-0.031325
586.792542	731.287415	17811.328125	731.658875	0.002175
587.133850	731.287415	17779.154297	735.448303	0.024407
587.475220	732.996338	17761.544922	733.962219	0.005672
587.816589	728.835449	17727.439453	731.956116	0.018358
588.157776	735.894226	17751.291016	737.157288	0.007423
588.498962	734.333801	17796.021484	741.764099	0.043550
588.840210	729.949890	17842.164063	748.897156	0.110724
589.181335	726.234802	17913.271484	737.825989	0.067441
589.522400	731.287354	17955.251953	733.888000	0.015099
589.863403	744.438965	17990.398438	733.442200	-0.063764
590.204407	745.033386	17984.826172	740.426697	-0.026721
590.545410	740.649597	18016.626953	740.649475	-0.000001
590.886353	730.098450	18041.517578	730.915833	0.004722
591.227112	728.835449	18023.166016	734.333740	0.031792
591.567932	722.965515	17930.437500	732.773438	0.056998
591.908752	727.572266	17795.947266	746.890930	0.113184
592.249512	724.674500	17705.001953	750.308838	0.150965
592.590149	727.349365	17602.462891	752.017883	0.146183
592.930786	723.708557	17576.160156	744.736145	0.124775
593.271423	720.959290	17522.884766	735.374023	0.085792
593.612000	722.816895	17516.273438	735.968445	0.078314
593.952576	720.810730	17507.429688	729.652649	0.052672
594.292969	725.714661	17557.287109	728.909668	0.018982
594.633484	729.875671	17625.794922	732.550537	0.015831
594.973877	734.110840	17683.527344	737.157288	0.017974
595.314209	731.436035	17768.751953	740.129395	0.051025
595.654480	733.442200	17905.097656	737.974609	0.026395
595.994812	740.129395	18125.554688	738.717590	-0.008121
596.335022	741.689758	18360.500000	729.429871	-0.069584
596.675171	735.076843	18552.052734	728.984070	-0.034196
597.015320	724.080017	18740.333984	729.429871	0.029695
597.355408	721.479431	18862.861328	739.534973	0.099527
597.695496	726.160461	18967.552734	739.386414	0.072505
598.035461	733.367859	18948.009766	734.853943	0.008159
598.375366	736.637207	18895.775391	738.048889	0.007774
598.715271	734.631042	18776.373047	735.448303	0.004530
599.055176	732.179016	18564.089844	734.631042	0.013751
599.395081	728.686768	18293.923828	734.185242	0.031303
599.734802	723.336975	17974.943359	737.751770	0.083556
600.074524	725.120300	17641.173828	747.113831	0.130016
600.414246	728.463867	17280.582031	742.581360	0.085291
600.753906	732.476257	16929.205078	742.209961	0.060097
601.093506	730.841553	16657.628906	730.841614	0.000000
601.433044	733.070618	16467.193359	728.538269	-0.028806
601.772583	733.442200	16340.057617	720.959290	-0.079985
602.112122	735.299744	16329.731445	729.652771	-0.036211
602.451538	739.609314	16396.232422	734.853821	-0.030374
602.790894	742.061218	16547.216797	742.878601	0.005172
603.130310	742.878601	16697.900391	738.048889	-0.030271
603.469604	728.612488	16907.435547	738.494812	0.061082
603.808838	722.222473	17206.281250	737.305908	0.091503
604.148010	722.816895	17506.464844	735.374023	0.074818
604.487305	724.005676	17809.025391	729.206970	0.030444
604.826416	720.736328	17968.775391	731.881836	0.064619
605.165527	718.358704	18147.398438	732.030457	0.078442
605.504456	723.708496	18259.076172	739.757813	0.091525
605.843445	731.287415	18349.576172	734.185242	0.016448
606.182434	730.841553	18347.943359	741.838379	0.062421
606.521423	739.832214	18218.953125	740.055115	0.001275
606.860229	739.832214	18024.578125	739.386414	-0.002579
607.199036	736.191406	17760.281250	741.689758	0.032297
607.537903	721.776611	17482.462891	732.179016	0.062064
607.876648	724.080017	17208.435547	734.333801	0.062203
608.215271	730.618652	16934.929688	728.835449	-0.011004
608.553955	736.488525	16701.468750	735.151123	-0.008377
608.892578	737.900391	16520.392578	733.293518	-0.029190
609.231140	736.860107	16416.740234	728.018066	-0.056391
609.569641	735.968506	16367.848633	729.652771	-0.040403
609.908081	736.191345	16364.430664	733.665039	-0.016165
610.246521	736.711426	16333.520508	738.197571	0.009529
610.584961	735.745544	16345.780273	744.959045	0.059023
610.923340	726.309082	16290.500000	744.736145	0.118394
611.261597	726.829285	16223.627930	748.376953	0.139046
611.599854	725.343079	16078.812500	740.872498	0.101146
611.938110	725.194519	15924.335938	740.500916	0.100706
612.276245	727.423645	15718.592773	735.448425	0.053530
612.614319	731.436035	15442.186523	727.497986	-0.026770
612.952393	732.847717	15143.042969	727.646545	-0.036094
613.290466	731.510254	14830.227539	731.064453	-0.003162
613.628479	732.996338	14544.980469	736.860046	0.027974
613.966370	734.928223	14291.534180	740.872375	0.043847
614.304260	730.172852	14081.332031	741.466797	0.084591
614.642151	732.699036	13899.291992	739.312073	0.050226
614.979980	737.751709	13755.143555	732.179016	-0.042810
615.317749	735.819824	13616.717773	729.504089	-0.049032
615.655396	725.640381	13542.934570	729.504150	0.030145
615.993164	719.473206	13475.914063	736.117126	0.130475
616.330811	721.405090	13461.870117	742.878662	0.168546
616.668396	730.024231	13450.723633	740.129456	0.079439
617.005859	728.018066	13426.948242	733.962219	0.046808
617.343445	732.773438	13409.858398	725.194519	-0.059784
617.680908	731.584656	13398.414063	731.138733	-0.003520
618.018311	737.083008	13404.953125	730.692932	-0.050443
618.355652	730.395752	13412.532227	730.915833	0.004101
618.692993	730.841553	13403.468750	729.652649	-0.009382
619.030273	727.869446	13397.523438	739.906494	0.095007
619.367554	735.225403	13366.835938	748.302673	0.103528
619.704712	730.098572	13345.140625	746.593750	0.130758
620.041870	736.488586	13318.167969	736.562805	0.000590
620.379028	727.943665	13294.836914	731.733154	0.030155
620.716064	729.355530	13211.692383	732.773438	0.027382
621.053040	727.646484	13129.514648	739.757874	0.097658
621.389954	730.544373	13046.815430	738.197510	0.062138
621.726929	728.463867	13008.028320	740.500977	0.098026
622.063843	726.754944	12960.995117	730.172852	0.027937
622.400635	728.018066	12918.344727	728.835449	0.006705
622.737427	731.807434	12891.225586	727.943787	-0.031775
623.074219	730.841614	12842.184570	730.470032	-0.003068
623.410889	725.268860	12796.414063	729.504089	0.035086
623.747559	722.891174	12763.499023	736.191406	0.110461
624.084167	722.148193	12758.446289	743.398743	0.176554
624.420715	728.018127	12753.691406	744.438965	0.136548
624.757324	728.463928	12795.003906	732.104675	0.030172
625.093750	723.857178	12858.679688	728.761047	0.040412
625.430176	724.080078	12948.585938	729.355530	0.043155
625.766602	723.559875	12954.976563	734.259460	0.087476
626.102905	728.315247	13048.078125	733.367859	0.041012
626.439209	724.897400	13151.359375	727.497864	0.020927
626.775452	730.098572	13300.781250	730.098572	0.000000
627.111694	724.748718	13395.815430	728.538147	0.029906
627.447876	728.612488	13459.046875	735.448303	0.053697
627.783997	723.262634	13497.386719	734.036560	0.084342
628.120056	725.194519	13500.210938	739.534973	0.112254
628.456055	728.092285	13484.234375	744.884766	0.131642
628.792053	729.504089	13452.210938	742.358459	0.101035
629.128052	729.355469	13362.601563	734.333801	0.039407
629.463928	726.977783	13255.382813	725.491699	-0.011862
629.799744	721.256531	13158.566406	727.869446	0.053170
630.135559	728.538147	13049.563477	731.287415	0.022314
630.471375	722.222412	12917.007813	731.287415	0.074335
630.807068	728.984070	12716.390625	734.333801	0.044628
631.142700	724.897400	12557.976563	739.237793	0.121189
631.478333	732.104736	12436.714844	736.860107	0.040628
631.813965	733.144958	12352.604492	730.693054	-0.021102
632.149475	730.767273	12258.461914	723.634277	-0.061877
632.484924	727.572266	12162.538086	724.897400	-0.023392
632.820435	725.789001	12097.002930	727.052185	0.011109
633.155884	733.144958	12037.635742	722.222473	-0.096621
633.491150	734.185120	11973.734375	735.596924	0.012561
633.826477	729.206970	11883.531250	733.590759	0.039301
634.161804	726.829285	11835.531250	741.987000	0.136449
634.497009	727.572266	11807.742188	725.268860	-0.020789
634.832153	733.367859	11752.907227	724.005676	-0.084960
635.167297	731.881836	11667.237305	725.491760	-0.058435
635.502380	731.064453	11547.312500	730.098450	-0.008931
635.837463	732.624817	11477.020508	734.036560	0.013139
636.172424	729.355469	11372.848633	730.990173	0.015359
636.507324	734.556702	11310.062500	735.522644	0.009134
636.842224	733.070618	11234.051758	737.231628	0.039625
637.177124	731.361633	11131.735352	734.185242	0.027149
637.511963	725.566101	10999.105469	739.014893	0.130907
637.846741	725.714661	10853.918945	736.265625	0.104174
638.181396	728.835449	10736.519531	744.290344	0.154430
638.516113	722.148132	10631.009766	737.008606	0.149972
638.850769	714.866516	10539.618164	746.370789	0.320662
639.185303	713.900574	10451.867188	746.742371	0.337255
639.519836	718.730225	10367.385742	751.572021	0.340377
639.854370	729.652649	10243.670898	744.364563	0.154634
640.188843	737.900330	10157.924805	742.432800	0.048115
640.523254	741.243958	10083.696289	730.990173	-0.109755
640.857605	740.352356	10023.510742	726.903503	-0.144874
641.191895	736.934387	9956.563477	726.011902	-0.118470
641.526184	733.813660	9878.844727	734.705261	0.009750
641.860413	734.036621	9809.371094	734.779602	0.008187
642.194580	730.692932	9764.567383	723.411316	-0.080603
642.528748	737.157227	9704.901367	724.897278	-0.136712
642.862793	737.008606	9670.127930	721.776672	-0.170511
643.196838	743.398682	9619.454102	729.281250	-0.159051
643.530823	733.590759	9581.114258	722.073792	-0.130172
643.864746	733.219299	9538.091797	721.776672	-0.129958
644.198669	725.268860	9492.990234	716.724060	-0.097457
644.532532	727.423645	9454.128906	723.559875	-0.044275
644.866333	726.457703	9422.922852	733.590759	0.082022
645.200073	721.553711	9384.209961	740.500977	0.218724
645.533813	720.959290	9344.086914	735.448425	0.168026
645.867554	713.454773	9329.449219	724.600159	0.129357
646.201172	718.210144	9315.406250	726.532043	0.096798
646.534729	723.188416	9320.235352	734.853821	0.135691
646.868225	722.742615	9323.430664	733.813660	0.128723
647.201782	730.618652	9337.028320	733.665039	0.035397
647.535217	726.234802	9330.564453	719.473328	-0.078582
647.868591	727.275085	9321.796875	726.086243	-0.013833
648.201965	727.052063	9303.666992	725.640381	-0.016460
648.535278	726.903564	9323.952148	737.454590	0.122728
648.868591	726.383362	9308.125000	738.420471	0.140264
649.201782	723.336914	9288.434570	735.448303	0.141404
649.534912	730.470032	9247.567383	733.219238	0.032279
649.868103	733.442139	9226.986328	733.888000	0.005249
650.201172	738.866211	9209.450195	736.117004	-0.032456
650.534180	737.900391	9183.519531	729.429871	-0.100295
650.867188	738.197571	9144.064453	735.374023	-0.033590
651.200134	733.813660	9125.265625	733.665039	-0.001771
651.533020	736.414246	9099.557617	731.138855	-0.063079
651.865845	739.757874	9063.148438	723.336975	-0.197286
652.198608	743.695984	9023.173828	727.572266	-0.194743
652.531433	735.448303	8975.842773	733.887939	-0.018936
652.864136	734.333801	8936.314453	735.968445	0.019930
653.196777	801.057678	8952.661133	808.710754	0.093884
653.529358	804.549988	8916.104492	814.432129	0.121828
653.861938	807.893555	8859.262695	809.528137	0.020302
654.194519	735.225403	8738.075195	730.247131	-0.062206
654.526978	731.956116	8675.734375	726.532043	-0.068281
654.859375	734.779602	8629.369141	730.172852	-0.058353
655.191833	735.448303	8598.831055	739.312073	0.049136
655.524170	737.157288	8563.165039	738.346130	0.015191
655.856445	726.457703	8525.047852	736.265625	0.125765
656.188660	730.172852	8502.237305	735.374023	0.066921
656.520874	734.631042	8484.329102	733.887939	-0.009589
656.853088	738.866211	8477.866211	734.408142	-0.057605
657.185181	735.745544	8459.809570	730.172852	-0.072147
657.517212	736.042786	8477.197266	732.550537	-0.045113
657.849243	741.838379	8509.519531	734.110901	-0.099482
658.181274	735.448425	8573.346680	735.448425	0.000000
658.513123	733.293518	8623.945313	732.773438	-0.006591
658.844971	726.532043	8716.081055	735.596924	0.113459
659.176819	735.522644	8779.014648	732.030457	-0.043416
659.508667	739.609192	8898.270508	732.401917	-0.088339
659.840393	739.832214	8970.641602	727.126465	-0.154368
660.172058	732.253235	9042.416992	729.504150	-0.033081
660.503662	723.411316	9053.711914	730.692932	0.087411
660.835266	729.949951	9072.288086	737.751770	0.093521
661.166931	735.745605	9020.202148	737.974609	0.026906
661.498413	743.101501	8967.670898	735.299622	-0.094861
661.829773	738.494690	8860.452148	730.098450	-0.103377
662.161194	733.070618	8738.000977	733.219238	0.001857
662.492615	731.213074	8572.454102	742.581360	0.144981
662.823975	729.652771	8420.504883	739.609314	0.129460
663.155212	734.853943	8300.356445	729.875671	-0.065802
663.486450	733.962341	8177.088379	724.897400	-0.121789
663.817627	747.336731	8043.714844	728.538269	-0.257641
664.148743	746.073547	7901.574219	736.414246	-0.134991
664.479858	744.290344	7786.404785	732.550476	-0.166709
664.810913	731.510254	7697.910156	728.389587	-0.044796
665.141907	733.888000	7643.298340	728.018066	-0.084956
665.472778	739.460754	7584.450684	723.782776	-0.229043
665.803711	743.770264	7556.587402	732.253357	-0.169048
666.134583	743.027161	7521.589844	731.658936	-0.167709
666.465454	736.339905	7489.417480	741.169617	0.071519
666.796143	738.048889	7441.120605	740.500977	0.036582
667.126831	735.299622	7408.724609	739.014832	0.055672
667.457458	735.894104	7403.077637	732.773438	-0.046806
667.788147	736.191345	7386.804688	731.807556	-0.065916
668.118774	737.305908	7347.424316	727.349365	-0.150626
668.449219	740.352295	7323.870605	732.179016	-0.124148
668.779663	730.024231	7317.554688	734.408020	0.066547
669.110107	724.377258	7317.777832	729.949890	0.084518
669.440552	719.324646	7316.514160	733.442139	0.213993
669.770874	722.816895	7304.700684	724.971619	0.032737
670.101135	729.058350	7302.619629	736.042725	0.106249
670.431396	724.005676	7261.529785	728.612488	0.070467
670.761597	722.371094	7201.048340	729.949890	0.116981
671.091797	719.919128	7122.955566	726.903503	0.109079
671.421875	730.990173	7095.166504	728.984070	-0.031522
671.751892	739.014832	7073.024902	732.253357	-0.106749
672.081909	734.259460	7060.541504	731.287415	-0.046979
672.411865	730.247131	7014.994629	732.401917	0.034286
672.741821	722.073914	6956.072266	732.699219	0.170441
673.071716	732.773438	6935.490234	736.414307	0.058698
673.401550	733.516418	6879.540527	738.049011	0.073748
673.731262	737.305847	6859.923828	735.819824	-0.024271
674.060974	728.983948	6811.775879	727.646484	-0.021988
674.390625	731.213074	6788.965332	726.606262	-0.076048
674.720276	732.030334	6741.337891	727.795105	-0.070478
675.049927	737.305969	6688.879395	728.389587	-0.149816
675.379395	731.956116	6656.929688	732.030457	0.001255
675.708923	731.138733	6616.954590	734.705322	0.060596
676.038330	725.194519	6568.731934	737.528809	0.211076
676.367737	726.531921	6512.484863	737.008789	0.181074
676.697083	719.473206	6492.869141	734.408142	0.258685
677.026428	720.364807	6489.822266	738.420410	0.312951
677.355652	720.364929	6499.853027	723.559875	0.055281
677.684875	731.584656	6512.930176	724.377258	-0.124666
678.013977	743.101501	6513.525391	728.166687	-0.258817
678.343079	744.364685	6494.355469	735.522644	-0.153775
678.672180	735.596924	6493.314941	728.612488	-0.121306
679.001221	725.937561	6530.466309	733.293640	0.126730
679.330139	725.268860	6598.750000	733.442200	0.139157
679.659058	728.463867	6636.570313	735.522644	0.119476
679.987976	730.618652	6681.374512	728.166687	-0.041204
680.316772	732.922058	6713.027344	722.742615	-0.170222
680.645630	731.064453	6768.383301	722.148132	-0.147687
680.974304	728.686829	6795.207031	716.946960	-0.193519
681.302979	731.064453	6815.565918	725.491760	-0.091588
681.631653	735.894226	6815.342285	730.692932	-0.085555
681.960266	737.157288	6840.457031	733.442139	-0.060871
682.288757	731.584534	6848.704590	736.265625	0.076524
682.617249	728.463867	6854.054199	735.374023	0.112808
682.945679	730.247070	6808.804199	738.049011	0.128352
683.274109	732.922058	6760.433594	733.293518	0.006163
683.602478	732.550537	6696.606934	726.606262	-0.099668
683.930725	731.361755	6617.251465	727.869446	-0.059334
684.259033	730.098572	6548.596191	726.383362	-0.063852
684.587280	728.463867	6458.095215	732.253235	0.066136
684.915344	733.516418	6406.603516	727.349365	-0.108707
685.243469	735.151123	6333.786621	730.692932	-0.079630
685.571533	737.454590	6271.669922	735.671204	-0.032225
685.899536	730.024231	6205.094238	732.327637	0.042071
686.227539	730.470032	6146.915527	728.389587	-0.038410
686.555420	730.990173	6131.237793	723.336975	-0.141719
686.883301	731.881775	6119.126465	722.445374	-0.175162
687.211121	730.841553	6120.761230	733.442200	0.048250
687.538940	732.699158	6127.521973	730.990234	-0.031677
687.866638	733.516418	6142.828613	734.110840	0.010989
688.194336	732.922058	6157.688965	728.389648	-0.083550
688.521973	733.813660	6135.026855	728.835449	-0.092168
688.849609	730.321472	6101.962402	735.671204	0.099592
689.177063	729.429871	6056.117188	732.773438	0.062770
689.504578	728.315247	5996.898438	735.745605	0.141031
689.832031	730.692932	5942.730957	732.104736	0.027087
690.159485	734.110840	5860.924316	728.018066	-0.118841
690.486816	728.983948	5797.692871	730.544250	0.030783
690.814087	729.875671	5715.811035	731.658875	0.035765
691.141296	729.281250	5646.115234	742.209900	0.262947
691.468506	730.692871	5569.138184	740.352295	0.199639
691.795715	731.287354	5477.150879	736.117004	0.101765
692.122803	723.188293	5426.401855	739.757996	0.352306
692.449829	724.302917	5351.579590	736.934387	0.272978
692.776855	727.126404	5293.325684	743.027161	0.348227
693.103821	731.956116	5222.218262	737.677429	0.127416
693.430664	730.321472	5187.519043	743.472961	0.295062
693.757568	715.758118	5141.524902	742.061279	0.594319
694.084351	718.433044	5102.367676	740.278015	0.498296
694.411133	715.832336	5063.507324	732.624817	0.386240
694.737854	733.442139	5029.922363	726.754944	-0.155644
695.064575	732.030334	5000.647461	722.445313	-0.224546
695.391174	740.798096	4969.588867	728.018066	-0.302215
695.717773	731.436035	4964.684570	736.934387	0.129885
696.044250	732.624817	4979.173828	742.655701	0.236213
696.370789	727.646545	4996.263184	744.661926	0.398616
696.697205	724.897278	5021.006348	738.271912	0.311320
697.023621	723.411194	5030.071289	734.333801	0.253621
697.349915	720.513428	5075.098633	730.024231	0.218409
697.676208	726.606262	5149.698730	729.355530	0.062157
698.002380	725.789001	5251.270996	725.789001	0.000000
698.328674	726.680603	5366.588379	730.321472	0.078469
698.654724	729.355469	5492.976563	732.030457	0.056155
698.980896	728.018066	5590.982422	736.711487	0.178768
699.306946	736.562927	5662.461426	729.206848	-0.149335
699.632935	728.761047	5681.037598	733.442200	0.094525
699.958862	728.315247	5703.253906	726.234802	-0.041818
700.284729	717.838623	5687.427734	726.457703	0.173436
700.610596	721.702332	5653.174316	725.268860	0.072322
700.936340	725.640381	5583.701172	728.092285	0.050471
701.262146	728.835449	5480.568848	728.463867	-0.007820
701.587830	733.442139	5373.721191	723.336975	-0.217771
701.913513	738.420410	5235.221191	728.389587	-0.223066
702.239075	737.083008	5101.327148	735.076843	-0.045968
702.564697	728.092346	4960.449707	740.946716	0.303717
702.890137	722.816895	4831.608887	737.825989	0.365292
703.215698	727.423645	4738.433105	735.596924	0.203771
703.541016	738.643372	4636.043945	728.761047	-0.253562
703.866455	736.488586	4559.363281	724.302917	-0.318757
704.191711	744.884766	4485.283691	729.429871	-0.413188
704.517029	735.596924	4415.959473	721.702332	-0.377533
704.842163	739.683594	4380.442871	722.891113	-0.461236
705.167419	728.315247	4325.756348	716.946960	-0.316010
705.492493	736.340027	4305.471680	726.011902	-0.289374
705.817566	734.333801	4259.775391	734.333801	0.000000
706.142578	735.151123	4238.301758	737.305908	0.061510
706.467590	734.631042	4205.607910	736.191345	0.044953
706.792480	735.151062	4190.079590	731.436035	-0.107528
707.117371	742.729980	4191.268066	730.470032	-0.355511
707.442200	733.219238	4205.683105	735.374023	0.062053
707.766907	734.185242	4216.456543	736.934387	0.078947
708.091675	731.807617	4216.085449	730.990234	-0.023459
708.416321	736.562927	4211.032715	728.463867	-0.233102
708.741028	732.476257	4218.462891	734.036621	0.044761
709.065552	729.206970	4241.348145	734.779602	0.158668
709.390137	733.144958	4273.818359	737.305908	0.117519
709.714600	734.631042	4283.106445	730.321472	-0.121449
710.039063	735.596924	4304.728516	726.606262	-0.251901
710.363403	729.058289	4325.384277	721.553711	-0.208673
710.687744	725.937561	4378.956543	719.547546	-0.174924
711.012085	721.256531	4427.847656	727.869446	0.178410
711.336304	723.931396	4490.931152	729.949890	0.159769
711.660461	724.897278	4521.320801	725.120300	0.005875
711.984619	726.754883	4523.104004	723.188416	-0.093945
712.308716	727.795105	4500.664551	731.584656	0.100442
712.632751	731.064453	4487.661621	736.488586	0.144390
712.956726	733.739441	4452.293457	734.853821	0.029968
713.280701	739.312073	4410.089355	725.937561	-0.364351
713.604553	737.528809	4348.046387	736.785828	-0.020578
713.928467	730.172852	4312.009766	742.729980	0.350578
714.252258	722.816895	4271.960449	746.222168	0.659463
714.575989	720.959290	4228.419434	739.832214	0.538080
714.899719	727.126465	4174.921387	731.213074	0.118528
715.223267	730.024231	4140.519043	725.640381	-0.128540
715.546936	734.705322	4120.234863	720.885010	-0.408217
715.870422	735.968445	4105.745605	723.634216	-0.366025
716.193970	735.002502	4083.751953	728.018066	-0.208568
716.517395	738.271790	4048.383789	736.265625	-0.060607
716.840820	735.968445	4015.616211	736.340027	0.011330
717.164124	741.243958	3964.198486	733.590820	-0.237457
717.487488	738.346191	3932.322998	733.516418	-0.151215
717.810730	744.810486	3903.641846	732.699158	-0.383412
718.133972	735.522644	3874.738281	734.036621	-0.047337
718.457092	730.915833	3830.304932	726.829163	-0.131854
718.780212	724.377197	3763.061279	729.727051	0.176058
719.103210	728.538147	3703.990479	730.915833	0.079910
719.426208	732.550537	3652.795898	732.327637	-0.007633
719.749207	732.401917	3608.660156	731.436035	-0.033581
720.072083	726.754944	3566.456299	730.024231	0.115128
720.394958	724.600159	3530.716797	729.132629	0.161521
720.717773	723.411316	3480.710938	727.423645	0.145517
721.040527	726.457703	3445.120117	723.188293	-0.120258
721.363281	729.058289	3402.618408	717.318420	-0.439110
721.685913	734.259521	3378.544189	722.668274	-0.438351
722.008545	745.033447	3355.882568	731.213074	-0.529344
722.331055	740.129456	3315.535889	742.209900	0.080781
722.653503	737.677490	3297.628906	734.705322	-0.116103
722.976013	726.011963	3269.616943	730.990234	0.195717
723.298401	726.457703	3283.214111	729.281250	0.110435
723.620789	725.863281	3269.022461	732.179016	0.248342
723.943115	724.080078	3260.923828	734.036621	0.392478
724.265381	723.114075	3234.694580	732.104675	0.357966
724.587585	720.216309	3229.493408	733.590759	0.533000
724.909790	727.869446	3236.998047	729.801270	0.076992
725.231873	734.259460	3247.251953	728.315247	-0.236539
725.553894	743.250183	3262.707031	726.160461	-0.678310
725.875916	778.766846	3315.907471	766.581116	-0.480294
726.197937	782.110413	3316.650391	776.240540	-0.231595
726.519775	777.503662	3319.696533	778.692566	0.046767
726.841675	741.243958	3276.155518	739.312073	-0.076211
727.163513	741.095398	3287.449463	733.219238	-0.309311
727.485291	733.367859	3302.012939	727.795166	-0.216951
727.806946	726.829285	3330.916748	730.470032	0.139809
728.128662	723.336975	3367.324951	725.120300	0.067448
728.450256	724.971680	3376.984131	729.949951	0.187717
728.771790	725.417480	3388.278564	733.813721	0.315309
729.093323	724.600159	3395.114258	735.968506	0.425699
729.414795	726.903564	3407.522705	734.928223	0.299358
729.736145	731.956116	3391.027588	725.714661	-0.234723
730.057495	729.058350	3375.052002	727.497864	-0.058975
730.378845	728.538269	3375.275146	729.801331	0.047721
730.700134	726.309082	3377.132813	733.739319	0.280299
731.021301	723.559875	3386.272217	735.894104	0.463220
731.342468	729.206848	3382.557373	728.463867	-0.028002
731.663574	729.652649	3399.200928	726.160461	-0.130816
731.984680	731.510254	3401.355713	718.730225	-0.478680
732.305664	725.566101	3421.937500	722.222473	-0.124005
732.626648	723.114075	3427.584717	725.268860	0.079675
732.947571	724.302917	3430.482422	725.417480	0.041186
733.268433	725.343201	3418.222412	725.789001	0.016555
733.589233	723.708496	3403.510498	724.005676	0.011090
733.909973	720.587830	3392.067627	731.658875	0.414416
734.230713	722.593933	3364.947266	731.733215	0.345877
734.551331	727.497864	3326.607422	730.618652	0.120071
734.871948	732.327637	3286.037842	725.937561	-0.250227
735.192505	732.179016	3237.369873	721.776611	-0.415234
735.513062	731.510315	3201.258545	721.776611	-0.394117
735.833435	732.550537	3148.206299	724.302979	-0.341421
736.153931	731.361755	3111.203369	730.395752	-0.040591
736.474304	728.092346	3060.305908	731.213074	0.133810
736.794617	716.278259	3017.804932	730.767273	0.629539
737.114807	716.946960	2986.597656	728.315247	0.500883
737.434998	726.234802	2989.421143	727.572266	0.059096
737.755188	739.906494	3001.904297	728.018066	-0.525572
738.075256	737.157288	3006.585205	724.674377	-0.550047
738.395325	735.225403	3008.219727	727.795166	-0.326892
738.715271	731.138733	3026.795898	728.389587	-0.119754
739.035278	729.727051	3055.922607	729.727051	0.000000
739.355164	728.315247	3078.287354	720.513428	-0.331996
739.675049	725.417480	3079.327393	714.717834	-0.454548
739.994873	734.631042	3077.916016	718.804504	-0.675400
740.314636	733.219238	3065.135986	722.371094	-0.465203
740.634277	732.178955	3046.931641	725.863281	-0.272844
740.953979	729.652649	3016.913330	717.169861	-0.545753
741.273499	721.182190	2984.888672	717.467041	-0.164118
741.593140	720.587830	2941.644775	715.015076	-0.250906
741.912598	723.262695	2904.939209	725.491760	0.102172
742.232117	726.457703	2861.100586	727.943787	0.069617
742.551453	738.866211	2839.850342	734.185242	-0.222799
742.870850	731.807434	2821.199951	733.813660	0.096020
743.190063	744.141785	2797.125977	733.887939	-0.499461
743.509338	741.169617	2759.305908	723.188416	-0.890981
743.828552	747.856934	2713.312256	715.237976	-1.659613
744.147705	730.767273	2698.006104	712.637390	-0.921590
744.466797	726.680664	2672.594482	725.491699	-0.061101
744.785828	727.572266	2651.269775	733.590759	0.312861
745.104858	731.361633	2620.582764	735.671204	0.228114
745.423706	731.287415	2606.316650	728.092346	-0.170401
745.742615	728.018066	2599.034912	718.433044	-0.512289
746.061401	737.454529	2585.511963	721.330872	-0.872465
746.380249	736.414307	2584.620361	724.377258	-0.651283
746.698975	736.265625	2578.750244	734.928223	-0.072587
747.017639	737.677429	2571.245850	732.550537	-0.279613
747.336304	738.643372	2564.409912	735.299744	-0.183136
747.654907	744.884827	2549.177979	729.132629	-0.873040
747.973389	743.398743	2549.103760	728.092468	-0.847662
748.291931	735.448425	2540.113037	725.566101	-0.547599
748.610352	731.658936	2549.549072	727.423645	-0.232978
748.928711	727.423645	2554.155762	729.726990	0.126091
749.247070	733.293518	2560.843262	727.572266	-0.313056
749.565308	724.302917	2562.329346	728.092346	0.206168
749.883545	729.206848	2551.852783	728.166687	-0.057069
750.201782	726.086182	2543.976563	735.968445	0.543612
750.519836	728.612488	2530.750732	739.386414	0.597841
750.837952	727.943787	2518.639404	744.141785	0.904565
751.155884	729.355530	2506.156494	735.151184	0.326185
751.473877	730.470032	2492.410645	734.036621	0.202424
751.791809	731.287415	2487.803711	730.024231	-0.071914
752.109619	732.253357	2479.333252	729.949951	-0.131843
752.427490	728.612488	2463.358154	726.457703	-0.124213
752.745300	727.349304	2453.104248	730.172852	0.163612
753.062988	726.160461	2453.921631	734.853943	0.503165
753.380615	730.767273	2458.082764	733.293640	0.146260
753.698303	729.949890	2453.847412	724.897400	-0.293085
754.015808	735.894104	2434.528564	720.513489	-0.905469
754.333374	738.643372	2423.606201	719.844727	-1.115671
754.650757	736.414246	2414.689697	721.999512	-0.858902
754.968262	735.968445	2426.652588	725.566101	-0.615274
755.285583	727.943787	2426.875244	733.590637	0.332377
755.602905	725.491760	2424.720947	734.185120	0.511606
755.920105	720.439209	2411.940674	730.915833	0.619368
756.237305	727.423645	2412.832275	723.634094	-0.224845
756.554443	727.349304	2395.742676	728.761047	0.084617
756.871582	733.888000	2382.293945	730.990234	-0.175792
757.188599	737.825989	2368.473633	733.367920	-0.273393
757.505615	740.500916	2394.405273	730.395752	-0.610988
757.822510	739.460693	2415.656006	729.429871	-0.598428
758.139465	735.819824	2439.061035	728.389587	-0.436241
758.456238	738.643311	2438.243652	730.915833	-0.454664
758.773010	735.151123	2450.801025	736.339905	0.069290
759.089783	732.253357	2455.927979	737.603088	0.310368
759.406433	730.395752	2475.097900	733.516418	0.178865
759.723145	733.293640	2480.001953	722.296692	-0.629581
760.039673	731.287415	2491.593018	723.114075	-0.464314
760.356201	732.624817	2484.534424	723.931458	-0.496222
760.672668	735.002502	2485.797607	724.005676	-0.628105
760.989136	735.596924	2488.323975	718.210144	-0.991984
761.305481	731.733154	2497.686279	714.643555	-0.967727
761.621826	728.092285	2497.611572	723.931335	-0.235146
761.938049	734.259460	2508.905762	729.801270	-0.251216
762.254333	733.145020	2542.564697	721.999512	-0.615971
762.570496	735.299744	2598.960449	717.541321	-0.952879
762.886597	730.024231	2685.671631	718.507324	-0.588905
763.202637	736.860046	2799.652100	726.829285	-0.486271
763.518677	732.401917	2957.470947	725.566101	-0.307218
763.834656	730.024231	3104.144531	726.829163	-0.134579
764.150574	725.863281	3232.911377	728.166687	0.091877
764.466370	726.680603	3284.031494	734.110840	0.290544
764.782288	731.138733	3293.988281	730.321472	-0.031889
765.097961	735.522644	3266.793213	735.522644	0.000000
765.413696	734.259521	3210.546631	740.055176	0.234046
765.729309	733.813721	3132.156982	744.438965	0.443024
766.044861	733.590820	3014.015625	737.974609	0.192236
766.360474	734.482422	2877.967041	728.612488	-0.273850
766.675903	734.482422	2734.563232	730.098572	-0.219184
766.991394	723.708496	2618.650879	732.773438	0.478376
767.306763	727.200684	2533.053955	740.055115	0.711820
767.622131	727.720886	2467.147705	741.392578	0.785988
767.937378	736.339905	2402.578369	740.946716	0.276480
768.252625	736.711426	2339.718262	739.237793	0.157602
768.567810	737.528809	2283.322510	739.014832	0.096133
768.882996	733.813660	2235.768799	740.055115	0.415555
769.197998	733.516418	2213.626709	735.225403	0.115463
769.513062	724.674500	2189.032227	731.658875	0.476958
769.828064	727.275085	2166.295898	729.132629	0.129084
770.142944	725.566101	2135.162842	732.773438	0.511305
770.457825	727.274963	2105.516113	722.593994	-0.339634
770.772705	727.795166	2072.228516	722.519714	-0.392392
771.087402	735.225403	2040.724121	721.776611	-1.030165
771.402100	739.163513	2017.616089	727.572266	-0.906662
771.716736	741.689758	2010.185913	732.401855	-0.732198
772.031372	734.631042	1997.628540	727.646545	-0.553010
772.345947	733.813660	1981.727905	723.262695	-0.845488
772.660461	727.869446	1961.591797	720.885071	-0.566122
772.974854	731.658875	1954.904663	719.027405	-1.032619
773.289246	734.110901	1947.697266	721.702332	-1.022471
773.603638	735.671204	1937.146118	721.776611	-1.156461
773.917908	731.361633	1926.520874	723.188416	-0.683860
774.232178	739.163513	1913.369263	728.686768	-0.892241
774.546265	732.030457	1903.189819	724.823059	-0.615407
774.860474	729.429749	1874.286011	723.262695	-0.538675
775.174561	723.262695	1857.939453	722.742493	-0.045846
775.488586	724.600098	1841.369995	724.971680	0.033273
775.802551	726.977844	1834.905640	725.268860	-0.154251
776.116516	723.188416	1828.515625	721.702332	-0.134447
776.430359	728.835388	1817.295898	718.135925	-0.982991
776.744202	732.773438	1811.277344	719.993408	-1.184978
777.057922	735.819824	1804.292969	721.553711	-1.335187
777.371704	738.048889	1801.618164	719.398926	-1.753526
777.685303	725.194519	1788.540649	721.182190	-0.377330
777.998962	722.445374	1781.407715	723.931396	0.140328
778.312500	723.114075	1785.568726	727.646484	0.426598
778.626038	733.887939	1793.741821	729.281250	-0.434653
778.939453	731.881775	1786.311890	725.714661	-0.584876
779.252869	730.024231	1766.473022	734.259460	0.408629
779.566223	723.336914	1767.810547	732.550476	0.882125
779.879578	726.606262	1774.869141	736.414246	0.935642
780.192749	724.377258	1777.915527	736.785706	1.177788
780.505920	729.950012	1768.553345	739.534973	0.922870
780.819031	729.429871	1760.602905	735.374023	0.576446
781.132141	728.389465	1753.766968	730.321472	0.188419
781.445190	725.566101	1736.306030	728.909668	0.330804
781.758118	722.965515	1725.829468	731.213074	0.822401
782.071045	724.971680	1720.999634	734.928223	0.999625
782.383911	720.959290	1714.683960	730.247131	0.934649
782.696838	727.943787	1703.538452	728.761047	0.083771
783.009583	735.076843	1694.399292	726.532043	-0.890712
783.322266	740.278015	1682.362183	732.104736	-0.867574
783.634888	737.825989	1662.969116	740.055115	0.240949
783.947510	724.154297	1648.182983	739.386414	1.648446
784.260132	724.748718	1638.969360	737.528809	1.397922
784.572571	719.696228	1623.440063	732.179016	1.381231
784.885010	723.336975	1612.963501	734.110901	1.211062
785.197449	722.816833	1603.972778	738.420410	1.770808
785.509766	725.788879	1614.449585	733.590759	0.877937
785.822083	726.977783	1607.910767	728.686768	0.193997
786.134277	728.389587	1607.093628	723.782776	-0.524273
786.446533	733.070618	1595.205078	727.126465	-0.689469
786.758606	732.476257	1590.301147	732.401917	-0.008666
787.070740	730.618652	1594.313477	730.544373	-0.008600
787.382690	730.618652	1614.598022	728.315247	-0.260572
787.694641	737.231628	1635.700073	723.114075	-1.571291
788.006653	743.101563	1661.706055	728.092346	-1.633915
788.318481	742.209961	1675.377808	734.036621	-0.875870
788.630310	735.151123	1701.309448	734.408020	-0.076913
788.942017	733.219238	1717.433105	730.247070	-0.301984
789.253784	731.584534	1740.838501	728.240967	-0.331291
789.565430	736.414246	1741.284302	723.782898	-1.257013
789.877014	732.179016	1727.612671	722.148132	-1.007690
790.188538	730.024231	1703.389771	718.061523	-1.229005
790.500061	723.857117	1678.498413	722.519714	-0.140095
790.811462	721.850891	1662.820679	727.052185	0.552759
791.122925	720.587708	1641.049805	728.909668	0.904107
791.434204	723.634216	1619.873535	734.705261	1.235278
791.745483	730.172852	1605.235962	732.624817	0.280204
792.056702	733.293518	1584.282593	735.968445	0.314332
792.367920	737.677429	1574.400391	725.045898	-1.509643
792.678955	732.773438	1548.171509	730.247070	-0.309832
792.990112	731.436035	1549.731812	730.172852	-0.154368
793.301086	727.720886	1539.403809	736.340027	1.061885
793.612122	730.915955	1535.540039	734.408020	0.434000
793.922974	731.287415	1523.280151	737.157288	0.741152
794.233826	730.247070	1511.911743	738.420410	1.045632
794.544556	729.652649	1507.305054	735.671204	0.773939
794.855286	727.720886	1504.333008	731.436035	0.478379
795.166016	731.287415	1510.871582	727.646545	-0.467027
795.476624	731.807556	1526.252319	732.327637	0.065465
795.787292	734.631042	1536.060181	732.104675	-0.315233
796.097778	726.829163	1553.744263	739.534973	1.536531
796.408264	725.194519	1558.202515	737.528809	1.480693
796.718689	719.324707	1561.694702	741.541199	2.637379
797.029053	731.064514	1553.521118	737.231628	0.749841
797.339355	734.036621	1551.515137	737.677429	0.445370
797.649658	740.129456	1558.796875	738.048889	-0.254141
797.959839	732.476257	1556.047485	743.547302	1.344273
798.270020	732.178955	1550.400757	740.203613	0.980744
798.580078	735.894104	1535.317017	738.048889	0.269543
798.890137	735.968445	1532.345093	733.516418	-0.307898
799.200195	725.789001	1520.753784	732.699036	0.869225
799.510071	725.566101	1501.955200	730.915833	0.689053
799.820007	720.439209	1484.494141	725.640381	0.680733
800.129883	729.652771	1479.367065	728.092285	-0.208144
800.439575	716.946960	1469.113403	726.309082	1.244687
800.749329	723.114075	1458.562378	727.572266	0.606187
801.058960	722.296692	1449.794556	727.200745	0.674099
801.368591	729.132629	1452.246704	724.302917	-0.667905
801.678162	727.869446	1456.110352	725.789001	-0.285681
801.987671	722.445313	1443.553223	727.720886	0.731593
802.297119	721.925293	1422.079712	735.671204	1.963268
802.606506	726.977844	1409.374023	743.993164	2.493466
802.915894	724.005676	1406.253296	739.312012	2.243516
803.225159	730.321472	1412.940430	738.569031	1.208223
803.534424	725.417480	1413.609253	726.829163	0.205129
803.843628	732.401855	1412.048828	729.875671	-0.371691
804.152771	739.609192	1409.671265	732.401917	-1.075613
804.461792	738.346130	1408.407837	735.374023	-0.443557
804.770874	741.169678	1407.813599	742.432800	0.189475
805.079773	727.423645	1419.182007	735.745544	1.203007
805.388733	736.860046	1425.274780	740.055176	0.464129
805.697571	730.470032	1438.129028	735.894226	0.766498
806.006470	730.767334	1442.141602	735.671204	0.689352
806.315125	724.971680	1454.847290	730.024231	0.692248
806.623901	731.733215	1455.293091	731.213074	-0.071886
806.932495	735.374023	1461.683228	734.408142	-0.132985
807.241150	726.011902	1450.091919	736.339905	1.426362
807.549622	725.491760	1441.250000	738.123230	1.764768
807.858154	727.572205	1424.754761	738.048889	1.502717
808.166565	734.779602	1409.968384	737.305847	0.374154
808.474915	732.624817	1413.832153	728.761047	-0.567194
808.783264	725.640381	1414.203735	730.395752	0.690622
809.091492	728.240967	1421.262329	732.847717	0.664734
809.399719	729.801331	1400.234741	736.265625	0.964196
809.707825	733.145020	1393.918945	734.779602	0.247374
810.015930	730.321472	1376.086304	730.395752	0.011503
810.323975	728.315247	1369.101929	729.429871	0.173946
810.632080	730.915833	1354.464355	725.268860	-0.905619
810.939880	732.253235	1349.783203	727.720886	-0.733948
811.247864	728.315247	1344.061890	730.915955	0.422367
811.555664	722.816833	1336.334473	726.234863	0.557120
811.863464	719.993347	1326.823608	730.915833	1.799924
812.171143	716.426819	1325.932007	727.720886	1.852990
812.478882	718.210144	1319.913574	729.429871	1.864661
812.786438	722.816895	1317.535767	726.160461	0.562210
813.094055	737.157288	1320.805176	726.532043	-1.820489
813.401489	741.764099	1317.610107	729.578430	-2.116133
813.708984	743.844543	1318.798950	725.268860	-3.230810
814.016357	742.804382	1313.077759	721.107910	-3.804574
814.323730	738.717712	1307.579346	717.987244	-3.644202
814.630981	730.693054	1306.316162	727.126465	-0.619605
814.938232	726.977844	1298.811523	731.881836	0.857591
815.245361	728.538147	1302.823853	741.912598	2.328885
815.552490	731.138733	1301.412109	727.572266	-0.625396
815.859619	729.058350	1308.322266	720.662109	-1.449467
816.166565	730.395752	1304.904419	712.488831	-3.116910
816.473572	736.191345	1305.127319	721.999512	-2.494452
816.780457	742.952881	1301.412109	724.748718	-3.259712
817.087341	738.791931	1308.916870	730.172852	-1.511788
817.394043	734.259460	1314.712402	729.578369	-0.806455
817.700806	728.315247	1325.337646	727.423584	-0.149352
818.007507	726.011902	1326.675171	724.525879	-0.247397
818.314209	726.680603	1329.052734	726.903503	0.037004
818.620667	725.937561	1338.860718	732.253357	1.030438
818.927246	725.640381	1356.619141	736.562927	1.731048
819.233704	732.327637	1381.139038	739.460693	1.099404
819.540161	731.510254	1404.990234	732.476257	0.143435
819.846497	729.281189	1458.785278	725.714661	-0.488898
820.152832	730.692932	1510.276978	718.804504	-1.524971
820.458984	735.225403	1570.313843	725.268799	-1.192281
820.765259	736.191345	1639.860962	730.321472	-0.649560
821.071350	727.275085	1732.144897	730.618652	0.332736
821.377502	726.160461	1901.257935	724.674500	-0.126454
821.683472	722.222473	2209.242920	725.194519	0.199866
821.989441	721.479431	2762.203857	727.497986	0.294922
822.295349	722.073914	3515.633057	727.869446	0.207461
822.601196	733.590759	4360.826660	721.999512	-0.319561
822.907043	730.915833	5079.779785	721.627991	-0.213569
823.212769	720.736389	5487.181641	724.154297	0.071708
823.518494	721.033630	5530.574707	729.727051	0.180754
823.824097	719.324646	5268.434082	735.002502	0.344636
824.129700	722.222412	4872.549316	742.432800	0.486959
824.435242	720.439209	4441.668457	736.340027	0.427300
824.740723	725.045959	4063.838867	722.816895	-0.066763
825.046082	729.206970	3739.433350	715.163757	-0.466517
825.351501	727.795166	3433.231689	719.696106	-0.299362
825.656799	725.863281	3123.240479	728.315247	0.102277
825.962036	728.612488	2824.469482	733.219238	0.219803
826.267212	730.321472	2594.056641	728.240967	-0.111631
826.572449	733.293640	2475.840820	724.228699	-0.520212
826.877502	732.773438	2491.370361	716.575439	-0.921075
827.182495	734.482422	2605.722168	721.405090	-0.698859
827.487488	737.825989	2756.630859	723.411316	-0.714020
827.792419	737.008606	2870.537109	727.646545	-0.438806
828.097290	735.522644	2899.217773	726.011902	-0.439560
828.402100	737.008606	2829.967529	725.566101	-0.546714
828.706848	742.358459	2685.300293	729.949951	-0.638645
829.011597	736.414246	2495.233887	728.686768	-0.439356
829.316223	725.120300	2328.126953	733.070618	0.495963
829.620789	717.095520	2177.441162	727.795166	0.732679
829.925354	726.606262	2053.950195	734.110840	0.565383
830.229797	725.120178	1919.165039	727.275085	0.180471
830.534302	728.240906	1793.370483	729.727051	0.139527
830.838562	719.473145	1672.479980	727.200745	0.810865
831.142944	722.222412	1570.982422	729.578430	0.866678
831.447144	722.668152	1489.843750	731.881775	1.200980
831.751404	725.640320	1435.751587	728.909668	0.460399
832.055542	732.847717	1400.457642	730.172791	-0.400672
832.359619	727.349304	1393.399048	731.361633	0.602407
832.663635	722.965515	1400.383423	730.767273	1.151690
832.967651	716.872559	1439.912476	730.990173	1.952536
833.271545	724.822998	1508.122192	732.476257	0.977054
833.575439	731.733154	1621.359497	738.866211	0.801804
833.879211	732.996338	1760.900024	744.290344	1.098742
834.183044	726.160461	1896.205444	740.798035	1.251027
834.486694	723.114075	1999.486328	737.900330	1.158459
834.790344	732.773438	2028.092773	732.030334	-0.057368
835.093933	742.061279	2003.498535	732.104675	-0.789306
835.397522	744.141785	1932.613892	727.423645	-1.406692
835.700928	738.717590	1853.853027	724.748718	-1.252661
836.004395	735.225403	1773.754517	727.497864	-0.744085
836.307739	732.104736	1708.516724	735.151123	0.311998
836.611023	729.949951	1646.325317	738.048889	0.883801
836.914307	723.114075	1574.474609	733.739441	1.248045
837.217529	724.600098	1496.679688	730.767273	0.798775
837.520691	733.219238	1420.519409	731.213074	-0.291891
837.823730	737.380188	1356.247559	732.699158	-0.756387
838.126831	729.429871	1298.811523	732.847717	0.600273
838.429749	715.832458	1248.211304	729.206970	2.512217
838.732727	714.346375	1214.700806	726.754883	2.479944
839.035522	720.587830	1198.948608	727.200745	1.382412
839.338379	721.999512	1196.050903	725.491882	0.736707
839.641113	724.005676	1200.211792	725.417480	0.296469
839.943848	728.538147	1220.422241	723.559875	-1.012082
840.246460	724.005676	1252.000732	726.606262	0.492540
840.549072	720.439209	1287.071655	728.240967	1.376864
840.851563	723.114075	1303.195313	732.253357	1.575518
841.154053	735.671204	1308.099487	734.631042	-0.181710
841.456482	736.711426	1282.242065	728.538086	-1.498237
841.758850	732.773438	1260.248535	727.200684	-1.056496
842.061157	734.036560	1228.669800	729.801270	-0.856249
842.363403	731.510254	1212.620483	737.900330	1.328194
842.665588	726.829285	1185.648438	732.624817	1.263141
842.967712	718.507324	1161.500122	722.222412	0.838634
843.269775	719.101746	1142.924438	719.844727	0.175305
843.571777	724.005676	1120.410767	724.154297	0.037492
843.873840	725.120178	1101.537964	731.807434	1.776551
844.175659	725.640381	1079.990112	726.383362	0.209674
844.477600	724.674377	1067.507202	728.463867	1.105346
844.779297	724.674377	1061.488647	732.550476	2.338410
845.081116	727.943665	1055.024292	742.432800	4.429836
845.382751	728.686707	1048.337036	742.507080	4.323591
845.684387	734.259460	1040.015137	739.312073	1.652500
845.985962	730.024231	1022.851318	734.779602	1.623952
846.287537	730.024231	1005.092957	730.767273	0.270130
846.588989	728.835449	999.371582	730.172852	0.494353
846.890381	735.819824	1004.795715	732.253357	-1.325943
847.191711	738.569031	1008.139343	729.949951	-3.197340
847.493042	740.872375	1000.411804	724.971680	-6.126505
847.794250	735.596924	991.198303	728.984070	-2.587175
848.095459	734.036621	987.111633	728.315247	-2.260743
848.396606	723.188293	980.424377	735.002502	4.592750
848.697693	719.473206	975.669128	733.144958	5.336444
848.998657	716.798340	977.303711	736.414246	7.529943
849.299622	722.073914	989.563721	743.695862	8.083280
849.600464	721.925293	986.963074	746.073669	9.111296
849.901367	716.055359	981.316101	746.816650	11.596624
850.202087	716.649719	960.511230	740.203674	9.658742
850.502808	718.210144	961.997314	732.104675	5.699451
850.803467	723.411316	962.888977	732.996338	4.002470
851.104065	722.891174	965.712402	737.974609	6.211745
851.404663	722.445374	958.728027	743.547363	8.930825
851.705139	721.702332	952.338074	738.420410	7.248694
852.005615	722.816895	955.978821	730.395813	3.250496
852.306030	727.943787	956.127441	727.349365	-0.260501
852.606384	733.590637	959.025208	729.429871	-1.845665
852.906616	730.098572	950.629089	733.813660	1.684614
853.206909	728.761047	951.223450	728.463867	-0.133587
853.506958	730.544373	950.926270	733.219238	1.213741
853.807129	737.900330	955.533020	724.154297	-6.316162
854.107178	741.689758	958.356506	732.030457	-4.458138
854.407166	745.181946	959.248108	732.327637	-6.004830
854.707092	739.460693	964.597961	736.711487	-1.221125
855.007019	742.730042	960.511230	733.888000	-4.060057
855.306763	734.928223	953.006653	730.172852	-2.180578
855.606567	736.191345	948.845703	727.869446	-3.913345
855.906250	724.897278	940.003723	736.488586	5.388638
856.205933	723.262695	937.700378	739.906494	7.761601
856.505493	718.953125	928.189636	738.271790	9.232932
856.805054	729.281250	944.090332	735.596924	2.940134
857.104492	730.841614	956.498840	735.076843	1.876842
857.403931	735.151123	964.597900	735.225403	0.032373
857.703308	728.538147	960.659851	724.377258	-1.792546
858.002563	728.463867	951.372070	725.640381	-1.266659
858.301819	733.887939	955.012878	730.767334	-1.411241
858.601013	745.033386	951.817871	734.185242	-5.246111
858.900208	747.856873	955.532959	725.714661	-10.661898
859.199219	746.519470	952.709412	729.132629	-8.432439
859.498291	740.129395	948.325623	728.686768	-5.496078
859.797302	734.556702	937.328796	735.596924	0.513001
860.096191	734.928223	937.700378	733.590759	-0.659589
860.395020	729.429749	938.591980	731.807434	1.136766
860.693787	735.671204	945.427734	730.247131	-2.585890
860.992554	726.160461	943.050110	733.145020	3.220328
861.291260	725.566101	935.174072	738.420471	6.132577
861.589844	722.742493	937.551758	736.488586	6.399209
861.888428	726.160400	937.551758	729.652649	1.652030
862.186890	728.761047	944.164734	726.160461	-1.207308
862.485413	730.172852	936.437256	726.903503	-1.585028
862.783813	730.841553	930.418701	725.417480	-2.717782
863.082153	735.002502	931.904724	727.275085	-3.924495
863.380371	739.237793	938.814880	724.451477	-7.408824
863.678589	743.993164	946.319519	725.045959	-9.364675
863.976746	738.717590	948.845764	720.290588	-8.769410
864.274902	728.463867	948.994385	723.559875	-2.223725
864.572937	724.451477	956.573242	725.640381	0.512190
864.870911	729.875671	958.802246	728.018066	-0.811441
865.168884	737.751709	959.173828	721.107910	-7.516773
865.466736	738.346191	943.198730	713.454773	-12.150896
865.764587	738.791992	939.483582	711.002686	-13.846772
866.062317	735.522644	942.975830	717.987122	-8.452762
866.360107	731.658875	951.669250	724.154297	-3.411011
866.657715	726.531921	953.824036	728.761047	0.980732
866.955322	725.788879	950.183167	733.145020	3.278221
867.252808	733.144958	948.325623	733.813660	0.310763
867.550293	731.807434	945.725037	733.813660	0.937850
867.847717	728.761047	942.752930	725.566101	-1.493022
868.145081	726.011902	941.341125	728.092346	0.966169
868.442383	724.600159	944.610535	727.943787	1.519759
868.739624	722.519714	947.211121	735.151123	5.621670
869.036804	721.330811	949.960266	723.336975	0.877474
869.333984	725.937561	948.771484	722.965515	-1.333749
869.631042	728.909668	949.291565	715.832458	-5.933886
869.928101	731.138733	942.530029	726.457703	-2.214391
870.224976	732.624756	946.839600	728.909668	-1.734281
870.521851	732.104675	945.279236	736.934387	2.265614
870.818726	731.956116	945.353516	731.733154	-0.104482
871.115479	728.612488	941.638367	729.727051	0.523205
871.412231	729.875671	943.867432	722.816895	-3.298621
871.708862	729.058289	945.056335	728.315247	-0.344004
872.005493	734.259521	950.554688	725.491760	-4.053609
872.302063	736.265625	951.743469	726.829163	-4.379319
872.598572	732.179016	955.978821	731.956055	-0.099625
872.895020	731.584534	949.440186	741.689697	4.638467
873.191406	733.590820	951.372070	740.278015	3.070602
873.487671	735.448425	953.972656	736.934387	0.679999
873.783997	738.271912	959.694031	730.915833	-3.322197
874.080200	737.603088	954.418457	736.562805	-0.479801
874.376343	741.318298	958.430725	740.352234	-0.444960
874.672424	738.643311	962.294495	730.692871	-3.554839
874.968445	734.408020	968.164368	722.073792	-5.276532
875.264465	734.779541	964.746521	716.724060	-7.851336
875.560364	732.253357	965.266602	730.321472	-0.829088
875.856201	723.336975	964.969421	738.197510	6.150058
876.152039	723.559875	971.582336	734.482361	4.403829
876.447754	723.559875	971.136536	730.990173	3.001211
876.743469	738.271790	975.594727	730.915833	-3.099556
877.039063	740.649597	967.347168	737.157288	-1.540515
877.334595	741.243958	966.826965	734.036621	-3.194982
877.630127	731.658936	967.347168	728.166687	-1.481724
877.925537	731.584656	968.313049	730.841553	-0.313905
878.221008	737.231628	971.136536	730.618652	-2.827207
878.516296	739.980774	974.480164	730.321472	-4.119116
878.811646	730.544250	990.306641	725.045959	-2.116662
879.106812	727.274963	1008.956604	727.349365	0.026413
879.401978	729.652649	1023.445618	729.949951	0.101194
879.697083	739.014832	1041.352661	727.200684	-3.907598
879.992126	735.968445	1061.860229	724.823059	-3.419965
880.287109	730.395752	1097.822632	730.395813	0.000017
880.582031	720.885071	1159.345337	729.727051	2.016598
880.876892	723.857117	1284.842651	732.773438	1.589403
881.171753	727.720886	1501.955078	723.485596	-0.547030
881.466492	735.225403	1829.853149	722.445374	-1.167523
881.761230	740.129395	2233.837158	729.281250	-0.726256
882.055786	737.083008	2622.142822	732.996277	-0.216796
882.350403	738.197510	2878.784912	736.488525	-0.079837
882.644958	726.680664	2955.093750	730.395752	0.166715
882.939453	728.761169	2904.939209	738.494812	0.447282
883.233826	723.708557	2787.094971	740.872375	0.831828
883.528137	724.971680	2654.316162	737.008789	0.623896
883.822449	728.761047	2529.115967	733.888000	0.284775
884.116577	732.996338	2414.615479	735.745544	0.163486
884.410828	737.231628	2298.406006	736.488586	-0.047595
884.704956	739.089172	2149.206299	737.157288	-0.137002
884.999023	737.528809	1969.913696	726.680603	-0.880261
885.292969	732.401917	1764.838257	726.086243	-0.611725
885.586914	725.714661	1573.285767	722.816895	-0.341891
885.880798	723.857117	1439.095093	726.234802	0.332433
886.174622	726.309082	1341.758545	730.321472	0.651945
886.468384	735.374023	1286.328613	733.590759	-0.323668
886.762085	736.191406	1219.901978	735.522644	-0.138257
887.055664	733.665039	1177.846680	733.442200	-0.050169
887.349304	728.538269	1149.017212	737.231628	2.067490
887.642822	728.686829	1127.989624	739.460632	2.698154
887.936340	734.408020	1114.020752	737.157227	0.724213
888.229736	730.172852	1076.943726	725.491760	-1.349909
888.523071	723.114075	1059.333984	721.033630	-0.618775
888.816284	718.061523	1041.204102	723.931458	1.816515
889.109619	727.869446	1032.139038	731.658936	1.245438
889.402710	740.872375	1012.968994	737.380188	-1.283437
889.695862	740.872375	992.238586	736.414246	-1.773560
889.988892	731.361633	978.864075	739.609192	3.332314
890.281921	718.210083	973.217102	753.206665	13.723772
>>>>>End Processed Spectral Data<<<<<
