Jaz Data File
++++++++++++++++++++++++++++++++++++
Date: Fri Jun 04 16:41:07 2021
User: jaz
Dark Spectrum Present: Yes
Reference Spectrum Present: Yes
Processed Spectrum Present: Yes
Spectrometers: JAZA3586
Integration Time (usec): 24400 (JAZA3586)
Spectra Averaged: 10 (JAZA3586)
Boxcar Smoothing: 1 (JAZA3586)
Correct for Electrical Dark: No (JAZA3586)
Strobe/Lamp Enabled: Yes (JAZA3586)
Correct for Detector Non-linearity: No (JAZA3586)
Correct for Stray Light: No (JAZA3586)
Number of Pixels in Processed Spectrum: 2048
>>>>>Begin Processed Spectral Data<<<<<
W	D	R	S	P
191.335022	0.000000	0.000000	0.000000	0.000000
191.713211	234.499390	230.487045	236.877075	-59.259258
192.091385	471.747955	472.490997	478.138031	859.988525
192.469528	709.665283	712.117249	713.008972	136.367706
192.847641	718.878906	723.559875	712.191589	-142.861801
193.225739	727.126465	723.336975	726.234863	23.528275
193.603790	728.761047	731.584534	739.683594	386.846100
193.981842	720.587830	734.779602	753.801086	234.031769
194.359863	726.383362	741.689758	748.302734	143.204010
194.737854	739.237793	743.398682	750.308838	266.074036
195.115829	760.636902	748.971436	756.178772	38.216473
195.493774	758.259277	751.200500	754.395508	54.737099
195.871704	756.401672	756.847473	751.794983	-1033.351563
196.249603	754.989929	757.219055	745.553528	-423.322937
196.627457	752.909485	755.807312	751.051941	-64.101265
197.005310	756.847473	745.702148	758.705078	-16.667124
197.383133	753.875427	743.695984	759.373779	-54.014271
197.760910	758.036377	750.754700	758.482239	-6.123065
198.138687	750.754700	751.794922	754.098328	321.434021
198.516449	748.302673	750.828918	760.488342	482.362885
198.894180	752.983704	749.863098	758.036377	-161.913239
199.271866	760.191162	750.531799	756.921875	33.845783
199.649536	759.596741	749.417236	749.640137	97.810303
200.027191	750.234619	743.547363	746.965271	48.889233
200.404816	738.643372	742.581360	741.318176	67.923126
200.782410	736.488586	750.531799	739.534973	21.692947
201.159988	741.169617	762.494568	746.816589	26.480589
201.537537	737.677429	777.429382	753.578125	39.999786
201.915070	738.866211	781.738953	756.773193	41.767757
202.292557	733.665039	778.618164	748.451355	32.892742
202.670029	742.209961	774.903076	740.872375	-4.091337
203.047485	743.324463	772.599670	737.231628	-20.812267
203.424911	736.191406	769.256104	735.225403	-2.921555
203.802292	728.463867	765.615234	733.219238	12.799990
204.179688	718.432922	760.711243	731.584534	31.107224
204.557037	725.937500	768.587341	735.968445	23.519302
204.934357	733.590759	771.782410	737.677429	10.700428
205.311661	738.866272	775.720398	735.448425	-9.273987
205.688934	733.665039	769.924805	730.172852	-9.631026
206.066177	727.052063	773.416992	734.631042	16.346363
206.443390	723.485657	770.221985	738.123230	31.319477
206.820587	725.789001	765.392334	737.900330	30.581589
207.197769	721.256531	758.482178	733.516418	32.933983
207.574921	725.194580	762.345886	728.241028	8.200109
207.952042	722.222473	765.169434	727.349365	11.937730
208.329147	726.383362	765.838135	733.516418	18.079071
208.706223	732.327637	776.463379	746.965332	33.165173
209.083267	738.048889	783.522156	752.017883	30.719135
209.460297	737.677429	787.237305	745.999329	16.791607
209.837280	731.213074	773.491394	732.996338	4.217916
210.214264	723.114014	766.506836	733.293518	23.458960
210.591217	722.148132	763.163269	730.990173	21.557995
210.968124	719.918945	761.305664	736.562927	40.215755
211.345016	726.606262	768.290039	734.036621	17.825541
211.721893	729.132568	771.187927	734.853943	13.604389
212.098724	733.590759	773.417053	730.915833	-6.716484
212.475555	738.717590	767.472839	725.640381	-45.477642
212.852356	736.191345	760.859863	740.872375	18.975725
213.229126	734.482361	763.980530	748.674255	48.111103
213.605865	733.887939	763.906250	753.281006	64.604126
213.982590	737.603088	767.324219	745.330566	25.999947
214.359283	740.278015	762.940369	739.089172	-5.245893
214.735931	731.436035	761.157043	740.055176	29.000162
215.112579	738.866211	756.996155	732.104797	-37.294178
215.489197	730.024231	761.454346	728.909668	-3.546163
215.865799	734.556702	765.838196	725.640381	-28.503500
216.242355	732.699158	772.674072	724.302917	-21.003773
216.618896	747.262451	774.977356	724.228577	-83.110062
216.995407	747.633972	778.172424	718.358704	-95.863632
217.371902	740.129395	773.491394	720.141907	-59.910942
217.748367	725.417419	761.157043	724.748718	-1.871036
218.124802	717.764221	758.036377	732.847717	37.453907
218.501236	719.027405	760.562683	735.076843	38.640499
218.877609	725.343201	771.782410	727.052063	3.679783
219.253983	732.253357	769.479004	732.624817	0.997860
219.630295	735.596924	766.729736	728.612549	-22.434128
220.006592	733.293518	766.283997	732.550537	-2.252107
220.382889	732.104675	764.352051	723.857117	-25.575907
220.759140	724.971619	766.729797	720.364929	-11.031826
221.135391	724.005676	766.804016	721.553711	-5.729113
221.511581	723.634094	768.513000	724.451477	1.821307
221.887772	725.937561	770.816406	730.470032	10.099348
222.263931	727.646545	772.228210	729.652649	4.499840
222.640060	727.795166	778.395325	726.977783	-1.615376
223.016159	729.281189	776.909241	722.445313	-14.352627
223.392212	730.767273	778.692566	721.553711	-19.224842
223.768265	733.665039	779.584167	724.080078	-20.873569
224.144302	734.556824	776.983582	727.720886	-16.112326
224.520294	735.745605	769.404724	724.377197	-33.775120
224.896286	734.853943	759.893860	726.680664	-32.640999
225.272217	743.250061	763.014648	725.566101	-89.472954
225.648148	744.216064	760.859863	729.132629	-90.624954
226.024048	745.702148	766.729736	727.126465	-88.339584
226.399902	734.036560	765.392334	727.646545	-20.379068
226.775772	729.132568	763.683350	729.132629	0.000177
227.151581	726.680603	758.630798	722.073914	-14.418345
227.527374	734.333740	762.717468	726.903503	-26.177805
227.903137	738.569031	770.816345	726.234802	-38.248856
228.278870	743.695984	773.119812	736.191345	-25.505310
228.654572	737.082947	774.085693	728.761047	-22.489950
229.030273	736.637207	775.348877	724.823059	-30.518311
229.405930	729.132629	775.423157	713.306152	-34.189449
229.781555	729.578430	777.206482	721.850891	-16.224764
230.157181	725.640381	776.686340	732.550598	13.537247
230.532761	727.795166	776.463562	747.336731	40.152473
230.908325	735.374023	771.187988	748.228455	35.892231
231.283859	740.278015	769.404724	746.296570	20.663353
231.659332	741.021057	776.017578	738.494812	-7.218561
232.034821	731.361633	777.577942	740.946777	20.739744
232.410263	717.987122	777.949463	727.720886	16.233130
232.785690	713.528992	770.147766	727.572266	24.803211
233.161087	716.649719	770.296387	719.101746	4.570696
233.536469	722.593994	765.763855	726.160461	8.261475
233.911804	720.810730	768.141602	724.748718	8.320127
234.287140	720.141907	763.609070	731.138733	25.299158
234.662430	724.154297	770.370605	731.213074	15.273346
235.037704	727.497864	767.472839	738.569031	27.695244
235.412933	727.795166	770.519226	731.956055	9.738982
235.788162	722.222412	771.782410	733.367859	22.488796
236.163345	726.532043	773.045471	730.990234	9.584740
236.538513	732.253357	775.943359	733.145020	2.040885
236.913635	730.767273	777.726563	731.881836	2.373466
237.288742	730.024231	781.813232	724.080017	-11.477754
237.663834	727.423645	790.135071	723.485596	-6.279636
238.038879	732.476257	792.810059	728.315247	-6.896649
238.413910	728.612488	794.890442	735.299744	10.089714
238.788910	725.714661	793.404480	738.569031	18.990108
239.163879	725.194519	788.351868	731.956116	10.705954
239.538834	723.708496	781.813232	725.640381	3.324832
239.913757	726.680603	776.983582	718.878845	-15.509535
240.288651	728.389587	774.011414	723.931396	-9.772058
240.663528	729.281250	775.200256	728.166687	-2.427237
241.038361	726.234863	768.736023	732.624817	15.034775
241.413177	728.463867	777.577942	737.157288	17.700466
241.787979	729.801331	781.441711	739.906494	19.568336
242.162735	725.714661	789.615051	749.863037	37.790657
242.537476	726.531982	785.008240	746.073547	33.417946
242.912170	727.720886	793.553040	747.039551	29.345333
243.286865	731.658936	796.525146	735.522644	5.956427
243.661514	725.714661	806.927490	734.408020	10.704416
244.036148	725.789001	797.342468	739.089172	18.587738
244.410751	726.606262	796.153625	741.169617	20.940197
244.785339	726.011902	791.175476	740.575195	22.348825
245.159882	720.885010	795.856445	729.652649	11.694639
245.534378	719.621887	795.707825	726.977844	9.667958
245.908890	722.816895	797.788330	721.702332	-1.486650
246.283356	721.033630	808.042053	728.909668	9.052040
246.657791	726.160461	812.425964	731.807556	6.546180
247.032196	726.680603	819.856262	736.117004	10.127539
247.406586	728.835388	828.252441	730.841553	2.017928
247.780960	725.640381	836.722961	722.742676	-2.608604
248.155289	723.039795	834.791016	722.445374	-0.531915
248.529602	731.658875	821.193665	727.572266	-4.564269
248.903870	733.665039	815.249451	730.172852	-4.280459
249.278122	736.934387	814.877930	726.086182	-13.918030
249.652344	732.922058	817.552734	717.095520	-18.700710
250.026550	735.745544	813.317566	720.290527	-19.923443
250.400711	736.711426	805.738708	726.234802	-15.177511
250.774857	736.934387	804.401184	728.389648	-12.665102
251.148987	719.547546	800.537415	734.482422	18.440424
251.523071	713.008972	803.361023	731.733215	20.723650
251.897125	714.197754	804.772766	742.952942	31.747374
252.271164	728.984070	816.512512	735.894226	7.894755
252.645187	735.448303	829.887024	735.448425	0.000129
253.019165	732.996338	824.908875	724.600098	-9.135033
253.393112	729.875671	822.754089	724.525879	-5.759995
253.767044	727.572266	820.673523	723.708496	-4.150073
254.140930	724.080017	825.057434	730.767273	6.622526
254.514801	730.470032	827.212219	726.977844	-3.609788
254.888657	732.847717	817.998718	724.823059	-9.424033
255.262466	735.522644	818.518799	720.067688	-18.621292
255.636276	730.470032	811.831543	725.863281	-5.662076
256.010010	729.429871	818.295898	727.497986	-2.173929
256.383759	731.881836	818.890320	728.761047	-3.586764
256.757446	730.024231	831.075989	724.897400	-5.073471
257.131134	731.213074	834.419617	725.045959	-5.975507
257.504791	726.829285	839.695068	724.080078	-2.435819
257.878418	726.457703	843.038757	734.333801	6.755899
258.252014	718.061462	845.862122	731.658875	10.639547
258.625580	726.680664	856.115906	731.138733	3.444247
258.999115	732.699219	861.242859	735.894104	2.485448
259.372650	727.943787	875.583252	740.946777	8.807260
259.746124	723.039795	894.307556	743.324463	11.843833
260.119598	719.547546	918.084412	731.361755	5.950637
260.493042	727.572266	938.889160	734.705322	3.375526
260.866425	732.996399	945.502136	739.163513	2.902093
261.239838	730.395691	941.935547	739.089172	4.109619
261.613159	735.596924	924.994629	731.361633	-2.236189
261.986511	724.674500	906.195984	730.470032	3.192753
262.359802	728.538269	900.177490	734.705261	3.592997
262.733063	729.132629	894.976257	738.346130	5.555535
263.106293	738.049011	898.394226	733.739319	-2.687759
263.479523	733.813660	890.072266	730.841614	-1.902005
263.852692	727.349304	887.025879	734.482422	4.467228
264.225861	725.343201	886.951660	732.476257	4.413789
264.598969	719.101746	889.552246	731.733215	7.410638
264.972076	714.049133	889.403625	729.504089	8.813550
265.345154	717.095520	888.660461	735.225403	10.567359
265.718201	725.640381	892.747131	735.522644	5.913743
266.091217	737.603210	907.459167	732.179016	-3.193408
266.464203	730.024231	918.901672	730.915833	0.472053
266.837158	727.349304	937.923279	731.658936	2.046612
267.210114	719.696106	945.725098	735.225403	6.870489
267.583038	723.634277	954.269836	729.727051	2.641732
267.955902	725.045959	952.635193	732.624817	3.330060
268.328766	730.618652	946.542419	735.596924	2.305569
268.701569	730.098572	950.034668	734.779602	2.128359
269.074371	729.578430	953.526855	728.463867	-0.497687
269.447144	723.262695	974.331543	723.857117	0.236756
269.819885	728.538269	980.721619	721.702332	-2.710701
270.192596	727.943848	993.501648	724.154297	-1.427015
270.565277	738.271790	993.724609	722.742493	-6.079125
270.937927	733.590820	1008.362244	726.606262	-2.541952
271.310577	731.510254	1033.476563	728.092285	-1.131904
271.683136	723.857117	1066.689819	738.569031	4.291281
272.055725	724.377197	1092.844360	737.900208	3.670072
272.428284	727.349365	1101.314941	734.185120	1.827910
272.800812	741.095276	1098.565796	726.829285	-3.990816
273.173279	749.268555	1089.500854	733.144958	-4.738997
273.545776	752.240723	1071.519531	736.414246	-4.956946
273.918152	745.999329	1069.141846	736.042786	-3.081161
274.290558	734.779602	1064.757935	731.956116	-0.855658
274.662964	735.448425	1064.015015	727.275085	-2.487575
275.035278	731.956055	1059.705444	725.268860	-2.040338
275.407593	731.584656	1058.145142	726.977844	-1.410707
275.779907	728.686768	1068.844727	731.138855	0.720867
276.152161	731.584656	1076.274902	731.956116	0.107766
276.524384	739.832214	1099.085815	726.680603	-3.660815
276.896606	730.990234	1109.339722	730.321472	-0.176758
277.268799	735.076843	1120.039185	733.367859	-0.443935
277.640930	724.525818	1125.017456	732.847717	2.077921
278.013031	730.618652	1133.339355	727.646545	-0.738007
278.385162	724.154297	1138.911987	727.869446	0.895740
278.757233	727.126465	1140.992554	728.463867	0.323149
279.129272	729.281250	1146.119507	728.538147	-0.178271
279.501282	732.253235	1151.617798	729.355469	-0.690990
279.873230	734.408020	1158.230835	728.909668	-1.297323
280.245178	737.751709	1179.258423	729.281250	-1.918535
280.617126	732.476257	1204.595703	726.234863	-1.321995
280.988983	727.869446	1222.874146	727.275085	-0.120072
281.360870	725.789001	1242.861694	730.841614	0.977157
281.732697	726.754883	1269.313354	723.336975	-0.629961
282.104492	730.990234	1301.486450	730.395752	-0.104204
282.476288	726.680664	1324.817505	729.058289	0.397505
282.848053	729.058289	1334.848511	737.900330	1.459588
283.219757	730.915833	1337.151733	731.213074	0.049031
283.591461	730.024231	1331.579102	732.253235	0.370540
283.963135	730.098633	1329.498535	733.739441	0.607409
284.334747	729.801331	1336.334351	736.340027	1.078045
284.706360	736.414307	1349.040161	732.550537	-0.630690
285.077942	730.767273	1372.371094	728.463867	-0.359007
285.449524	732.401855	1395.182251	725.937561	-0.975330
285.821014	731.361633	1417.101563	733.516418	0.314228
286.192535	742.135559	1439.912476	734.185242	-1.139378
286.563995	742.432800	1468.370483	737.008728	-0.747182
286.935425	738.123230	1486.128784	729.578430	-1.142344
287.306824	728.166687	1493.261719	729.132629	0.126251
287.678223	729.801270	1479.218750	732.550537	0.366854
288.049561	734.631042	1464.803833	729.652649	-0.681810
288.420898	735.745544	1444.147827	730.098572	-0.797142
288.792145	731.287354	1436.940308	721.405090	-1.400442
289.163452	728.909668	1443.033203	727.869446	-0.145664
289.534668	729.355469	1470.302246	733.070618	0.501406
289.905914	721.702332	1494.376343	737.677429	2.067508
290.277039	722.519714	1528.332642	734.705322	1.512213
290.648193	724.748718	1561.917603	730.024231	0.630161
291.019318	729.875671	1598.102905	728.240967	-0.188281
291.390381	732.773438	1625.372070	725.566101	-0.807455
291.761475	734.110840	1621.359741	724.005676	-1.138932
292.132507	734.408020	1616.975952	725.120178	-1.052366
292.503510	733.962219	1595.205078	726.680664	-0.845471
292.874481	731.584656	1584.059570	736.562927	0.583979
293.245422	731.807556	1578.264160	735.968445	0.491565
293.616364	731.064453	1598.697266	745.256348	1.635703
293.987213	733.813660	1638.598022	737.974609	0.459883
294.358093	734.110840	1685.111450	735.076843	0.101578
294.728943	737.751770	1731.625000	730.395691	-0.740143
295.099731	735.894226	1773.308716	733.367859	-0.243525
295.470490	736.265686	1805.184692	737.825989	0.145970
295.841248	728.166687	1834.014038	737.528809	0.846602
296.211975	726.903564	1849.320313	732.773438	0.522967
296.582642	725.566101	1885.134277	728.612488	0.262717
296.953308	725.789001	1923.177368	726.160400	0.031017
297.323883	724.525818	1980.464844	733.887939	0.745428
297.694519	727.497864	2006.842163	738.791931	0.882801
298.065063	731.138855	2010.260132	739.386414	0.644783
298.435608	725.714661	1982.545288	732.847656	0.567538
298.806122	722.073792	1934.545776	727.572266	0.453493
299.176575	720.587830	1872.131348	726.829163	0.541997
299.547028	730.990173	1821.977173	737.974609	0.640194
299.917450	738.197571	1796.862915	741.095398	0.273725
300.287872	743.101501	1790.249878	746.519470	0.326407
300.658234	743.993164	1794.187866	735.374023	-0.820718
301.028564	741.987000	1788.466431	736.265625	-0.546726
301.398865	732.773438	1784.379883	731.510254	-0.120119
301.769135	727.126465	1780.738892	728.984070	0.176308
302.139374	720.513489	1796.119751	721.033630	0.048358
302.509583	721.628113	1804.813110	714.569336	-0.651669
302.879791	721.182190	1803.847046	715.089355	-0.562763
303.249939	724.600098	1795.599487	722.965515	-0.152622
303.620087	729.281250	1791.290039	731.658875	0.223880
303.990173	730.544434	1784.528320	731.807556	0.119843
304.360260	730.841553	1781.407837	736.042725	0.495083
304.730286	731.436035	1792.924683	730.841553	-0.056005
305.100281	731.287354	1797.085571	728.909668	-0.223090
305.470276	724.228699	1808.305298	728.018066	0.349548
305.840179	721.330811	1806.967773	727.572266	0.574912
306.210144	719.993408	1822.794312	735.374023	1.394686
306.579987	721.107910	1825.023438	731.584656	0.949053
306.949890	724.377197	1833.568237	732.550537	0.736874
307.319702	727.572266	1849.097534	728.538147	0.086122
307.689484	732.327637	1863.214966	725.640381	-0.591328
308.059265	735.299805	1895.388062	726.011902	-0.800620
308.429016	732.922058	1931.202026	723.559875	-0.781302
308.798737	735.374023	1983.808228	722.965515	-0.993926
309.168396	735.448425	2034.928589	726.309082	-0.703308
309.538055	745.479187	2072.674316	730.172852	-1.153285
309.907684	746.593750	2098.531738	737.528809	-0.670515
310.277313	743.175781	2109.825928	739.906555	-0.239215
310.646851	737.305908	2119.336426	742.432861	0.370972
311.016388	741.243958	2140.364014	737.305969	-0.281462
311.385895	742.952881	2152.921387	738.569092	-0.310914
311.755371	740.129395	2169.416748	734.928223	-0.363900
312.124817	735.819824	2172.908691	735.745544	-0.005169
312.494232	737.677429	2166.295654	728.686707	-0.629330
312.863617	738.643372	2155.596436	730.990051	-0.540125
313.232971	736.934326	2137.094971	731.138733	-0.413923
313.602295	735.968445	2120.005127	740.500977	0.327486
313.971619	736.637146	2119.559326	739.906494	0.236409
314.340820	734.928223	2130.853271	739.237793	0.308725
314.710083	734.630920	2162.952148	729.949890	-0.327729
315.079285	731.807434	2183.682617	727.275085	-0.312172
315.448486	740.946716	2216.227295	733.219238	-0.523797
315.817596	736.785828	2222.171631	736.265686	-0.035017
316.186707	740.203674	2197.651611	744.587585	0.300794
316.555786	727.349365	2144.673828	744.513245	1.211006
316.924866	723.485657	2101.355225	747.336731	1.731011
317.293884	723.559875	2087.386230	736.042786	0.915286
317.662872	731.213074	2094.667969	730.692932	-0.038149
318.031830	728.240967	2108.339600	726.680664	-0.113057
318.400757	717.764221	2123.720459	717.912842	0.010571
318.769684	715.609436	2125.726318	717.318542	0.121203
319.138550	726.680603	2136.723145	713.231873	-0.953782
319.507416	732.179016	2155.744873	724.154297	-0.563706
319.876190	729.206848	2180.784668	722.593994	-0.455563
320.244995	732.030457	2195.645264	726.234863	-0.395978
320.613770	736.042786	2178.406982	726.829285	-0.638778
320.982483	738.048889	2154.035889	729.949951	-0.571964
321.351166	735.894104	2129.590088	726.309082	-0.687741
321.719818	732.699036	2111.980469	726.234802	-0.468667
322.088440	739.089172	2110.865967	725.714661	-0.974977
322.457062	736.934326	2133.974121	732.179016	-0.340385
322.825623	745.776367	2173.726318	732.179016	-0.952229
323.194183	742.878662	2219.570801	735.076843	-0.528331
323.562653	741.169617	2257.390869	731.881836	-0.612561
323.931183	725.120300	2316.015625	736.711487	0.728595
324.299591	722.742493	2378.950195	739.014893	0.982510
324.668060	721.405090	2428.733154	741.764099	1.192448
325.036407	732.179016	2472.051514	737.454529	0.303213
325.404755	733.070618	2497.686279	735.448303	0.134742
325.773102	739.014832	2510.243408	733.813660	-0.293648
326.141388	734.110840	2511.580811	731.658875	-0.137947
326.509674	727.200745	2518.862305	732.104736	0.273712
326.877899	714.346375	2542.787842	730.767273	0.898082
327.246124	716.798340	2556.905273	729.504089	0.690490
327.614288	723.559875	2559.580322	723.039734	-0.028330
327.982422	726.680664	2549.549316	726.531982	-0.008156
328.350525	725.714661	2538.032471	730.024231	0.237793
328.718628	725.491699	2519.308105	744.884766	1.081107
329.086700	726.086121	2525.029541	737.677429	0.644340
329.454712	728.835388	2528.595947	737.603088	0.487159
329.822693	730.098572	2546.205811	724.302917	-0.319125
330.190674	735.522644	2549.400879	728.984070	-0.360475
330.558563	737.751709	2569.388184	724.748718	-0.709911
330.926483	730.098572	2591.604736	721.033630	-0.486968
331.294312	730.990234	2616.347656	721.256592	-0.516276
331.662231	719.993408	2642.873779	720.142029	0.007729
332.029999	720.959290	2683.071533	721.776672	0.041658
332.397766	719.398926	2720.148438	720.439148	0.051992
332.765503	733.070618	2761.014893	721.999512	-0.545928
333.133240	736.934387	2814.215576	730.395813	-0.314766
333.500916	734.185242	2870.016846	734.408142	0.010436
333.868561	722.519714	2911.552002	741.764160	0.879130
334.236176	720.959290	2927.675781	736.934387	0.723931
334.603790	724.303040	2929.533203	729.949890	0.256066
334.971344	725.491882	2922.326172	726.903503	0.064257
335.338867	728.241028	2903.527588	727.126465	-0.051238
335.706360	725.045898	2914.821289	726.680664	0.074654
336.073853	730.618652	2927.452881	723.634216	-0.317932
336.441284	729.652649	2955.687744	720.364929	-0.417232
336.808655	735.151123	2928.567383	726.531982	-0.392955
337.176086	729.652771	2896.468750	728.240967	-0.065156
337.543396	732.550598	2813.175049	735.002502	0.117845
337.910706	728.761169	2760.643311	735.225403	0.318140
338.277954	729.281250	2758.934326	738.048889	0.431977
338.645264	727.795166	2842.153564	733.962219	0.291675
339.012421	724.674377	2966.833252	737.974609	0.593189
339.379669	730.024170	3088.318359	739.980774	0.422195
339.746796	724.302917	3185.506104	740.723816	0.667190
340.113953	725.045898	3246.434326	735.596863	0.418458
340.481018	721.999512	3265.381592	734.705261	0.499561
340.848114	722.148132	3265.901611	738.048889	0.625090
341.215118	725.194580	3261.889404	732.996338	0.307556
341.582153	722.742615	3272.440430	728.538269	0.227307
341.949066	726.309082	3286.929688	725.640381	-0.026115
342.316010	721.479492	3309.666016	731.584534	0.390429
342.682922	720.662109	3328.836182	733.813660	0.504244
343.049835	721.182190	3350.904297	730.470032	0.353187
343.416656	730.767273	3397.789063	727.795166	-0.111439
343.783478	733.144836	3471.794678	730.915833	-0.081391
344.150269	736.860107	3573.589111	731.733215	-0.180733
344.516998	741.912659	3676.647217	738.123230	-0.129123
344.883728	743.175781	3771.606201	738.197571	-0.164383
345.250427	739.089172	3847.468994	739.906555	0.026296
345.617065	728.835449	3889.673096	733.293640	0.141045
345.983704	730.915833	3904.979492	733.665039	0.086615
346.350281	733.367859	3885.586670	735.225403	0.058928
346.716827	733.219238	3844.943115	737.305908	0.131331
347.083405	727.943665	3800.806885	733.219238	0.171683
347.449860	729.949951	3745.154297	734.185242	0.140464
347.816376	730.470032	3707.185547	735.076843	0.154762
348.182770	734.036621	3664.981689	735.002625	0.032959
348.549194	726.754883	3649.526611	734.556702	0.266932
348.915558	718.730225	3655.545654	729.355530	0.361797
349.281921	722.593994	3669.588623	723.931396	0.045382
349.648193	723.039795	3713.129883	720.587830	-0.082003
350.014526	729.058289	3755.036377	727.572266	-0.049109
350.380737	730.395691	3807.345703	736.785706	0.207674
350.746948	730.767273	3866.565186	741.095276	0.329358
351.113159	730.247131	3919.023193	729.578369	-0.020972
351.479309	721.182190	3951.641846	726.234802	0.156405
351.845428	723.039795	3969.028564	724.228577	0.036623
352.211517	723.336975	3983.666016	731.435974	0.248410
352.577576	720.513489	4022.006592	730.544250	0.303825
352.943604	721.925293	4068.296875	727.349304	0.162086
353.309601	728.612488	4138.215332	726.606262	-0.058840
353.675537	737.900391	4221.062988	725.863281	-0.345580
354.041473	733.070618	4319.514160	724.302917	-0.244468
354.407379	728.018066	4432.975098	727.795166	-0.006016
354.773254	727.720886	4540.639648	725.268860	-0.064308
355.139038	735.968445	4626.310547	728.240967	-0.198632
355.504913	737.528809	4706.483398	729.355530	-0.205930
355.870636	731.361633	4801.962402	727.646545	-0.091266
356.236389	725.863281	4909.478516	721.925293	-0.094129
356.602081	730.098572	5044.708984	719.473206	-0.246265
356.967804	738.791992	5162.924316	731.361633	-0.167951
357.333405	739.757874	5299.121094	736.414307	-0.073334
357.699036	735.225403	5421.275391	738.494812	0.069769
358.064606	731.658875	5574.785156	731.510254	-0.003069
358.430176	735.448242	5697.978516	733.219238	-0.044917
358.795654	734.630920	5749.470215	731.658936	-0.059264
359.161163	737.751709	5740.256348	732.030457	-0.114368
359.526581	742.358459	5718.411621	731.658875	-0.215022
359.892029	747.262512	5737.730469	736.191406	-0.221845
360.257416	740.872375	5821.767090	737.900391	-0.058493
360.622772	729.801331	5995.263672	738.123230	0.158047
360.988098	722.148132	6238.902344	732.179016	0.181826
361.353394	720.067688	6525.413574	733.590820	0.232943
361.718658	727.720886	6799.665527	733.516418	0.095448
362.083893	733.962341	7043.154785	734.853943	0.014132
362.449097	740.872498	7184.255859	733.144958	-0.119930
362.814209	739.163574	7190.571777	732.699158	-0.100202
363.179382	739.683594	7001.619629	730.915833	-0.140017
363.544434	738.643372	6697.721191	732.104736	-0.109726
363.909546	737.751709	6319.669434	728.909668	-0.158405
364.274536	734.853943	6016.068359	733.962219	-0.016885
364.639587	737.825928	5793.457520	732.104675	-0.113166
365.004517	735.151062	5679.997559	732.327637	-0.057098
365.369507	737.157227	5614.610840	725.863281	-0.231554
365.734344	722.445313	5570.326660	728.835449	0.131813
366.099274	724.377258	5523.664063	727.795227	0.071218
366.464081	727.052063	5495.280762	731.510254	0.093498
366.828918	738.420410	5496.171875	727.349304	-0.232696
367.193665	742.135559	5501.076660	726.457703	-0.329440
367.558411	734.408142	5515.416504	724.525879	-0.206698
367.923126	735.745605	5509.695313	723.336975	-0.259924
368.287781	733.367859	5507.688965	731.807556	-0.032681
368.652435	734.853943	5481.609375	736.414246	0.032871
369.017059	738.791931	5450.996094	735.522644	-0.069379
369.381653	738.717590	5422.761230	730.544373	-0.174491
369.746185	744.736145	5397.646484	723.931458	-0.447133
370.110687	738.717590	5404.259766	720.439209	-0.391774
370.475220	738.717712	5452.259277	720.662109	-0.383058
370.839661	733.293640	5522.772949	724.748718	-0.178410
371.204041	733.293640	5595.515137	730.247131	-0.062657
371.568451	740.203674	5641.730957	731.881836	-0.169781
371.932770	737.380188	5695.229004	728.463867	-0.179843
372.297150	736.637207	5733.420410	724.451477	-0.243871
372.661377	733.219238	5775.921875	727.423645	-0.114930
373.025696	743.993164	5810.101563	728.909668	-0.297733
373.389862	738.048889	5812.701660	734.631042	-0.067351
373.754059	736.117004	5810.918457	736.117004	0.000000
374.118225	719.250305	5810.695313	736.934387	0.347329
374.482361	727.869446	5840.714355	736.117004	0.161311
374.846436	730.470032	5899.338379	736.414246	0.115000
375.210510	738.643311	5979.808594	739.014893	0.007090
375.574524	738.569031	6091.187988	728.018066	-0.197118
375.938538	735.299744	6240.239746	724.748779	-0.191664
376.302460	732.476257	6377.253906	721.776672	-0.189548
376.666412	732.699158	6556.545410	731.881836	-0.014034
377.030304	730.098572	6702.253906	728.761047	-0.022396
377.394196	733.442200	6865.645020	730.247131	-0.052103
377.757996	728.463867	6979.477051	731.881836	0.054679
378.121796	732.327637	7059.724121	733.219238	0.014091
378.485565	734.631042	7080.454590	730.692932	-0.062058
378.849304	733.665100	7012.914063	731.287415	-0.037866
379.212982	727.423645	6873.521973	738.420410	0.178923
379.576630	724.897278	6708.867188	744.067383	0.320358
379.940277	725.120300	6588.496094	739.163391	0.239505
380.303864	723.782898	6498.812988	729.949951	0.106788
380.667450	725.714661	6465.673828	723.485596	-0.038834
381.030945	721.925293	6455.865723	728.092346	0.107553
381.394501	730.692932	6481.352051	729.652771	-0.018088
381.757935	734.482422	6507.357910	730.321472	-0.072078
382.121399	748.451355	6502.008301	726.531982	-0.380971
382.484741	746.816650	6533.289551	724.525818	-0.385223
382.848145	746.147949	6564.273926	722.891113	-0.399731
383.211487	745.925049	6652.991699	725.640381	-0.343397
383.574768	737.825989	6737.474121	728.092346	-0.162237
383.938019	731.807556	6834.810059	724.971680	-0.112008
384.301270	717.912903	6918.623535	723.782776	0.094665
384.664459	725.417480	7009.049316	723.485596	-0.030745
385.027649	728.835449	7067.600098	728.761047	-0.001174
385.390778	739.683594	7133.878418	730.692871	-0.140608
385.753876	740.946716	7169.320801	730.024231	-0.169911
386.116943	741.541199	7209.221191	730.544250	-0.170029
386.479980	733.219238	7219.400879	729.504089	-0.057278
386.842987	723.485596	7277.283203	732.550537	0.138316
387.205994	719.696106	7321.344238	737.825989	0.274627
387.568909	725.194519	7385.542480	733.813660	0.129410
387.931793	723.039734	7404.191895	736.339905	0.199070
388.294678	722.816895	7452.042969	730.098450	0.108208
388.657471	721.256531	7490.457031	741.243958	0.295270
389.020294	730.172852	7509.851074	738.866272	0.128228
389.383057	731.807434	7521.812988	745.256348	0.198069
389.745819	731.584534	7523.001953	736.934387	0.078774
390.108521	728.240967	7537.490723	733.516418	0.077475
390.471191	718.061523	7584.747559	731.436035	0.194774
390.833801	719.250305	7693.972656	727.423645	0.117185
391.196442	717.987244	7873.116699	726.309143	0.116307
391.558960	722.148193	8064.074219	721.850891	-0.004049
391.921509	723.857117	8256.370117	720.067688	-0.050308
392.284027	725.491760	8436.777344	719.473206	-0.078049
392.646484	732.699219	8552.616211	725.863281	-0.087417
393.008911	735.002502	8574.459961	729.504089	-0.070138
393.371307	730.693054	8509.444336	734.630920	0.050623
393.733673	725.714661	8463.303711	729.132629	0.044174
394.096008	719.250305	8405.717773	733.888000	0.190435
394.458344	729.281250	8420.801758	734.631042	0.069554
394.820587	739.312073	8436.702148	730.470032	-0.114871
395.182831	744.513245	8500.379883	732.699158	-0.152325
395.545013	735.002502	8476.379883	725.417480	-0.123815
395.907196	731.436035	8379.489258	731.436035	0.000000
396.269287	736.934387	8235.044922	728.538269	-0.111976
396.631409	737.305847	8102.117676	735.151123	-0.029257
396.993469	727.943787	7986.131348	735.002502	0.097252
397.355530	714.494934	7893.178223	736.191345	0.302234
397.717499	717.689941	7879.432129	733.293518	0.217874
398.079468	729.355469	7869.921387	731.138733	0.024974
398.441376	730.395691	7870.962402	728.761047	-0.022892
398.803284	730.395752	7843.990234	728.612488	-0.025068
399.165131	723.485596	7857.364746	727.497986	0.056244
399.526978	725.491882	7883.741699	725.491760	-0.000002
399.888763	729.058289	7907.072754	724.897278	-0.057969
400.250519	726.829163	7913.908203	726.903503	0.001034
400.612244	732.253357	7938.428223	727.126465	-0.071146
400.973938	734.779602	7947.419434	726.383484	-0.116408
401.335602	738.049011	7986.874512	724.228699	-0.190656
401.697205	731.733215	8039.257813	725.863281	-0.080327
402.058807	731.064514	8106.204590	733.962341	0.039292
402.420349	727.423645	8202.425781	742.952942	0.207750
402.781860	726.309082	8297.310547	743.770203	0.230632
403.143341	719.919006	8426.299805	744.884766	0.323962
403.504822	725.343079	8575.797852	733.070618	0.098434
403.866241	729.504089	8759.844727	736.042786	0.081425
404.227631	735.819824	8919.818359	731.213074	-0.056290
404.588959	734.482422	9088.782227	732.624817	-0.022235
404.950287	736.414246	9231.666992	725.937683	-0.123323
405.311554	730.544434	9344.831055	722.742615	-0.090568
405.672821	738.049011	9375.294922	729.132629	-0.103232
406.034027	740.426575	9354.563477	734.259460	-0.071593
406.395203	744.067444	9267.778320	740.575195	-0.040971
406.756348	730.618652	9186.045898	740.723816	0.119511
407.117493	726.606262	9096.064453	739.832214	0.158026
407.478516	722.519714	9084.176758	732.847717	0.123516
407.839600	725.343201	9093.018555	726.457703	0.013319
408.200592	728.463928	9117.538086	727.572266	-0.010629
408.561554	725.789001	9092.126953	733.293457	0.089698
408.922485	725.045959	9102.380859	738.048889	0.155216
409.283417	725.343201	9112.336914	739.163513	0.164783
409.644257	727.200745	9221.413086	732.922058	0.067355
410.005096	729.504150	9339.331055	729.652771	0.001726
410.365906	730.692932	9469.063477	725.640381	-0.057820
410.726715	735.968445	9561.868164	727.795166	-0.092606
411.087433	736.860046	9650.584961	728.092346	-0.098362
411.448120	733.590759	9754.386719	730.172852	-0.037889
411.808807	728.538147	9780.094727	727.869446	-0.007388
412.169434	732.104736	9714.114258	725.417542	-0.074451
412.530029	727.795166	9637.286133	721.851013	-0.066717
412.890564	729.801331	9610.387695	729.058350	-0.008366
413.251099	734.259460	9630.895508	731.287415	-0.033406
413.611572	739.386414	9660.765625	731.064514	-0.093280
413.972076	736.191406	9711.959961	728.538147	-0.085266
414.332489	726.903503	9755.500977	727.200684	0.003292
414.692871	723.336975	9881.816406	728.761047	0.059225
415.053223	733.887939	10009.914063	729.132629	-0.051265
415.413574	737.305908	10238.023438	734.928223	-0.025026
415.773834	741.912659	10403.496094	739.163391	-0.028456
416.134094	744.736145	10580.929688	737.603027	-0.072519
416.494263	738.940613	10710.291992	737.900330	-0.010433
416.854462	737.900391	10954.226563	737.603088	-0.002910
417.214630	728.240967	11207.079102	730.618652	0.022690
417.574738	731.436035	11493.145508	731.435974	-0.000001
417.934784	730.395813	11763.235352	726.829163	-0.032328
418.294861	732.922058	12116.916992	730.395752	-0.022192
418.654846	731.436035	12549.655273	727.720886	-0.031436
419.014832	733.070618	12967.385742	729.504089	-0.029152
419.374756	728.463867	13464.840820	730.618652	0.016918
419.734680	734.110840	13974.929688	729.578430	-0.034231
420.094543	729.578430	14499.581055	735.076843	0.039930
420.454376	734.630920	14956.320313	735.076843	0.003136
420.814148	732.104675	15371.300781	731.807434	-0.002030
421.173920	733.888000	15842.159180	732.401917	-0.009836
421.533691	736.637207	16279.429688	733.070618	-0.022947
421.893341	734.928223	16630.806641	729.504089	-0.034123
422.253021	736.042786	16851.560547	723.262695	-0.079303
422.612640	735.819824	16893.986328	724.005676	-0.073116
422.972260	739.906494	16863.894531	732.996338	-0.042856
423.331757	736.265625	16766.039063	739.906555	0.022714
423.691315	730.990173	16782.904297	745.182068	0.088412
424.050781	724.600159	16890.791016	753.206726	0.176953
424.410248	723.262695	17014.951172	753.652527	0.186536
424.769653	719.473328	17164.968750	750.308899	0.187502
425.128998	725.566101	17213.191406	739.312073	0.083371
425.488373	725.491760	17146.541016	726.383362	0.005430
425.847656	732.030457	16947.482422	726.457703	-0.034367
426.206940	727.943787	16749.169922	729.578430	0.010203
426.566193	727.572266	16431.822266	740.500977	0.082326
426.925385	722.296692	16107.714844	743.398743	0.137156
427.284576	730.544373	15609.218750	743.472961	0.086893
427.643677	735.596985	15275.450195	733.590759	-0.013798
428.002777	740.649597	14929.942383	723.485596	-0.120964
428.361847	739.237793	14609.327148	722.816895	-0.118391
428.720856	735.596985	14301.936523	726.903503	-0.064081
429.079865	739.460693	14064.687500	735.225403	-0.031784
429.438812	731.881836	13915.637695	734.779602	0.021980
429.797760	729.504089	13796.828125	744.290344	0.113154
430.156616	721.405090	13629.051758	747.633972	0.203204
430.515503	715.832336	13550.140625	737.231628	0.166735
430.874268	715.906677	13514.401367	732.699158	0.131207
431.233093	724.748718	13564.706055	722.891174	-0.014467
431.591827	732.847717	13622.438477	730.395752	-0.019023
431.950562	738.569092	13654.461914	727.646545	-0.084567
432.309204	732.179016	13711.750000	728.761047	-0.026333
432.667877	731.361633	13791.105469	727.052185	-0.032998
433.026459	733.962219	13928.194336	727.200745	-0.051246
433.385010	742.135559	14052.575195	731.733215	-0.078152
433.743561	740.872375	14270.208008	742.952881	0.015378
434.102051	733.219238	14407.296875	743.993164	0.078791
434.460510	729.727051	14588.668945	744.364563	0.105618
434.818939	731.138733	14607.617188	737.825989	0.048191
435.177338	725.566101	14635.851563	737.974609	0.089204
435.535675	721.256531	14537.475586	735.225403	0.101105
435.894012	721.107910	14508.200195	734.556641	0.097546
436.252289	731.881775	14550.999023	734.853943	0.021508
436.610535	728.389587	14576.113281	739.757813	0.082095
436.968719	729.652771	14675.976563	744.290344	0.104956
437.326935	726.309082	14755.331055	740.352295	0.100101
437.685028	732.550476	14895.020508	737.528809	0.035152
438.043152	731.213074	14995.032227	732.996338	0.012502
438.401215	727.795166	15188.442383	741.318176	0.093516
438.759277	724.005676	15423.015625	736.488525	0.084923
439.117249	729.949890	15819.421875	734.408142	0.029545
439.475250	736.934387	16143.828125	727.275085	-0.062695
439.833130	740.575256	16532.058594	729.504089	-0.070108
440.191071	737.231628	16801.705078	734.482422	-0.017114
440.548889	745.033386	17086.580078	738.940613	-0.037284
440.906708	740.798096	17380.968750	742.952881	0.012949
441.264496	742.878601	17580.767578	742.061218	-0.004854
441.622223	730.172852	17761.248047	740.426575	0.060206
441.979950	732.476257	17829.308594	741.020996	0.049978
442.337616	728.761047	17830.794922	739.609314	0.063433
442.695251	722.742493	17711.763672	740.055115	0.101905
443.052887	723.708496	17502.451172	732.550537	0.052698
443.410461	723.559875	17338.912109	724.971680	0.008497
443.768005	738.569092	17182.058594	718.655945	-0.121100
444.125458	737.305847	17098.617188	725.120300	-0.074478
444.482941	732.476135	17139.185547	729.875671	-0.015850
444.840393	729.206848	17255.470703	731.956116	0.016636
445.197754	731.807434	17532.619141	725.937561	-0.034938
445.555084	742.358459	17810.955078	728.909668	-0.078793
445.912415	741.392578	18180.835938	729.875671	-0.066039
446.269714	740.203796	18433.464844	735.894226	-0.024357
446.626953	733.665100	18741.375000	730.990173	-0.014854
446.984161	730.024231	19037.099609	724.525818	-0.030034
447.341309	724.451599	19324.800781	725.491760	0.005592
447.698456	722.222473	19500.898438	736.562805	0.076365
448.055542	729.132629	19573.937500	740.278015	0.059143
448.412598	735.522705	19520.439453	739.312012	0.020172
448.769653	739.609314	19381.195313	739.014893	-0.003189
449.126617	730.024231	19071.501953	740.055115	0.054690
449.483582	725.937561	18841.982422	739.386414	0.074237
449.840515	723.188293	18478.566406	729.206848	0.033897
450.197388	725.863220	18273.937500	731.881836	0.034298
450.554230	727.200745	18019.748047	730.990234	0.021914
450.911041	729.132629	17885.111328	735.596924	0.037680
451.267822	728.538147	17751.291016	738.420410	0.058053
451.624573	730.767273	17567.466797	737.082947	0.037511
451.981262	729.578430	17467.083984	734.928162	0.031963
452.337921	731.956116	17282.664063	727.795166	-0.025141
452.694580	732.847839	17233.177734	727.720886	-0.031072
453.051147	733.665039	17189.933594	727.572266	-0.037024
453.407715	727.720886	17121.128906	738.494812	0.065721
453.764221	721.182190	17097.873047	743.027161	0.133391
454.120728	719.919128	16866.716797	739.386414	0.120564
454.477142	725.789001	16813.517578	734.853943	0.056347
454.833557	725.194519	16633.705078	730.395813	0.032695
455.189911	729.875549	16516.974609	741.392578	0.072952
455.546265	731.435852	16326.239258	743.027161	0.074328
455.902557	737.380188	16195.245117	742.878601	0.035570
456.258820	738.494690	16178.601563	736.860046	-0.010587
456.615051	740.129395	16247.776367	736.637207	-0.022519
456.971252	739.014832	16252.604492	735.671204	-0.021553
457.327393	732.476257	16444.677734	736.860046	0.027901
457.683502	734.556641	16679.623047	730.172852	-0.027493
458.039612	737.157288	17135.916016	731.138855	-0.036701
458.395630	736.711426	17543.021484	732.476257	-0.025200
458.751648	729.652649	17995.822266	733.516418	0.022378
459.107605	719.176086	18619.445313	734.928162	0.087999
459.463562	716.649719	19301.990234	728.983948	0.066365
459.819458	718.210144	19972.794922	727.646484	0.049008
460.175323	720.810730	20509.855469	734.333801	0.068336
460.531158	727.572266	20996.390625	738.569092	0.054255
460.886932	729.504150	21260.164063	740.129395	0.051753
461.242676	732.699158	21373.773438	731.213074	-0.007200
461.598419	734.705322	21127.978516	729.429871	-0.025869
461.954102	734.333801	20717.679688	726.606262	-0.038670
462.309723	731.584656	20060.992188	742.135559	0.054585
462.665344	728.612488	19427.486328	745.999268	0.092983
463.020905	723.782715	18872.666016	745.256348	0.118319
463.376373	726.531982	18488.892578	729.355530	0.015896
463.731873	732.104675	18137.812500	719.473206	-0.072571
464.087341	734.705261	17875.376953	722.965515	-0.068491
464.442749	737.083008	17713.099609	724.897278	-0.071782
464.798126	725.566101	17639.093750	734.556702	0.053156
465.153503	726.234863	17700.021484	729.949951	0.021887
465.508820	722.593933	17747.205078	730.172852	0.044517
465.864105	726.977844	17902.052734	722.965393	-0.023362
466.219330	735.002625	18157.060547	734.333740	-0.003839
466.574524	733.367920	18391.781250	737.751709	0.024825
466.929657	730.172852	18562.083984	743.695984	0.075837
467.284790	723.782776	18737.064453	742.878601	0.106010
467.639893	724.600098	18890.128906	738.791992	0.078125
467.994934	727.795227	19051.589844	739.980774	0.066501
468.349945	725.640442	19092.232422	732.773438	0.038837
468.704926	733.293518	19031.453125	744.290344	0.060098
469.059875	729.429871	18827.417969	752.686523	0.128504
469.414764	728.463867	18546.775391	749.342957	0.117178
469.769653	723.336975	18345.416016	736.711426	0.075896
470.124451	728.018005	18261.529297	727.720886	-0.001695
470.479248	730.841492	18150.373047	730.767273	-0.000426
470.834015	733.665039	18090.259766	732.699158	-0.005565
471.188721	731.510254	18167.388672	726.086182	-0.031109
471.543365	729.504089	18292.810547	734.110901	0.026230
471.898010	730.841553	18401.439453	737.974609	0.040367
472.252625	735.225403	18510.070313	741.689758	0.036368
472.607178	736.042725	18762.552734	736.191345	0.000824
472.961700	731.213074	19015.626953	739.237793	0.043888
473.316193	727.349365	19339.513672	747.188171	0.106591
473.670654	728.538269	19464.490234	745.181946	0.088833
474.025055	733.219238	19654.111328	734.408142	0.006284
474.379456	729.727051	19745.353516	727.126465	-0.013676
474.733795	726.903503	19897.080078	737.677429	0.056201
475.088104	730.470032	20032.978516	740.500977	0.051967
475.442383	735.968445	20061.214844	744.067444	0.041909
475.796570	739.906494	20175.791016	729.875671	-0.051610
476.150787	737.157288	20340.445313	726.309082	-0.055339
476.504944	741.763977	20628.886719	721.405090	-0.102372
476.859070	741.466858	20929.218750	730.544250	-0.054105
477.213135	731.287354	21236.460938	731.213074	-0.000362
477.567200	725.417480	21652.037109	732.030334	0.031600
477.921173	725.863281	22034.619141	729.281189	0.016040
478.275146	733.442139	22511.494141	732.104675	-0.006141
478.629089	737.603027	22803.728516	735.076843	-0.011448
478.983002	734.110840	23195.974609	734.110901	0.000000
479.336823	740.723816	23491.548828	736.562927	-0.018289
479.690643	734.408020	23901.849609	735.299744	0.003849
480.044403	733.887939	24393.287109	735.225403	0.005653
480.398163	721.776611	25084.375000	732.476257	0.043918
480.751862	726.903503	25995.251953	734.036621	0.028229
481.105499	733.442200	27115.515625	732.253235	-0.004507
481.459137	735.002502	28580.986328	737.231628	0.008005
481.812744	728.761047	30372.203125	738.866272	0.034089
482.166290	725.194519	32559.525391	738.048889	0.040379
482.519806	723.411316	35216.296875	730.470032	0.020464
482.873291	724.080017	38326.382813	729.875671	0.015413
483.226715	724.154358	41898.636719	743.398743	0.046739
483.580139	724.451599	45383.656250	751.051941	0.059563
483.933502	727.423645	48725.792969	749.194336	0.045357
484.286804	725.566101	51446.386719	745.330566	0.038967
484.640106	728.463867	53510.515625	747.634033	0.036319
484.993347	724.897400	54637.093750	752.463684	0.051132
485.346558	726.234863	54899.828125	748.525635	0.041147
485.699738	733.144958	54222.035156	751.349121	0.034034
486.052887	733.665039	52984.156250	742.952881	0.017776
486.405975	732.104736	51374.386719	743.993164	0.023475
486.759064	729.429749	49756.000000	732.104736	0.005456
487.112061	734.779602	48402.652344	738.717712	0.008262
487.464996	732.996338	47607.984375	736.117004	0.006657
487.817963	731.064514	47443.402344	739.757874	0.018610
488.170868	727.349304	47511.464844	737.380188	0.021441
488.523743	728.909729	47600.625000	741.318176	0.026473
488.876587	728.909668	47485.832031	741.392517	0.026697
489.229401	736.934387	47060.824219	743.027161	0.013153
489.582153	741.392578	46267.636719	748.599915	0.015831
489.934845	742.358582	45187.125000	753.206726	0.024408
490.287537	746.965271	44062.261719	752.686584	0.013209
490.640198	748.228333	43202.351563	752.092102	0.009101
490.992798	750.457458	42621.675781	750.457520	0.000000
491.345337	737.231628	42533.105469	752.760803	0.037155
491.697876	732.179016	42586.234375	749.417236	0.041187
492.050354	726.160461	42972.085938	747.708313	0.051006
492.402832	725.640320	43217.808594	747.411072	0.051235
492.755219	728.166687	43088.593750	751.720642	0.055604
493.107605	729.206848	42354.332031	753.875305	0.059263
493.459930	737.305847	41033.011719	749.417236	0.030056
493.812225	743.027161	39304.656250	741.020996	-0.005202
494.164490	742.358459	37354.207031	736.785828	-0.015221
494.516724	740.575195	35390.757813	733.962219	-0.019085
494.868896	732.253235	33593.375000	736.191406	0.011984
495.221039	736.191345	32156.953125	730.915833	-0.016790
495.573120	742.878601	31015.443359	732.253357	-0.035099
495.925201	745.924988	30403.335938	732.773438	-0.044345
496.277222	746.890930	30035.166016	741.466858	-0.018520
496.629211	734.705261	29984.787109	739.460693	0.016258
496.981140	728.240967	29914.796875	727.275085	-0.003309
497.333069	733.813660	29997.271484	721.033630	-0.043672
497.684967	736.637207	30074.771484	724.080017	-0.042802
498.036804	740.649475	30179.537109	730.841553	-0.033316
498.388580	737.751709	30090.220703	735.522644	-0.007594
498.740326	737.825989	29938.052734	739.312073	0.005089
499.092072	743.695984	29614.462891	737.825989	-0.020332
499.443756	732.699158	29314.056641	742.804260	0.035356
499.795410	739.832214	28956.664063	735.225403	-0.016326
500.147003	735.968445	28661.158203	734.482422	-0.005321
500.498566	737.751709	28278.427734	725.417480	-0.044785
500.850098	725.566101	27869.314453	734.185242	0.031754
501.201599	719.398926	27479.599609	743.324402	0.089407
501.553009	721.033630	27133.349609	746.370850	0.095930
501.904449	728.092346	26945.806641	742.358459	0.054414
502.255859	735.374023	26756.333984	740.278015	0.018846
502.607178	738.420410	26726.093750	742.061218	0.014010
502.958405	734.333801	26630.390625	743.695984	0.036153
503.309692	732.104675	26565.750000	738.717590	0.025598
503.660919	730.841553	26566.492188	743.844543	0.050330
504.012115	731.658875	26588.337891	745.107605	0.052013
504.363251	729.801270	26711.009766	746.222168	0.063203
504.714294	728.612488	26791.927734	750.308838	0.083245
505.065369	722.891174	26865.486328	745.850647	0.087824
505.416443	723.559875	26834.875000	747.856873	0.093052
505.767395	721.405090	26776.771484	743.472961	0.084696
506.118317	728.018066	26721.634766	740.649597	0.048595
506.469238	726.606262	26764.062500	741.689758	0.057930
506.820160	726.309082	26732.111328	735.819885	0.036572
507.170929	722.593994	26765.326172	740.798157	0.069901
507.521729	722.668274	26869.423828	741.318176	0.071328
507.872498	725.343262	26991.130859	742.135559	0.063932
508.223236	727.423645	27131.490234	745.330566	0.067819
508.573883	728.463867	27269.541016	741.912659	0.050672
508.924500	730.098572	27503.896484	748.822815	0.069935
509.275116	734.408020	27736.687500	747.485352	0.048430
509.625702	734.333740	27997.490234	749.714417	0.056416
509.976196	728.761047	28262.302734	741.095398	0.044798
510.326660	725.343262	28537.669922	743.547363	0.065453
510.677124	724.897400	28750.771484	740.426575	0.055410
511.027557	728.538147	28945.666016	734.110840	0.019749
511.377869	727.795166	29146.951172	725.268860	-0.008889
511.728180	728.612488	29343.853516	727.275085	-0.004674
512.078430	731.213074	29488.076172	735.671204	0.015503
512.428650	728.984070	29612.009766	736.637207	0.026497
512.778931	731.287415	29687.130859	737.008728	0.019759
513.129028	724.228577	29741.818359	737.083008	0.044299
513.479126	728.240967	29770.201172	743.250183	0.051681
513.829285	726.903503	29718.859375	740.575195	0.047157
514.179382	732.624817	29631.775391	732.624817	0.000000
514.529297	729.058289	29501.599609	728.315247	-0.002582
514.879272	732.847717	29476.929688	729.058350	-0.013183
515.229187	729.206848	29419.640625	735.894226	0.023309
515.579163	725.566101	29464.669922	737.677429	0.042142
515.928955	719.398926	29473.509766	737.008728	0.061243
516.278748	725.640320	29679.775391	731.807434	0.021300
516.628540	733.293518	29936.119141	735.596924	0.007888
516.978333	738.717590	30419.755859	739.832214	0.003755
517.327942	735.374023	30963.576172	746.073669	0.035396
517.677612	731.807434	31612.759766	747.188171	0.049807
518.027222	727.200684	32220.109375	741.392578	0.045064
518.376831	727.200684	32940.179688	740.723816	0.041980
518.726379	726.606262	33582.972656	731.881775	0.016056
519.075867	725.714661	34108.886719	739.163391	0.040286
519.425293	723.857178	34482.183594	739.683594	0.046882
519.774658	719.770508	34644.535156	748.525635	0.084761
520.124084	725.863281	34682.425781	743.324402	0.051422
520.473389	734.779602	34437.902344	740.278015	0.016314
520.822693	742.952881	34068.839844	736.934387	-0.018060
521.171997	737.231628	33614.402344	737.974609	0.002260
521.521240	733.144958	33181.816406	746.742371	0.041904
521.870361	730.915833	32823.750000	747.634033	0.052093
522.219482	733.888000	32516.580078	742.581360	0.027352
522.568604	734.333801	32276.287109	729.578430	-0.015076
522.917664	732.996338	32128.570313	721.850891	-0.035500
523.266724	729.355469	32162.826172	721.999512	-0.023402
523.615662	733.516418	32451.562500	724.971680	-0.026940
523.964600	737.231628	32914.988281	728.761047	-0.026324
524.313538	742.581360	33513.496094	734.036621	-0.026074
524.662354	735.374023	34154.359375	735.522644	0.000445
525.011169	733.888000	35010.847656	741.392578	0.021894
525.359985	731.213074	36017.871094	745.256287	0.039798
525.708740	735.448425	37223.359375	753.206726	0.048669
526.057434	735.225403	38586.890625	751.943542	0.044168
526.406067	736.637207	40109.355469	736.934387	0.000755
526.754700	727.497986	41800.855469	730.990234	0.008502
527.103333	730.692932	43698.324219	729.281250	-0.003285
527.451782	733.219238	45820.925781	741.912659	0.019281
527.800293	732.699036	48010.925781	742.952942	0.021688
528.148743	726.383362	50109.675781	741.838379	0.031296
528.497131	717.467041	51969.402344	741.615417	0.047117
528.845642	721.925232	53491.500000	744.141785	0.042101
529.193909	720.662109	54667.562500	745.479187	0.046003
529.542175	723.262695	55447.957031	749.640137	0.048200
529.890503	724.228699	55786.035156	753.355286	0.052898
530.238770	732.030457	55511.488281	752.983704	0.038250
530.586914	736.339905	54707.535156	748.674255	0.022854
530.934998	738.346191	53440.300781	743.250061	0.009305
531.283142	737.825989	51960.933594	746.073547	0.016101
531.631226	736.414307	50174.250000	742.135559	0.011573
531.979248	738.197510	48381.996094	736.637146	-0.003275
532.327148	735.968445	46744.878906	731.361633	-0.010013
532.675110	733.813721	45635.097656	737.083008	0.007281
533.023071	727.349304	45070.988281	736.637207	0.020945
533.370850	731.510254	44967.410156	733.739319	0.005039
533.718689	729.504150	45187.574219	732.773438	0.007354
534.066467	735.151123	45402.531250	736.265686	0.002495
534.414246	726.086243	45507.667969	739.535095	0.030032
534.761963	728.240906	45303.925781	747.188171	0.042506
535.109619	728.315247	44947.574219	750.903320	0.051082
535.457153	730.172852	44288.214844	752.389343	0.051004
535.804749	731.510254	43521.484375	746.445129	0.034903
536.152344	722.891174	42571.152344	743.398743	0.049005
536.499817	725.863281	41648.234375	737.751709	0.029051
536.847229	727.200745	40711.500000	732.624817	0.013566
537.194641	730.767273	39908.878906	734.408142	0.009293
537.542114	735.596863	39305.246094	745.107727	0.024659
537.889404	730.470032	38823.097656	747.039551	0.043498
538.236694	726.829285	38426.765625	745.033386	0.048287
538.583984	720.364929	38014.308594	728.538147	0.021916
538.931213	724.823059	37731.218750	723.188293	-0.004418
539.278381	727.720886	37543.750000	716.649719	-0.030072
539.625488	725.863281	37612.781250	722.519592	-0.009065
539.972595	728.612549	37967.207031	733.887939	0.014166
540.319641	726.532043	38678.433594	744.141785	0.046400
540.666687	730.172852	39658.187500	749.863037	0.050581
541.013611	726.977844	40930.917969	747.931152	0.052118
541.360596	734.259460	42329.441406	744.290344	0.024115
541.707458	737.825989	43709.613281	746.742371	0.020749
542.054260	739.683594	44887.238281	745.702148	0.013633
542.401062	733.070740	45863.425781	749.194336	0.035727
542.747864	727.423645	46392.019531	744.513245	0.037424
543.094666	725.268860	46350.781250	741.912659	0.036479
543.441284	724.823059	45664.371094	737.603088	0.028438
543.787903	730.247131	44623.464844	738.346191	0.018452
544.134460	728.092346	43323.613281	738.197510	0.023724
544.481079	732.253357	41945.222656	741.912659	0.023438
544.827637	724.005676	40409.535156	746.742371	0.057292
545.174072	720.587830	38848.878906	747.039551	0.069376
545.520508	719.919128	37439.656250	747.039551	0.073858
545.866943	720.216309	36273.769531	743.324402	0.064995
546.213318	727.052063	35412.007813	741.318298	0.041131
546.559631	729.875671	34725.894531	740.129395	0.030162
546.905823	735.894104	34178.136719	741.318176	0.016219
547.252136	737.454590	33774.675781	740.723816	0.009896
547.598389	733.962341	33350.406250	738.791931	0.014807
547.944458	728.761047	32971.457031	734.408142	0.017514
548.290588	729.281250	32352.666016	739.386414	0.031955
548.636658	738.346130	31736.177734	742.209900	0.012465
548.982727	740.352295	30950.500000	739.460632	-0.002952
549.328735	734.928223	30268.921875	740.872375	0.020126
549.674622	725.491699	29484.732422	739.534973	0.048830
550.020569	716.798340	28780.638672	749.417236	0.116231
550.366455	718.953125	28042.070313	740.798096	0.079951
550.712280	720.736389	27380.703125	737.900330	0.064381
551.058044	723.782898	26874.849609	737.603088	0.052848
551.403748	718.135803	26476.585938	736.711426	0.072115
551.749512	717.244141	26206.939453	740.872375	0.092697
552.095154	719.250305	26036.490234	738.643372	0.076600
552.440735	726.234863	25965.306641	739.386414	0.052108
552.786316	726.977844	25973.556641	739.089111	0.047972
553.131897	734.110901	25998.968750	736.934387	0.011176
553.477417	736.934387	26064.132813	736.191406	-0.002934
553.822815	738.420410	26090.806641	732.847717	-0.021981
554.168213	737.380188	26067.994141	736.711426	-0.002640
554.513672	736.934387	25955.875000	739.014832	0.008250
554.859009	738.569031	25749.236328	740.798157	0.008913
555.204285	739.312012	25528.708984	738.866211	-0.001798
555.549500	739.014893	25266.716797	743.918762	0.019993
555.894714	732.476257	25037.193359	749.045715	0.068174
556.239990	738.271790	24733.146484	743.398743	0.021367
556.585022	734.036621	24432.591797	737.825989	0.015990
556.930115	736.414307	24119.330078	729.578369	-0.029235
557.275146	738.271790	23832.447266	735.819824	-0.010617
557.620178	739.237793	23656.427734	741.912659	0.011672
557.965149	743.547363	23502.619141	749.640137	0.026771
558.310059	730.172852	23359.068359	742.061218	0.052536
558.654968	732.327576	23182.818359	735.819824	0.015555
558.999756	725.566101	23049.669922	725.491699	-0.000333
559.344604	732.773438	22992.009766	731.138733	-0.007344
559.689331	728.166687	22954.117188	727.052063	-0.005015
560.033997	730.990173	22914.515625	728.092468	-0.013062
560.378723	726.086182	22889.398438	730.915955	0.021792
560.723389	729.652771	22884.791016	739.014893	0.042257
561.067932	728.538147	22913.250000	740.649597	0.054594
561.412476	726.754883	22924.765625	732.624817	0.026444
561.757019	723.411316	22907.974609	730.915833	0.033828
562.101501	722.371094	22913.173828	730.693054	0.037502
562.445862	727.423645	22878.328125	733.367859	0.026835
562.790222	730.990173	22912.728516	736.265625	0.023783
563.134644	734.185242	22876.541016	741.541199	0.033221
563.478943	734.333801	22882.115234	741.169617	0.030865
563.823181	734.408142	22818.810547	739.089172	0.021196
564.167358	729.206848	22833.150391	729.727051	0.002353
564.511536	729.875549	22865.619141	730.098572	0.001008
564.855774	732.030457	22934.130859	734.853943	0.012717
565.199768	739.237793	23083.921875	739.089172	-0.000665
565.543823	734.631042	23260.021484	742.952942	0.036945
565.887817	726.383484	23494.000000	731.213074	0.021213
566.231812	723.931396	23678.865234	735.522644	0.050496
566.575745	726.457703	23835.939453	731.956116	0.023793
566.919617	734.631042	24013.599609	746.742371	0.052027
567.263428	735.076843	24126.017578	748.154114	0.055907
567.607239	732.030457	24263.626953	748.376953	0.069466
567.950989	730.321472	24274.921875	744.141663	0.058698
568.294678	728.463867	24284.953125	737.677429	0.039113
568.638367	726.457703	24144.593750	738.717590	0.052352
568.981995	723.262695	23982.615234	733.962341	0.046001
569.325623	727.720886	23786.900391	741.021057	0.057678
569.669128	733.887939	23668.091797	736.562805	0.011663
570.012573	735.299744	23590.146484	734.036560	-0.005527
570.356140	730.841492	23560.130859	727.943665	-0.012693
570.699524	723.931335	23540.365234	736.117004	0.053407
571.042908	722.148132	23603.076172	740.278015	0.079236
571.386230	719.398926	23715.048828	740.055176	0.089827
571.729492	721.182190	23881.787109	739.014893	0.076996
572.072815	722.222473	24035.517578	735.522644	0.057050
572.416016	724.748718	24171.640625	742.358459	0.075105
572.759094	728.612488	24336.146484	741.912659	0.056339
573.102234	735.299744	24435.193359	747.113831	0.049849
573.445374	729.801270	24471.304688	744.067444	0.060090
573.788391	719.696106	24429.623047	742.061218	0.094328
574.131409	717.392822	24391.429688	742.061279	0.104200
574.474365	727.869446	24327.453125	744.290344	0.069581
574.817261	739.534973	24198.537109	746.890930	0.031357
575.160156	739.163391	24027.568359	742.655762	0.014996
575.502930	742.061279	23806.146484	732.179016	-0.042847
575.845703	741.763977	23596.240234	722.519714	-0.084203
576.188477	739.906494	23350.076172	719.844727	-0.088729
576.531250	731.213074	23117.435547	725.640381	-0.024893
576.873901	733.739319	22818.068359	728.389587	-0.024224
577.216431	733.813721	22542.703125	730.321472	-0.016013
577.559082	742.432800	22225.728516	731.881836	-0.049112
577.901611	736.117004	21909.421875	738.494812	0.011230
578.244080	733.144958	21581.373047	735.076843	0.009266
578.586487	730.767273	21248.423828	732.030457	0.006157
578.928955	757.739197	20926.990234	760.042480	0.011420
579.271301	760.042542	20605.185547	766.804016	0.034071
579.613647	758.556458	20298.759766	766.581238	0.041068
579.955872	732.179016	20011.580078	738.494812	0.032759
580.298157	737.231628	19731.830078	742.432800	0.027382
580.640320	736.488525	19518.732422	752.166443	0.083472
580.982483	736.414307	19308.304688	746.519348	0.054410
581.324524	735.671204	19104.046875	740.352295	0.025485
581.666626	735.225403	18930.847656	729.949951	-0.028993
582.008728	734.259460	18824.447266	738.048828	0.020947
582.350647	733.665039	18713.363281	738.271790	0.025622
582.692566	739.014893	18645.748047	743.918884	0.027386
583.034424	734.779602	18529.166016	745.107727	0.058041
583.376343	733.070618	18448.474609	751.423401	0.103598
583.718201	726.754883	18352.474609	755.955872	0.165673
584.059937	737.603088	18278.617188	741.541199	0.022451
584.401611	726.383362	18179.943359	734.333740	0.045552
584.743347	719.919128	18104.080078	727.200684	0.041886
585.085022	710.631165	18026.880859	734.705322	0.139026
585.426514	717.912903	17995.525391	741.615540	0.137187
585.768127	725.417480	17908.515625	737.083008	0.067890
586.109619	729.949951	17854.943359	742.581360	0.073760
586.451172	730.767273	17809.171875	739.980774	0.053948
586.792542	731.287415	17811.328125	742.507080	0.065689
587.133850	731.287415	17779.154297	741.838379	0.061890
587.475220	732.996338	17761.544922	739.237793	0.036653
587.816589	728.835449	17727.439453	740.278015	0.067315
588.157776	735.894226	17751.291016	735.596985	-0.001747
588.498962	734.333801	17796.021484	731.064453	-0.019162
588.840210	729.949890	17842.164063	732.104736	0.012592
589.181335	726.234802	17913.271484	735.894226	0.056202
589.522400	731.287354	17955.251953	735.076843	0.022001
589.863403	744.438965	17990.398438	735.671326	-0.050839
590.204407	745.033386	17984.826172	737.008728	-0.046547
590.545410	740.649597	18016.626953	738.791992	-0.010753
590.886353	730.098450	18041.517578	743.472961	0.077258
591.227112	728.835449	18023.166016	740.352295	0.066593
591.567932	722.965515	17930.437500	741.466797	0.107519
591.908752	727.572266	17795.947266	732.104675	0.026554
592.249512	724.674500	17705.001953	731.287354	0.038944
592.590149	727.349365	17602.462891	731.956055	0.027299
592.930786	723.708557	17576.160156	732.104675	0.049821
593.271423	720.959290	17522.884766	731.361633	0.061912
593.612000	722.816895	17516.273438	731.881836	0.053979
593.952576	720.810730	17507.429688	732.624817	0.070378
594.292969	725.714661	17557.287109	738.940613	0.078578
594.633484	729.875671	17625.794922	736.785828	0.040898
594.973877	734.110840	17683.527344	736.191406	0.012275
595.314209	731.436035	17768.751953	725.343079	-0.035762
595.654480	733.442200	17905.097656	732.773438	-0.003895
595.994812	740.129395	18125.554688	732.996338	-0.041029
596.335022	741.689758	18360.500000	736.860107	-0.027412
596.675171	735.076843	18552.052734	736.711487	0.009175
597.015320	724.080017	18740.333984	742.358459	0.101455
597.355408	721.479431	18862.861328	747.633972	0.144171
597.695496	726.160461	18967.552734	745.479187	0.105906
598.035461	733.367859	18948.009766	747.708252	0.078730
598.375366	736.637207	18895.775391	745.107727	0.046646
598.715271	734.631042	18776.373047	745.404968	0.059717
599.055176	732.179016	18564.089844	744.661926	0.070003
599.395081	728.686768	18293.923828	744.438965	0.089678
599.734802	723.336975	17974.943359	739.906494	0.096046
600.074524	725.120300	17641.173828	733.516418	0.049634
600.414246	728.463867	17280.582031	729.727051	0.007632
600.753906	732.476257	16929.205078	731.064453	-0.008717
601.093506	730.841553	16657.628906	730.990173	0.000933
601.433044	733.070618	16467.193359	732.699219	-0.002360
601.772583	733.442200	16340.057617	732.179016	-0.008094
602.112122	735.299744	16329.731445	740.278015	0.031923
602.451538	739.609314	16396.232422	737.677429	-0.012339
602.790894	742.061218	16547.216797	746.073669	0.025387
603.130310	742.878601	16697.900391	742.432800	-0.002794
603.469604	728.612488	16907.435547	737.454529	0.054652
603.808838	722.222473	17206.281250	730.098633	0.047780
604.148010	722.816895	17506.464844	730.767273	0.047370
604.487305	724.005676	17809.025391	743.101563	0.111770
604.826416	720.736328	17968.775391	746.668030	0.150346
605.165527	718.358704	18147.398438	741.466858	0.132584
605.504456	723.708496	18259.076172	731.287354	0.043220
605.843445	731.287415	18349.576172	724.080017	-0.040909
606.182434	730.841553	18347.943359	720.587708	-0.058204
606.521423	739.832214	18218.953125	727.052063	-0.073117
606.860229	739.832214	18024.578125	740.575195	0.004298
607.199036	736.191406	17760.281250	750.011719	0.081181
607.537903	721.776611	17482.462891	748.154114	0.157377
607.876648	724.080017	17208.435547	737.231628	0.079782
608.215271	730.618652	16934.929688	733.665039	0.018800
608.553955	736.488525	16701.468750	735.448303	-0.006516
608.892578	737.900391	16520.392578	738.866272	0.006120
609.231140	736.860107	16416.740234	740.203674	0.021324
609.569641	735.968506	16367.848633	741.615417	0.036124
609.908081	736.191345	16364.430664	736.711426	0.003328
610.246521	736.711426	16333.520508	731.510254	-0.033348
610.584961	735.745544	16345.780273	723.782776	-0.076635
610.923340	726.309082	16290.500000	726.086182	-0.001432
611.261597	726.829285	16223.627930	729.949951	0.020137
611.599854	725.343079	16078.812500	737.825989	0.081304
611.938110	725.194519	15924.335938	738.420410	0.087017
612.276245	727.423645	15718.592773	747.113770	0.131345
612.614319	731.436035	15442.186523	746.816589	0.104553
612.952393	732.847717	15143.042969	748.599915	0.109313
613.290466	731.510254	14830.227539	741.689758	0.072202
613.628479	732.996338	14544.980469	746.147888	0.095218
613.966370	734.928223	14291.534180	747.485352	0.092627
614.304260	730.172852	14081.332031	740.278015	0.075688
614.642151	732.699036	13899.291992	727.572266	-0.038938
614.979980	737.751709	13755.143555	724.674500	-0.100460
615.317749	735.819824	13616.717773	732.401917	-0.026535
615.655396	725.640381	13542.934570	733.739319	0.063188
615.993164	719.473206	13475.914063	737.603088	0.142123
616.330811	721.405090	13461.870117	739.460693	0.141719
616.668396	730.024231	13450.723633	738.494812	0.066589
617.005859	728.018066	13426.948242	734.705322	0.052660
617.343445	732.773438	13409.858398	734.853943	0.016412
617.680908	731.584656	13398.414063	738.494812	0.054553
618.018311	737.083008	13404.953125	737.603088	0.004106
618.355652	730.395752	13412.532227	731.733215	0.010546
618.692993	730.841553	13403.468750	736.637207	0.045734
619.030273	727.869446	13397.523438	741.763977	0.109668
619.367554	735.225403	13366.835938	744.216003	0.071175
619.704712	730.098572	13345.140625	742.284180	0.096596
620.041870	736.488586	13318.167969	738.197510	0.013583
620.379028	727.943665	13294.836914	735.374023	0.059126
620.716064	729.355530	13211.692383	735.076843	0.045835
621.053040	727.646484	13129.514648	731.807434	0.033551
621.389954	730.544373	13046.815430	726.086182	-0.036198
621.726929	728.463867	13008.028320	725.566101	-0.023598
622.063843	726.754944	12960.995117	719.473328	-0.059518
622.400635	728.018066	12918.344727	726.829285	-0.009752
622.737427	731.807434	12891.225586	726.234802	-0.045830
623.074219	730.841614	12842.184570	732.922058	0.017178
623.410889	725.268860	12796.414063	738.643372	0.110797
623.747559	722.891174	12763.499023	734.408142	0.095651
624.084167	722.148193	12758.446289	732.179016	0.083338
624.420715	728.018127	12753.691406	730.321472	0.019154
624.757324	728.463928	12795.003906	733.739441	0.043720
625.093750	723.857178	12858.679688	733.219238	0.077150
625.430176	724.080078	12948.585938	727.869446	0.030998
625.766602	723.559875	12954.976563	724.748718	0.009720
626.102905	728.315247	13048.078125	732.104736	0.030759
626.439209	724.897400	13151.359375	737.454407	0.101051
626.775452	730.098572	13300.781250	739.163391	0.072111
627.111694	724.748718	13395.815430	741.615479	0.133112
627.447876	728.612488	13459.046875	741.615479	0.102141
627.783997	723.262634	13497.386719	747.411133	0.189042
628.120056	725.194519	13500.210938	741.243958	0.125631
628.456055	728.092285	13484.234375	744.216064	0.126400
628.792053	729.504089	13452.210938	740.055115	0.082931
629.128052	729.355469	13362.601563	744.438965	0.119395
629.463928	726.977783	13255.382813	735.002502	0.064052
629.799744	721.256531	13158.566406	730.990173	0.078262
630.135559	728.538147	13049.563477	728.686829	0.001207
630.471375	722.222412	12917.007813	732.179016	0.081646
630.807068	728.984070	12716.390625	739.014893	0.083678
631.142700	724.897400	12557.976563	737.974609	0.110514
631.478333	732.104736	12436.714844	730.692932	-0.012062
631.813965	733.144958	12352.604492	724.971680	-0.070341
632.149475	730.767273	12258.461914	725.045959	-0.049631
632.484924	727.572266	12162.538086	730.321472	0.024042
632.820435	725.789001	12097.002930	740.203674	0.126765
633.155884	733.144958	12037.635742	734.853821	0.015117
633.491150	734.185120	11973.734375	737.528809	0.029749
633.826477	729.206970	11883.531250	728.909668	-0.002665
634.161804	726.829285	11835.531250	739.534973	0.114376
634.497009	727.572266	11807.742188	732.476257	0.044259
634.832153	733.367859	11752.907227	733.442200	0.000675
635.167297	731.881836	11667.237305	729.652649	-0.020385
635.502380	731.064453	11547.312500	740.278015	0.085183
635.837463	732.624817	11477.020508	744.364685	0.109265
636.172424	729.355469	11372.848633	742.061279	0.119376
636.507324	734.556702	11310.062500	739.312073	0.044966
636.842224	733.070618	11234.051758	736.637207	0.033964
637.177124	731.361633	11131.735352	739.609314	0.079302
637.511963	725.566101	10999.105469	736.265625	0.104146
637.846741	725.714661	10853.918945	739.757874	0.138655
638.181396	728.835449	10736.519531	735.374023	0.065336
638.516113	722.148132	10631.009766	739.609314	0.176218
638.850769	714.866516	10539.618164	738.643372	0.242010
639.185303	713.900574	10451.867188	741.764099	0.286133
639.519836	718.730225	10367.385742	737.083008	0.190211
639.854370	729.652649	10243.670898	732.179016	0.026554
640.188843	737.900330	10157.924805	737.677429	-0.002366
640.523254	741.243958	10083.696289	740.278015	-0.010339
640.857605	740.352356	10023.510742	749.937317	0.103251
641.191895	736.934387	9956.563477	742.952942	0.065280
641.526184	733.813660	9878.844727	743.324402	0.103999
641.860413	734.036621	9809.371094	731.584656	-0.027018
642.194580	730.692932	9764.567383	728.984070	-0.018916
642.528748	737.157227	9704.901367	725.417480	-0.130911
642.862793	737.008606	9670.127930	730.172852	-0.076521
643.196838	743.398682	9619.454102	738.197449	-0.058598
643.530823	733.590759	9581.114258	743.324402	0.110015
643.864746	733.219299	9538.091797	748.451355	0.172996
644.198669	725.268860	9492.990234	744.884766	0.223729
644.532532	727.423645	9454.128906	740.723816	0.152408
644.866333	726.457703	9422.922852	732.327637	0.067498
645.200073	721.553711	9384.209961	730.395813	0.102071
645.533813	720.959290	9344.086914	726.903564	0.068934
645.867554	713.454773	9329.449219	730.247131	0.194898
646.201172	718.210144	9315.406250	728.018066	0.114083
646.534729	723.188416	9320.235352	733.516541	0.120136
646.868225	722.742615	9323.430664	729.875671	0.082936
647.201782	730.618652	9337.028320	737.157227	0.075973
647.535217	726.234802	9330.564453	733.665039	0.086355
647.868591	727.275085	9321.796875	736.265625	0.104608
648.201965	727.052063	9303.666992	731.436035	0.051115
648.535278	726.903564	9323.952148	731.658936	0.055314
648.868591	726.383362	9308.125000	732.179016	0.067535
649.201782	723.336914	9288.434570	733.665039	0.120584
649.534912	730.470032	9247.567383	731.733215	0.014831
649.868103	733.442139	9226.986328	731.881836	-0.018370
650.201172	738.866211	9209.450195	723.708557	-0.178945
650.534180	737.900391	9183.519531	725.120300	-0.151322
650.867188	738.197571	9144.064453	721.033691	-0.204189
651.200134	733.813660	9125.265625	731.658936	-0.025678
651.533020	736.414246	9099.557617	735.894226	-0.006218
651.865845	739.757874	9063.148438	742.581360	0.033922
652.198608	743.695984	9023.173828	734.631042	-0.109487
652.531433	735.448303	8975.842773	730.693054	-0.057707
652.864136	734.333801	8936.314453	724.600159	-0.118674
653.196777	801.057678	8952.661133	846.233704	0.554198
653.529358	804.549988	8916.104492	853.441101	0.602734
653.861938	807.893555	8859.262695	852.252258	0.550946
654.194519	735.225403	8738.075195	736.637207	0.017641
654.526978	731.956116	8675.734375	736.785828	0.060799
654.859375	734.779602	8629.369141	730.321472	-0.056471
655.191833	735.448303	8598.831055	726.309082	-0.116225
655.524170	737.157288	8563.165039	720.662048	-0.210775
655.856445	726.457703	8525.047852	736.562805	0.129576
656.188660	730.172852	8502.237305	739.757996	0.123328
656.520874	734.631042	8484.329102	735.448425	0.010547
656.853088	738.866211	8477.866211	728.018066	-0.140175
657.185181	735.745544	8459.809570	727.869446	-0.101968
657.517212	736.042786	8477.197266	737.008606	0.012476
657.849243	741.838379	8509.519531	738.569092	-0.042088
658.181274	735.448425	8573.346680	736.934326	0.018958
658.513123	733.293518	8623.945313	728.909668	-0.055558
658.844971	726.532043	8716.081055	730.618652	0.051149
659.176819	735.522644	8779.014648	734.705322	-0.010161
659.508667	739.609192	8898.270508	742.061279	0.030055
659.840393	739.832214	8970.641602	743.250061	0.041525
660.172058	732.253235	9042.416992	738.123230	0.070636
660.503662	723.411316	9053.711914	734.853943	0.137362
660.835266	729.949951	9072.288086	733.070618	0.037408
661.166931	735.745605	9020.202148	741.169617	0.065472
661.498413	743.101501	8967.670898	739.460693	-0.044267
661.829773	738.494690	8860.452148	735.596985	-0.035677
662.161194	733.070618	8738.000977	728.241028	-0.060333
662.492615	731.213074	8572.454102	727.052063	-0.053066
662.823975	729.652771	8420.504883	731.213074	0.020288
663.155212	734.853943	8300.356445	733.962219	-0.011787
663.486450	733.962341	8177.088379	737.974609	0.053906
663.817627	747.336731	8043.714844	740.946777	-0.087577
664.148743	746.073547	7901.574219	736.711426	-0.130838
664.479858	744.290344	7786.404785	738.494690	-0.082300
664.810913	731.510254	7697.910156	729.726990	-0.025598
665.141907	733.888000	7643.298340	728.092346	-0.083881
665.472778	739.460754	7584.450684	729.206848	-0.149802
665.803711	743.770264	7556.587402	737.974609	-0.085070
666.134583	743.027161	7521.589844	745.627747	0.038365
666.465454	736.339905	7489.417480	742.284180	0.088023
666.796143	738.048889	7441.120605	730.692932	-0.109740
667.126831	735.299622	7408.724609	728.835449	-0.096864
667.457458	735.894104	7403.077637	729.206848	-0.100301
667.788147	736.191345	7386.804688	740.055115	0.058096
668.118774	737.305908	7347.424316	736.191345	-0.016861
668.449219	740.352295	7323.870605	734.556641	-0.088033
668.779663	730.024231	7317.554688	727.274963	-0.041734
669.110107	724.377258	7317.777832	724.600098	0.003380
669.440552	719.324646	7316.514160	719.844727	0.007883
669.770874	722.816895	7304.700684	721.479431	-0.020320
670.101135	729.058350	7302.619629	726.606262	-0.037302
670.431396	724.005676	7261.529785	733.219238	0.140934
670.761597	722.371094	7201.048340	738.643372	0.251167
671.091797	719.919128	7122.955566	741.392578	0.335364
671.421875	730.990173	7095.166504	732.624817	0.025685
671.751892	739.014832	7073.024902	721.999512	-0.268634
672.081909	734.259460	7060.541504	717.987122	-0.257218
672.411865	730.247131	7014.994629	726.754883	-0.055567
672.741821	722.073914	6956.072266	729.949951	0.126340
673.071716	732.773438	6935.490234	728.612549	-0.067082
673.401550	733.516418	6879.540527	726.457703	-0.114850
673.731262	737.305847	6859.923828	730.990173	-0.103153
674.060974	728.983948	6811.775879	736.711487	0.127039
674.390625	731.213074	6788.965332	731.361633	0.002452
674.720276	732.030334	6741.337891	735.448425	0.056880
675.049927	737.305969	6688.879395	740.575195	0.054930
675.379395	731.956116	6656.929688	750.011719	0.304737
675.708923	731.138733	6616.954590	744.810486	0.232283
676.038330	725.194519	6568.731934	737.454529	0.209805
676.367737	726.531921	6512.484863	734.259521	0.133558
676.697083	719.473206	6492.869141	735.745544	0.281850
677.026428	720.364807	6489.822266	738.791992	0.319392
677.355652	720.364929	6499.853027	733.516418	0.227555
677.684875	731.584656	6512.930176	727.052063	-0.078400
678.013977	743.101501	6513.525391	724.302917	-0.325775
678.343079	744.364685	6494.355469	725.863281	-0.321764
678.672180	735.596924	6493.314941	732.624817	-0.051620
679.001221	725.937561	6530.466309	729.355530	0.058885
679.330139	725.268860	6598.750000	734.705383	0.160663
679.659058	728.463867	6636.570313	734.631042	0.104385
679.987976	730.618652	6681.374512	737.083008	0.108631
680.316772	732.922058	6713.027344	743.250183	0.172708
680.645630	731.064453	6768.383301	735.448425	0.072615
680.974304	728.686829	6795.207031	732.624817	0.064913
681.302979	731.064453	6815.565918	726.011902	-0.083040
681.631653	735.894226	6815.342285	733.887939	-0.033001
681.960266	737.157288	6840.457031	735.225403	-0.031653
682.288757	731.584534	6848.704590	732.179016	0.009718
682.617249	728.463867	6854.054199	729.727051	0.020621
682.945679	730.247070	6808.804199	730.172852	-0.001221
683.274109	732.922058	6760.433594	731.584656	-0.022188
683.602478	732.550537	6696.606934	732.179016	-0.006229
683.930725	731.361755	6617.251465	726.160461	-0.088369
684.259033	730.098572	6548.596191	715.683838	-0.247740
684.587280	728.463867	6458.095215	717.021301	-0.199709
684.915344	733.516418	6406.603516	723.188416	-0.182053
685.243469	735.151123	6333.786621	732.847839	-0.041140
685.571533	737.454590	6271.669922	731.956055	-0.099355
685.899536	730.024231	6205.094238	735.894104	0.107211
686.227539	730.470032	6146.915527	741.243958	0.198911
686.555420	730.990173	6131.237793	743.324402	0.228401
686.883301	731.881775	6119.126465	741.987000	0.187577
687.211121	730.841553	6120.761230	738.717590	0.146125
687.538940	732.699158	6127.521973	737.528809	0.089524
687.866638	733.516418	6142.828613	735.002625	0.027475
688.194336	732.922058	6157.688965	737.305908	0.080812
688.521973	733.813660	6135.026855	737.528809	0.068784
688.849609	730.321472	6101.962402	735.002441	0.087142
689.177063	729.429871	6056.117188	736.711426	0.136699
689.504578	728.315247	5996.898438	740.575195	0.232699
689.832031	730.692932	5942.730957	743.621643	0.248055
690.159485	734.110840	5860.924316	738.271790	0.081161
690.486816	728.983948	5797.692871	734.853821	0.115806
690.814087	729.875671	5715.811035	732.922058	0.061100
691.141296	729.281250	5646.115234	737.825989	0.173785
691.468506	730.692871	5569.138184	735.745544	0.104428
691.795715	731.287354	5477.150879	739.163513	0.165958
692.122803	723.188293	5426.401855	736.117004	0.274891
692.449829	724.302917	5351.579590	741.169678	0.364507
692.776855	727.126404	5293.325684	739.163391	0.263611
693.103821	731.956116	5222.218262	733.144958	0.026476
693.430664	730.321472	5187.519043	728.463867	-0.041677
693.757568	715.758118	5141.524902	731.510254	0.355919
694.084351	718.433044	5102.367676	730.024231	0.264401
694.411133	715.832336	5063.507324	727.795166	0.275155
694.737854	733.442139	5029.922363	726.457703	-0.162562
695.064575	732.030334	5000.647461	730.544373	-0.034811
695.391174	740.798096	4969.588867	726.606384	-0.335597
695.717773	731.436035	4964.684570	720.662109	-0.254507
696.044250	732.624817	4979.173828	722.519714	-0.237960
696.370789	727.646545	4996.263184	730.172852	0.059183
696.697205	724.897278	5021.006348	737.603088	0.295752
697.023621	723.411194	5030.071289	734.631042	0.260523
697.349915	720.513428	5075.098633	732.030457	0.264481
697.676208	726.606262	5149.698730	730.172852	0.080636
698.002380	725.789001	5251.270996	731.807434	0.132990
698.328674	726.680603	5366.588379	733.962219	0.156934
698.654724	729.355469	5492.976563	729.429871	0.001562
698.980896	728.018066	5590.982422	730.321472	0.047366
699.306946	736.562927	5662.461426	729.652771	-0.140282
699.632935	728.761047	5681.037598	730.098572	0.027008
699.958862	728.315247	5703.253906	736.414246	0.162796
700.284729	717.838623	5687.427734	730.321472	0.251185
700.610596	721.702332	5653.174316	728.315247	0.134096
700.936340	725.640381	5583.701172	721.925293	-0.076473
701.262146	728.835449	5480.568848	725.045898	-0.079751
701.587830	733.442139	5373.721191	728.761047	-0.100880
701.913513	738.420410	5235.221191	735.076843	-0.074354
702.239075	737.083008	5101.327148	739.014893	0.044266
702.564697	728.092346	4960.449707	742.432800	0.338829
702.890137	722.816895	4831.608887	735.374023	0.305616
703.215698	727.423645	4738.433105	733.665039	0.155607
703.541016	738.643372	4636.043945	727.720886	-0.280251
703.866455	736.488586	4559.363281	724.823059	-0.305151
704.191711	744.884766	4485.283691	723.039795	-0.584028
704.517029	735.596924	4415.959473	725.937683	-0.262453
704.842163	739.683594	4380.442871	729.058289	-0.291843
705.167419	728.315247	4325.756348	729.949951	0.045441
705.492493	736.340027	4305.471680	735.151123	-0.033311
705.817566	734.333801	4259.775391	738.866272	0.128565
706.142578	735.151123	4238.301758	740.129395	0.142108
706.467590	734.631042	4205.607910	741.318176	0.192659
706.792480	735.151062	4190.079590	738.940491	0.109682
707.117371	742.729980	4191.268066	744.364685	0.047403
707.442200	733.219238	4205.683105	743.993103	0.310266
707.766907	734.185242	4216.456543	737.751709	0.102418
708.091675	731.807617	4216.085449	731.733215	-0.002135
708.416321	736.562927	4211.032715	724.154297	-0.357137
708.741028	732.476257	4218.462891	727.423645	-0.144941
709.065552	729.206970	4241.348145	726.680603	-0.071932
709.390137	733.144958	4273.818359	728.166687	-0.140602
709.714600	734.631042	4283.106445	727.646545	-0.196831
710.039063	735.596924	4304.728516	729.801331	-0.162381
710.363403	729.058289	4325.384277	736.265625	0.200408
710.687744	725.937561	4378.956543	736.711426	0.294930
711.012085	721.256531	4427.847656	730.618652	0.252580
711.336304	723.931396	4490.931152	723.634216	-0.007889
711.660461	724.897278	4521.320801	727.795105	0.076330
711.984619	726.754883	4523.104004	736.488525	0.256395
712.308716	727.795105	4500.664551	736.265686	0.224513
712.632751	731.064453	4487.661621	736.860046	0.154278
712.956726	733.739441	4452.293457	732.476257	-0.033970
713.280701	739.312073	4410.089355	730.990173	-0.226707
713.604553	737.528809	4348.046387	729.504089	-0.222260
713.928467	730.172852	4312.009766	727.423645	-0.076754
714.252258	722.816895	4271.960449	727.423645	0.129799
714.575989	720.959290	4228.419434	728.463928	0.213962
714.899719	727.126465	4174.921387	735.596985	0.245679
715.223267	730.024231	4140.519043	742.729980	0.372549
715.546936	734.705322	4120.234863	743.993164	0.274339
715.870422	735.968445	4105.745605	741.169617	0.154348
716.193970	735.002502	4083.751953	734.631042	-0.011092
716.517395	738.271790	4048.383789	732.253357	-0.181820
716.840820	735.968445	4015.616211	730.395813	-0.169916
717.164124	741.243958	3964.198486	735.968445	-0.163686
717.487488	738.346191	3932.322998	734.408020	-0.123300
717.810730	744.810486	3903.641846	732.253235	-0.397528
718.133972	735.522644	3874.738281	730.172852	-0.170418
718.457092	730.915833	3830.304932	727.943787	-0.095891
718.780212	724.377197	3763.061279	726.829163	0.080692
719.103210	728.538147	3703.990479	723.411316	-0.172304
719.426208	732.550537	3652.795898	724.302917	-0.282429
719.749207	732.401917	3608.660156	729.132568	-0.113667
720.072083	726.754944	3566.456299	729.727051	0.104663
720.394958	724.600159	3530.716797	735.151123	0.375999
720.717773	723.411316	3480.710938	734.853943	0.414994
721.040527	726.457703	3445.120117	730.024231	0.131187
721.363281	729.058289	3402.618408	728.463867	-0.022233
721.685913	734.259521	3378.544189	730.692932	-0.134879
722.008545	745.033447	3355.882568	735.745544	-0.355743
722.331055	740.129456	3315.535889	733.442139	-0.259661
722.653503	737.677490	3297.628906	724.525879	-0.513745
722.976013	726.011963	3269.616943	720.290710	-0.224927
723.298401	726.457703	3283.214111	715.981018	-0.409765
723.620789	725.863281	3269.022461	730.767273	0.192831
723.943115	724.080078	3260.923828	738.940613	0.585788
724.265381	723.114075	3234.694580	745.181946	0.878645
724.587585	720.216309	3229.493408	734.110840	0.553726
724.909790	727.869446	3236.998047	731.138733	0.130296
725.231873	734.259460	3247.251953	725.937561	-0.331155
725.553894	743.250183	3262.707031	732.401855	-0.430582
725.875916	778.766846	3315.907471	775.720398	-0.120074
726.197937	782.110413	3316.650391	782.184753	0.002933
726.519775	777.503662	3319.696533	778.098145	0.023385
726.841675	741.243958	3276.155518	741.169678	-0.002930
727.163513	741.095398	3287.449463	733.442200	-0.300555
727.485291	733.367859	3302.012939	729.949951	-0.133063
727.806946	726.829285	3330.916748	718.804504	-0.308161
728.128662	723.336975	3367.324951	726.829163	0.132080
728.450256	724.971680	3376.984131	727.572205	0.098059
728.771790	725.417480	3388.278564	736.711426	0.424128
729.093323	724.600159	3395.114258	739.683533	0.564812
729.414795	726.903564	3407.522705	740.426575	0.504473
729.736145	731.956116	3391.027588	733.739441	0.067066
730.057495	729.058350	3375.052002	728.092346	-0.036508
730.378845	728.538269	3375.275146	727.795105	-0.028079
730.700134	726.309082	3377.132813	731.213074	0.184999
731.021301	723.559875	3386.272217	731.881836	0.312537
731.342468	729.206848	3382.557373	736.414246	0.271634
731.663574	729.652649	3399.200928	733.367859	0.139170
731.984680	731.510254	3401.355713	730.618652	-0.033395
732.305664	725.566101	3421.937500	728.240967	0.099202
732.626648	723.114075	3427.584717	735.448425	0.456073
732.947571	724.302917	3430.482422	732.699036	0.310257
733.268433	725.343201	3418.222412	732.179016	0.253848
733.589233	723.708496	3403.510498	722.742493	-0.036048
733.909973	720.587830	3392.067627	724.525879	0.147411
734.230713	722.593933	3364.947266	728.686768	0.230584
734.551331	727.497864	3326.607422	728.909729	0.054321
734.871948	732.327637	3286.037842	727.572266	-0.186214
735.192505	732.179016	3237.369873	717.318420	-0.593192
735.513062	731.510315	3201.258545	720.587708	-0.442256
735.833435	732.550537	3148.206299	719.993347	-0.519825
736.153931	731.361755	3111.203369	729.206848	-0.090548
736.474304	728.092346	3060.305908	731.435974	0.143367
736.794617	716.278259	3017.804932	729.206848	0.561740
737.114807	716.946960	2986.597656	719.101746	0.094939
737.434998	726.234802	2989.421143	708.030579	-0.804363
737.755188	739.906494	3001.904297	718.210144	-0.959168
738.075256	737.157288	3006.585205	721.330811	-0.697377
738.395325	735.225403	3008.219727	728.612488	-0.290934
738.715271	731.138733	3026.795898	725.120300	-0.262166
739.035278	729.727051	3055.922607	735.299744	0.239563
739.355164	728.315247	3078.287354	737.900330	0.407881
739.675049	725.417480	3079.327393	740.649475	0.647093
739.994873	734.631042	3077.916016	736.042725	0.060244
740.314636	733.219238	3065.135986	736.191345	0.127453
740.634277	732.178955	3046.931641	737.603027	0.234326
740.953979	729.652649	3016.913330	735.596985	0.259889
741.273499	721.182190	2984.888672	738.494812	0.764791
741.593140	720.587830	2941.644775	735.299744	0.662383
741.912598	723.262695	2904.939209	735.076843	0.541517
742.232117	726.457703	2861.100586	730.915833	0.208847
742.551453	738.866211	2839.850342	731.213074	-0.364264
742.870850	731.807434	2821.199951	733.887939	0.099575
743.190063	744.141785	2797.125977	727.572266	-0.807094
743.509338	741.169617	2759.305908	725.343201	-0.784209
743.828552	747.856934	2713.312256	725.120300	-1.156813
744.147705	730.767273	2698.006104	728.166687	-0.132195
744.466797	726.680664	2672.594482	729.578430	0.148915
744.785828	727.572266	2651.269775	725.714661	-0.096564
745.104858	731.361633	2620.582764	729.578430	-0.094388
745.423706	731.287415	2606.316650	732.996338	0.091141
745.742615	728.018066	2599.034912	743.621643	0.833962
746.061401	737.454529	2585.511963	745.033386	0.410099
746.380249	736.414307	2584.620361	740.203674	0.205030
746.698975	736.265625	2578.750244	727.423645	-0.479894
747.017639	737.677429	2571.245850	727.720886	-0.543015
747.336304	738.643372	2564.409912	728.686768	-0.545338
747.654907	744.884827	2549.177979	738.123230	-0.374750
747.973389	743.398743	2549.103760	737.825989	-0.308619
748.291931	735.448425	2540.113037	738.123230	0.148216
748.610352	731.658936	2549.549072	729.949951	-0.094009
748.928711	727.423645	2554.155762	729.949951	0.138296
749.247070	733.293518	2560.843262	723.857117	-0.516342
749.565308	724.302917	2562.329346	727.497986	0.173831
749.883545	729.206848	2551.852783	726.457703	-0.150833
750.201782	726.086182	2543.976563	736.860046	0.592658
750.519836	728.612488	2530.750732	733.739441	0.284493
750.837952	727.943787	2518.639404	736.340027	0.468881
751.155884	729.355530	2506.156494	728.909668	-0.025094
751.473877	730.470032	2492.410645	730.618652	0.008435
751.791809	731.287415	2487.803711	724.228699	-0.401859
752.109619	732.253357	2479.333252	722.073914	-0.582655
752.427490	728.612488	2463.358154	727.795166	-0.047115
752.745300	727.349304	2453.104248	726.160461	-0.068888
753.062988	726.160461	2453.921631	734.631042	0.490263
753.380615	730.767273	2458.082764	729.727051	-0.060222
753.698303	729.949890	2453.847412	735.745544	0.336195
754.015808	735.894104	2434.528564	732.699158	-0.188089
754.333374	738.643372	2423.606201	729.801453	-0.524755
754.650757	736.414246	2414.689697	737.454590	0.061989
754.968262	735.968445	2426.652588	736.265686	0.017581
755.285583	727.943787	2426.875244	739.683594	0.691011
755.602905	725.491760	2424.720947	731.138855	0.332333
755.920105	720.439209	2411.940674	733.516418	0.773113
756.237305	727.423645	2412.832275	732.922058	0.326236
756.554443	727.349304	2395.742676	725.120300	-0.133602
756.871582	733.888000	2382.293945	723.782776	-0.613030
757.188599	737.825989	2368.473633	723.708496	-0.865760
757.505615	740.500916	2394.405273	725.417480	-0.911990
757.822510	739.460693	2415.656006	725.937561	-0.806775
758.139465	735.819824	2439.061035	730.321350	-0.322824
758.456238	738.643311	2438.243652	740.500916	0.109297
758.773010	735.151123	2450.801025	740.500916	0.311823
759.089783	732.253357	2455.927979	734.705261	0.142249
759.406433	730.395752	2475.097900	731.064453	0.038328
759.723145	733.293640	2480.001953	723.634216	-0.553007
760.039673	731.287415	2491.593018	721.033508	-0.582507
760.356201	732.624817	2484.534424	727.200684	-0.309613
760.672668	735.002502	2485.797607	734.408142	-0.033948
760.989136	735.596924	2488.323975	739.980774	0.250116
761.305481	731.733154	2497.686279	728.463867	-0.185129
761.621826	728.092285	2497.611572	724.005676	-0.230945
761.938049	734.259460	2508.905762	725.417480	-0.498239
762.254333	733.145020	2542.564697	732.476257	-0.036960
762.570496	735.299744	2598.960449	739.237793	0.211307
762.886597	730.024231	2685.671631	732.847717	0.144376
763.202637	736.860046	2799.652100	737.974609	0.054032
763.518677	732.401917	2957.470947	743.621643	0.504242
763.834656	730.024231	3104.144531	748.154114	0.763646
764.150574	725.863281	3232.911377	739.312012	0.536437
764.466370	726.680603	3284.031494	728.686768	0.078447
764.782288	731.138733	3293.988281	730.470032	-0.026092
765.097961	735.522644	3266.793213	732.922058	-0.102738
765.413696	734.259521	3210.546631	739.014893	0.192036
765.729309	733.813721	3132.156982	735.968445	0.089842
766.044861	733.590820	3014.015625	740.649597	0.309538
766.360474	734.482422	2877.967041	734.110901	-0.017333
766.675903	734.482422	2734.563232	730.915833	-0.178322
766.991394	723.708496	2618.650879	725.194580	0.078424
767.306763	727.200684	2533.053955	722.148132	-0.279787
767.622131	727.720886	2467.147705	721.553711	-0.354552
767.937378	736.339905	2402.578369	725.937561	-0.624301
768.252625	736.711426	2339.718262	733.739319	-0.185408
768.567810	737.528809	2283.322510	740.798096	0.211496
768.882996	733.813660	2235.768799	747.262451	0.895419
769.197998	733.516418	2213.626709	748.154114	0.988960
769.513062	724.674500	2189.032227	742.878601	1.243146
769.828064	727.275085	2166.295898	732.401917	0.356272
770.142944	725.566101	2135.162842	728.166687	0.184491
770.457825	727.274963	2105.516113	723.337097	-0.285717
770.772705	727.795166	2072.228516	725.417480	-0.176854
771.087402	735.225403	2040.724121	722.296814	-0.990318
771.402100	739.163513	2017.616089	729.206848	-0.778806
771.716736	741.689758	2010.185913	721.033630	-1.628395
772.031372	734.631042	1997.628540	729.281250	-0.423579
772.345947	733.813660	1981.727905	732.401855	-0.113133
772.660461	727.869446	1961.591797	735.225403	0.596241
772.974854	731.658875	1954.904663	733.293457	0.133627
773.289246	734.110901	1947.697266	729.058289	-0.416337
773.603638	735.671204	1937.146118	732.030457	-0.303023
773.917908	731.361633	1926.520874	723.559875	-0.652780
774.232178	739.163513	1913.369263	727.869446	-0.961847
774.546265	732.030457	1903.189819	733.516418	0.126880
774.860474	729.429749	1874.286011	735.596863	0.538680
775.174561	723.262695	1857.939453	729.058289	0.510770
775.488586	724.600098	1841.369995	727.349304	0.246175
775.802551	726.977844	1834.905640	735.076843	0.731004
776.116516	723.188416	1828.515625	734.705261	1.041940
776.430359	728.835388	1817.295898	732.996338	0.382278
776.744202	732.773438	1811.277344	729.801331	-0.275577
777.057922	735.819824	1804.292969	728.092346	-0.723226
777.371704	738.048889	1801.618164	723.782898	-1.341332
777.685303	725.194519	1788.540649	727.795166	0.244572
777.998962	722.445374	1781.407715	729.132629	0.631491
778.312500	723.114075	1785.568726	732.327637	0.867196
778.626038	733.887939	1793.741821	729.652771	-0.399599
778.939453	731.881775	1786.311890	735.076843	0.303014
779.252869	730.024231	1766.473022	735.151123	0.494659
779.566223	723.336914	1767.810547	730.544373	0.690057
779.879578	726.606262	1774.869141	729.504089	0.276441
780.192749	724.377258	1777.915527	718.878906	-0.521894
780.505920	729.950012	1768.553345	717.095520	-1.237671
780.819031	729.429871	1760.602905	716.129639	-1.289816
781.132141	728.389465	1753.766968	730.098450	0.166669
781.445190	725.566101	1736.306030	727.943665	0.235230
781.758118	722.965515	1725.829468	729.355469	0.637171
782.071045	724.971680	1720.999634	724.971680	0.000000
782.383911	720.959290	1714.683960	733.293518	1.241212
782.696838	727.943787	1703.538452	725.566101	-0.243717
783.009583	735.076843	1694.399292	720.662048	-1.502602
783.322266	740.278015	1682.362183	724.600098	-1.664174
783.634888	737.825989	1662.969116	730.098572	-0.835267
783.947510	724.154297	1648.182983	736.488586	1.334838
784.260132	724.748718	1638.969360	726.606262	0.203183
784.572571	719.696228	1623.440063	726.309082	0.731718
784.885010	723.336975	1612.963501	730.544250	0.810146
785.197449	722.816833	1603.972778	739.980774	1.947889
785.509766	725.788879	1614.449585	746.222168	2.299335
785.822083	726.977783	1607.910767	743.175781	1.838732
786.134277	728.389587	1607.093628	740.946777	1.429058
786.446533	733.070618	1595.205078	739.609314	0.758431
786.758606	732.476257	1590.301147	733.665039	0.138581
787.070740	730.618652	1594.313477	727.200684	-0.395738
787.382690	730.618652	1614.598022	731.510254	0.100862
787.694641	737.231628	1635.700073	740.500916	0.363873
788.006653	743.101563	1661.706055	738.271790	-0.525773
788.318481	742.209961	1675.377808	734.928223	-0.780325
788.630310	735.151123	1701.309448	724.080017	-1.145889
788.942017	733.219238	1717.433105	726.606262	-0.671904
789.253784	731.584534	1740.838501	722.593933	-0.890816
789.565430	736.414246	1741.284302	730.544250	-0.584155
789.877014	732.179016	1727.612671	732.179016	0.000000
790.188538	730.024231	1703.389771	729.801270	-0.022906
790.500061	723.857117	1678.498413	728.761047	0.513694
790.811462	721.850891	1662.820679	731.733215	1.050228
791.122925	720.587708	1641.049805	741.763977	2.300613
791.434204	723.634216	1619.873535	746.370789	2.536886
791.745483	730.172852	1605.235962	743.547302	1.528398
792.056702	733.293518	1584.282593	739.609192	0.742157
792.367920	737.677429	1574.400391	730.618591	-0.843629
792.678955	732.773438	1548.171509	735.225403	0.300708
792.990112	731.436035	1549.731812	730.247131	-0.145290
793.301086	727.720886	1539.403809	730.024170	0.283766
793.612122	730.915955	1535.540039	724.154297	-0.840350
793.922974	731.287415	1523.280151	724.748779	-0.825593
794.233826	730.247070	1511.911743	732.253418	0.256676
794.544556	729.652649	1507.305054	730.395813	0.095565
794.855286	727.720886	1504.333008	727.275085	-0.057403
795.166016	731.287415	1510.871582	723.188293	-1.038903
795.476624	731.807556	1526.252319	729.578369	-0.280597
795.787292	734.631042	1536.060181	733.962219	-0.083454
796.097778	726.829163	1553.744263	728.463867	0.197687
796.408264	725.194519	1558.202515	727.349304	0.258675
796.718689	719.324707	1561.694702	728.686829	1.111403
797.029053	731.064514	1553.521118	734.036621	0.361369
797.339355	734.036621	1551.515137	731.881836	-0.263589
797.649658	740.129456	1558.796875	731.807556	-1.016518
797.959839	732.476257	1556.047485	728.389587	-0.496213
798.270020	732.178955	1550.400757	728.612488	-0.435880
798.580078	735.894104	1535.317017	732.401855	-0.436846
798.890137	735.968445	1532.345093	731.213074	-0.597126
799.200195	725.789001	1520.753784	733.813660	1.009436
799.510071	725.566101	1501.955200	726.234863	0.086138
799.820007	720.439209	1484.494141	732.847839	1.624050
800.129883	729.652771	1479.367065	721.925293	-1.030723
800.439575	716.946960	1469.113403	726.680664	1.294089
800.749329	723.114075	1458.562378	721.627991	-0.202065
801.058960	722.296692	1449.794556	730.321472	1.103066
801.368591	729.132629	1452.246704	728.686829	-0.061650
801.678162	727.869446	1456.110352	730.395752	0.346905
801.987671	722.445313	1443.553223	734.631042	1.689862
802.297119	721.925293	1422.079712	735.151184	1.888996
802.606506	726.977844	1409.374023	734.853943	1.154183
802.915894	724.005676	1406.253296	723.039795	-0.141573
803.225159	730.321472	1412.940430	719.696106	-1.556559
803.534424	725.417480	1413.609253	721.107910	-0.626216
803.843628	732.401855	1412.048828	731.658875	-0.109319
804.152771	739.609192	1409.671265	731.510254	-1.208685
804.461792	738.346130	1408.407837	728.909668	-1.408298
804.770874	741.169678	1407.813599	726.086182	-2.262602
805.079773	727.423645	1419.182007	717.467041	-1.439318
805.388733	736.860046	1425.274780	713.083191	-3.453856
805.697571	730.470032	1438.129028	709.145203	-3.013433
806.006470	730.767334	1442.141602	713.603333	-2.412795
806.315125	724.971680	1454.847290	718.581604	-0.875502
806.623901	731.733215	1455.293091	726.531982	-0.718839
806.932495	735.374023	1461.683228	730.470032	-0.675193
807.241150	726.011902	1450.091919	733.813660	1.077472
807.549622	725.491760	1441.250000	726.754883	0.176473
807.858154	727.572205	1424.754761	727.572266	0.000009
808.166565	734.779602	1409.968384	719.027405	-2.333006
808.474915	732.624817	1413.832153	719.027405	-1.996075
808.783264	725.640381	1414.203735	721.850891	-0.550347
809.091492	728.240967	1421.262329	723.114075	-0.739788
809.399719	729.801331	1400.234741	721.850891	-1.185866
809.707825	733.145020	1393.918945	723.188293	-1.506828
810.015930	730.321472	1376.086304	728.909668	-0.218625
810.323975	728.315247	1369.101929	726.383362	-0.301486
810.632080	730.915833	1354.464355	723.782898	-1.143926
810.939880	732.253235	1349.783203	729.652771	-0.421107
811.247864	728.315247	1344.061890	736.860046	1.387714
811.555664	722.816833	1336.334473	736.414246	2.216303
811.863464	719.993347	1326.823608	727.200745	1.187712
812.171143	716.426819	1325.932007	725.788879	1.536010
812.478882	718.210144	1319.913574	721.256531	0.506294
812.786438	722.816895	1317.535767	721.627991	-0.199910
813.094055	737.157288	1320.805176	723.931458	-2.266063
813.401489	741.764099	1317.610107	730.172852	-2.012908
813.708984	743.844543	1318.798950	737.008606	-1.188953
814.016357	742.804382	1313.077759	738.643311	-0.729663
814.323730	738.717712	1307.579346	735.374023	-0.587786
814.630981	730.693054	1306.316162	729.875671	-0.142000
814.938232	726.977844	1298.811523	726.383362	-0.103961
815.245361	728.538147	1302.823853	724.154297	-0.763357
815.552490	731.138733	1301.412109	726.011902	-0.899013
815.859619	729.058350	1308.322266	728.315247	-0.128284
816.166565	730.395752	1304.904419	732.401855	0.349186
816.473572	736.191345	1305.127319	735.968445	-0.039178
816.780457	742.952881	1301.412109	735.894104	-1.263974
817.087341	738.791931	1308.916870	737.157288	-0.286717
817.394043	734.259460	1314.712402	736.042786	0.307230
817.700806	728.315247	1325.337646	731.807556	0.584955
818.007507	726.011902	1326.675171	732.699158	1.113312
818.314209	726.680603	1329.052734	731.881836	0.863458
818.620667	725.937561	1338.860718	739.163513	2.157848
818.927246	725.640381	1356.619141	739.312073	2.166744
819.233704	732.327637	1381.139038	739.609375	1.122320
819.540161	731.510254	1404.990234	731.361755	-0.022049
819.846497	729.281189	1458.785278	726.977844	-0.315741
820.152832	730.692932	1510.276978	723.188293	-0.962647
820.458984	735.225403	1570.313843	727.795105	-0.889762
820.765259	736.191345	1639.860962	728.835388	-0.814010
821.071350	727.275085	1732.144897	733.367859	0.606325
821.377502	726.160461	1901.257935	726.234680	0.006316
821.683472	722.222473	2209.242920	727.943665	0.384742
821.989441	721.479431	2762.203857	720.884949	-0.029131
822.295349	722.073914	3515.633057	725.788879	0.132983
822.601196	733.590759	4360.826660	721.999512	-0.319561
822.907043	730.915833	5079.779785	727.497864	-0.078595
823.212769	720.736389	5487.181641	727.349304	0.138739
823.518494	721.033630	5530.574707	726.309082	0.109687
823.824097	719.324646	5268.434082	723.114075	0.083300
824.129700	722.222412	4872.549316	725.268860	0.073403
824.435242	720.439209	4441.668457	728.612488	0.219639
824.740723	725.045959	4063.838867	731.881836	0.204741
825.046082	729.206970	3739.433350	730.841553	0.054301
825.351501	727.795166	3433.231689	730.544373	0.101618
825.656799	725.863281	3123.240479	736.488586	0.443205
825.962036	728.612488	2824.469482	731.807434	0.152441
826.267212	730.321472	2594.056641	738.420410	0.434554
826.572449	733.293640	2475.840820	739.534973	0.358173
826.877502	732.773438	2491.370361	736.117004	0.190127
827.182495	734.482422	2605.722168	735.522644	0.055590
827.487488	737.825989	2756.630859	728.240967	-0.474787
827.792419	737.008606	2870.537109	732.030457	-0.233329
828.097290	735.522644	2899.217773	725.789001	-0.449862
828.402100	737.008606	2829.967529	724.451477	-0.599970
828.706848	742.358459	2685.300293	732.624817	-0.500974
829.011597	736.414246	2495.233887	727.423645	-0.511172
829.316223	725.120300	2328.126953	726.011902	0.055621
829.620789	717.095520	2177.441162	722.445313	0.366337
829.925354	726.606262	2053.950195	727.275085	0.050388
830.229797	725.120178	1919.165039	732.253357	0.597396
830.534302	728.240906	1793.370483	733.962219	0.537147
830.838562	719.473145	1672.479980	735.894104	1.723068
831.142944	722.222412	1570.982422	731.213074	1.059270
831.447144	722.668152	1489.843750	731.138855	1.104141
831.751404	725.640320	1435.751587	734.853943	1.297490
832.055542	732.847717	1400.457642	737.825989	0.745686
832.359619	727.349304	1393.399048	731.733215	0.658196
832.663635	722.965515	1400.383423	723.485596	0.076774
832.967651	716.872559	1439.912476	719.696106	0.390511
833.271545	724.822998	1508.122192	716.798340	-1.024469
833.575439	731.733154	1621.359497	722.891174	-0.993898
833.879211	732.996338	1760.900024	726.234802	-0.657799
834.183044	726.160461	1896.205444	738.494690	1.054167
834.486694	723.114075	1999.486328	731.361633	0.646172
834.790344	732.773438	2028.092773	731.807556	-0.074567
835.093933	742.061279	2003.498535	724.228699	-1.413672
835.397522	744.141785	1932.613892	734.036621	-0.850265
835.700928	738.717590	1853.853027	727.943848	-0.966138
836.004395	735.225403	1773.754517	731.956116	-0.314800
836.307739	732.104736	1708.516724	726.457703	-0.578345
836.611023	729.949951	1646.325317	729.281250	-0.072972
836.914307	723.114075	1574.474609	731.213074	0.951301
837.217529	724.600098	1496.679688	739.014832	1.867001
837.520691	733.219238	1420.519409	742.358459	1.329728
837.823730	737.380188	1356.247559	741.838379	0.720379
838.126831	729.429871	1298.811523	733.293640	0.678590
838.429749	715.832458	1248.211304	726.234802	1.953936
838.732727	714.346375	1214.700806	727.795166	2.687853
839.035522	720.587830	1198.948608	727.349304	1.413468
839.338379	721.999512	1196.050903	734.556641	2.648896
839.641113	724.005676	1200.211792	729.058350	1.061027
839.943848	728.538147	1220.422241	728.018066	-0.105732
840.246460	724.005676	1252.000732	730.470032	1.224321
840.549072	720.439209	1287.071655	728.761169	1.468670
840.851563	723.114075	1303.195313	733.070618	1.716405
841.154053	735.671204	1308.099487	728.389587	-1.272057
841.456482	736.711426	1282.242065	729.132568	-1.389263
841.758850	732.773438	1260.248535	724.302917	-1.605862
842.061157	734.036560	1228.669800	723.559875	-2.118071
842.363403	731.510254	1212.620483	730.544373	-0.200761
842.665588	726.829285	1185.648438	725.491760	-0.291515
842.967712	718.507324	1161.500122	725.714661	1.626965
843.269775	719.101746	1142.924438	720.959290	0.438283
843.571777	724.005676	1120.410767	725.268860	0.318660
843.873840	725.120178	1101.537964	718.878906	-1.658070
844.175659	725.640381	1079.990112	725.491760	-0.041942
844.477600	724.674377	1067.507202	729.652771	1.452134
844.779297	724.674377	1061.488647	739.386414	4.367997
845.081116	727.943665	1055.024292	736.340027	2.567062
845.382751	728.686707	1048.337036	731.807434	0.976294
845.684387	734.259460	1040.015137	733.590820	-0.218684
845.985962	730.024231	1022.851318	730.915833	0.304481
846.287537	730.024231	1005.092957	738.866211	3.214462
846.588989	728.835449	999.371582	734.482361	2.087304
846.890381	735.819824	1004.795715	733.665039	-0.801107
847.191711	738.569031	1008.139343	728.092346	-3.886439
847.493042	740.872375	1000.411804	734.036621	-2.633802
847.794250	735.596924	991.198303	738.717590	1.220912
848.095459	734.036621	987.111633	743.175781	3.611246
848.396606	723.188293	980.424377	738.569092	5.979254
848.697693	719.473206	975.669128	734.853821	6.003458
848.998657	716.798340	977.303711	731.956055	5.818581
849.299622	722.073914	989.563721	733.293640	4.194450
849.600464	721.925293	986.963074	734.482422	4.737864
849.901367	716.055359	981.316101	742.804260	10.084003
850.202087	716.649719	960.511230	742.061279	10.420488
850.502808	718.210144	961.997314	740.946777	9.326427
850.803467	723.411316	962.888977	734.705322	4.716100
851.104065	722.891174	965.712402	734.556702	4.804163
851.404663	722.445374	958.728027	733.293518	4.591173
851.705139	721.702332	952.338074	734.556641	5.573424
852.005615	722.816895	955.978821	726.754883	1.688950
852.306030	727.943787	956.127441	728.538147	0.260475
852.606384	733.590637	959.025208	727.349304	-2.768579
852.906616	730.098572	950.629089	726.160461	-1.785744
853.206909	728.761047	951.223450	722.668213	-2.738815
853.506958	730.544373	950.926270	714.643555	-7.215120
853.807129	737.900330	955.533020	720.364929	-8.057338
854.107178	741.689758	958.356506	721.256531	-9.430717
854.407166	745.181946	959.248108	724.971680	-9.441131
854.707092	739.460693	964.597961	722.816895	-7.392734
855.007019	742.730042	960.511230	725.789001	-7.778927
855.306763	734.928223	953.006653	729.578430	-2.453151
855.606567	736.191345	948.845703	736.637207	0.209665
855.906250	724.897278	940.003723	733.590820	4.041507
856.205933	723.262695	937.700378	736.860046	6.340934
856.505493	718.953125	928.189636	735.596924	7.954538
856.805054	729.281250	944.090332	739.014832	4.531271
857.104492	730.841614	956.498840	736.562805	2.535346
857.403931	735.151123	964.597900	733.590759	-0.680055
857.703308	728.538147	960.659851	725.789001	-1.184355
858.002563	728.463867	951.372070	720.810730	-3.433313
858.301819	733.887939	955.012878	716.649719	-7.795692
858.601013	745.033386	951.817871	723.114075	-10.600076
858.900208	747.856873	955.532959	724.005676	-11.484806
859.199219	746.519470	952.709412	734.036560	-6.054083
859.498291	740.129395	948.325623	734.110840	-2.890809
859.797302	734.556702	937.328796	741.541199	3.444506
860.096191	734.928223	937.700378	737.380188	1.209222
860.395020	729.429749	938.591980	730.915833	0.710493
860.693787	735.671204	945.427734	721.702332	-6.659565
860.992554	726.160461	943.050110	717.392761	-4.042470
861.291260	725.566101	935.174072	722.073792	-1.666115
861.589844	722.742493	937.551758	724.080017	0.622657
861.888428	726.160400	937.551758	728.092346	0.913919
862.186890	728.761047	944.164734	727.869446	-0.413921
862.485413	730.172852	936.437256	734.185120	1.945206
862.783813	730.841553	930.418701	733.813721	1.489233
863.082153	735.002502	931.904724	726.086243	-4.528268
863.380371	739.237793	938.814880	717.689941	-10.796756
863.678589	743.993164	946.319519	721.925293	-10.907067
863.976746	738.717590	948.845764	735.374023	-1.591204
864.274902	728.463867	948.994385	743.621643	6.873323
864.572937	724.451477	956.573242	737.157288	5.473770
864.870911	729.875671	958.802246	731.584534	0.746467
865.168884	737.751709	959.173828	724.600098	-5.939610
865.466736	738.346191	943.198730	724.154297	-6.927859
865.764587	738.791992	939.483582	724.674500	-7.034421
866.062317	735.522644	942.975830	724.600098	-5.265066
866.360107	731.658875	951.669250	726.011902	-2.566685
866.657715	726.531921	953.824036	727.572266	0.457712
866.955322	725.788879	950.183167	729.875671	1.821255
867.252808	733.144958	948.325623	735.151123	0.932316
867.550293	731.807434	945.725037	732.847717	0.486301
867.847717	728.761047	942.752930	734.779602	2.812515
868.145081	726.011902	941.341125	734.036621	3.726721
868.442383	724.600159	944.610535	733.888000	4.221547
868.739624	722.519714	947.211121	732.179016	4.298919
869.036804	721.330811	949.960266	735.374023	6.142346
869.333984	725.937561	948.771484	737.751770	5.301800
869.631042	728.909668	949.291565	736.488586	3.438993
869.928101	731.138733	942.530029	733.962219	1.335668
870.224976	732.624756	946.839600	728.909668	-1.734281
870.521851	732.104675	945.279236	732.030457	-0.034816
870.818726	731.956116	945.353516	730.098450	-0.870520
871.115479	728.612488	941.638367	734.036621	2.546232
871.412231	729.875671	943.867432	735.076843	2.430548
871.708862	729.058289	945.056335	731.138855	0.963234
872.005493	734.259521	950.554688	736.340027	0.961883
872.302063	736.265625	951.743469	728.389587	-3.655150
872.598572	732.179016	955.978821	735.522644	1.494026
872.895020	731.584534	949.440186	727.349365	-1.944025
873.191406	733.590820	951.372070	729.132629	-2.047096
873.487671	735.448425	953.972656	719.919128	-7.106441
873.783997	738.271912	959.694031	725.120178	-5.939666
874.080200	737.603088	954.418457	727.943787	-4.455081
874.376343	741.318298	958.430725	731.584534	-4.483283
874.672424	738.643311	962.294495	726.754883	-5.315611
874.968445	734.408020	968.164368	726.011902	-3.591825
875.264465	734.779541	964.746521	720.290588	-6.300449
875.560364	732.253357	965.266602	723.188477	-3.890285
875.856201	723.336975	964.969421	724.228699	0.369041
876.152039	723.559875	971.582336	728.984070	2.186977
876.447754	723.559875	971.136536	721.256531	-0.930356
876.743469	738.271790	975.594727	718.358704	-8.390713
877.039063	740.649597	967.347168	720.885010	-8.718482
877.334595	741.243958	966.826965	728.835449	-5.500639
877.630127	731.658936	967.347168	727.052063	-1.954647
877.925537	731.584656	968.313049	723.262695	-3.515404
878.221008	737.231628	971.136536	730.915833	-2.700155
878.516296	739.980774	974.480164	739.906494	-0.031676
878.811646	730.544250	990.306641	743.250061	4.891320
879.106812	727.274963	1008.956604	729.504089	0.791364
879.401978	729.652649	1023.445618	725.120300	-1.542701
879.697083	739.014832	1041.352661	729.504089	-3.145733
879.992126	735.968445	1061.860229	731.658875	-1.322393
880.287109	730.395752	1097.822632	729.355469	-0.283127
880.582031	720.885071	1159.345337	727.497864	1.508185
880.876892	723.857117	1284.842651	735.299744	2.039737
881.171753	727.720886	1501.955078	744.216064	2.130515
881.466492	735.225403	1829.853149	741.392578	0.563404
881.761230	740.129395	2233.837158	740.278015	0.009950
882.055786	737.083008	2622.142822	732.030457	-0.268031
882.350403	738.197510	2878.784912	732.996338	-0.242979
882.644958	726.680664	2955.093750	729.652771	0.133373
882.939453	728.761169	2904.939209	730.544373	0.081942
883.233826	723.708557	2787.094971	731.881836	0.396110
883.528137	724.971680	2654.316162	727.869446	0.150194
883.822449	728.761047	2529.115967	726.457703	-0.127938
884.116577	732.996338	2414.615479	717.392822	-0.927886
884.410828	737.231628	2298.406006	723.931396	-0.851938
884.704956	739.089172	2149.206299	720.885010	-1.290968
884.999023	737.528809	1969.913696	722.965515	-1.181716
885.292969	732.401917	1764.838257	720.959290	-1.108313
885.586914	725.714661	1573.285767	722.296692	-0.403266
885.880798	723.857117	1439.095093	726.011902	0.301268
886.174622	726.309082	1341.758545	725.937561	-0.060366
886.468384	735.374023	1286.328613	727.720886	-1.389069
886.762085	736.191406	1219.901978	729.726990	-1.336422
887.055664	733.665039	1177.846680	722.891113	-2.425568
887.349304	728.538269	1149.017212	726.160461	-0.565500
887.642822	728.686829	1127.989624	720.959290	-1.935258
887.936340	734.408020	1114.020752	722.965515	-3.014257
888.229736	730.172852	1076.943726	718.507324	-3.364045
888.523071	723.114075	1059.333984	716.352539	-2.011046
888.816284	718.061523	1041.204102	716.203918	-0.574856
889.109619	727.869446	1032.139038	719.101746	-2.881557
889.402710	740.872375	1012.968994	720.662109	-7.427607
889.695862	740.872375	992.238586	725.640442	-6.059659
889.988892	731.361633	978.864075	726.829163	-1.831283
890.281921	718.210083	973.217102	730.915833	4.982510
>>>>>End Processed Spectral Data<<<<<
