Jaz Data File
++++++++++++++++++++++++++++++++++++
Date: Fri Jun 04 11:31:58 2021
User: jaz
Dark Spectrum Present: Yes
Reference Spectrum Present: Yes
Processed Spectrum Present: Yes
Spectrometers: JAZA3586
Integration Time (usec): 48100 (JAZA3586)
Spectra Averaged: 10 (JAZA3586)
Boxcar Smoothing: 1 (JAZA3586)
Correct for Electrical Dark: No (JAZA3586)
Strobe/Lamp Enabled: Yes (JAZA3586)
Correct for Detector Non-linearity: No (JAZA3586)
Correct for Stray Light: No (JAZA3586)
Number of Pixels in Processed Spectrum: 2048
>>>>>Begin Processed Spectral Data<<<<<
W	D	R	S	P
191.335022	0.000000	0.000000	0.000000	0.000000
191.713211	471.896606	472.045166	466.546783	-3601.129883
192.091385	951.149109	946.765198	928.115295	525.416992
192.469528	1429.955688	1419.776367	1404.247070	252.557297
192.847641	1441.621460	1414.277954	1415.169556	96.739258
193.225739	1446.079590	1421.485352	1429.212891	68.579880
193.603790	1455.292969	1432.482300	1433.299438	96.417732
193.981842	1456.704712	1446.748413	1436.346069	204.480026
194.359863	1459.751343	1449.051636	1439.169434	192.359558
194.737854	1462.351929	1459.454102	1438.872192	810.253174
195.115829	1468.444702	1463.317749	1435.305664	646.369019
195.493774	1471.268188	1460.494141	1438.649292	302.754333
195.871704	1476.766602	1456.927734	1438.723511	191.760391
196.249603	1481.076172	1459.676880	1439.466675	194.443329
196.627457	1478.847046	1466.512817	1443.107422	289.759705
197.005310	1472.085449	1467.032837	1450.091797	435.292694
197.383133	1462.872070	1467.107300	1451.280762	-273.687866
197.760910	1464.135132	1468.519043	1450.983521	-299.997223
198.138687	1463.614868	1462.426270	1443.850586	1662.822266
198.516449	1460.048462	1460.197266	1446.673950	-8988.023438
198.894180	1449.200195	1455.813110	1435.379883	-208.989716
199.271866	1442.587280	1459.082520	1435.602905	-42.341763
199.649536	1445.113647	1459.305298	1429.584351	-109.425591
200.027191	1458.116699	1457.967896	1438.500610	13182.526367
200.404816	1458.934082	1457.670776	1436.791626	1752.739380
200.782410	1454.921509	1463.540649	1436.643066	-212.068039
201.159988	1447.862915	1474.091675	1429.435913	-70.254951
201.537537	1452.023804	1479.367188	1428.172485	-87.228844
201.915070	1454.104126	1485.534180	1430.253052	-75.886200
202.292557	1454.624390	1488.877930	1433.596680	-61.388428
202.670029	1451.652344	1490.884155	1435.008423	-42.424553
203.047485	1457.745117	1493.336060	1435.305664	-63.048214
203.424911	1454.995972	1488.729370	1433.002319	-65.198448
203.802292	1454.104126	1483.082397	1432.407837	-74.870888
204.179688	1442.958862	1475.800659	1427.726929	-46.379719
204.557037	1435.602905	1476.469238	1428.841309	-16.545641
204.934357	1435.231445	1478.401245	1427.355103	-18.245029
205.311661	1431.664917	1477.881226	1432.110718	0.964596
205.688934	1437.609009	1481.001831	1430.178711	-17.123333
206.066177	1432.110474	1482.265015	1434.339844	4.445002
206.443390	1436.271606	1486.277344	1430.698853	-11.144229
206.820587	1438.500854	1478.401367	1433.522461	-12.477016
207.197769	1440.209595	1480.778931	1425.051880	-37.362492
207.574921	1440.358276	1472.011353	1426.166382	-44.835751
207.952042	1431.664917	1469.410645	1422.525513	-24.213083
208.329147	1433.076660	1469.708008	1429.212891	-10.547713
208.706223	1444.519165	1484.791382	1438.203613	-15.682156
209.083267	1447.937134	1491.850220	1440.358398	-17.258490
209.460297	1448.680176	1489.695313	1432.259155	-40.036488
209.837280	1442.364380	1481.670532	1416.061157	-66.918846
210.214264	1444.593384	1480.927612	1408.036499	-100.612801
210.591217	1439.466431	1485.236938	1412.940430	-57.954353
210.968124	1432.928101	1487.837524	1417.398560	-28.282104
211.345016	1434.859863	1488.655151	1429.287109	-10.359186
211.721893	1438.129272	1485.237183	1417.621704	-43.533173
212.098724	1441.026978	1485.237183	1417.175781	-53.949528
212.475555	1440.358398	1484.196899	1404.098633	-82.712151
212.852356	1439.541016	1484.345337	1413.460571	-58.209663
213.229126	1435.825806	1481.521973	1414.798218	-46.016087
213.605865	1438.649292	1480.556030	1423.268677	-36.702011
213.982590	1444.444946	1477.732544	1427.875366	-49.777039
214.359283	1445.856812	1485.608765	1429.212891	-41.869442
214.735931	1441.026978	1489.620972	1428.246948	-26.299606
215.112579	1439.317993	1498.165649	1428.098267	-19.065716
215.489197	1443.330444	1492.295898	1431.367554	-24.431288
215.865799	1440.432617	1492.890259	1435.974487	-8.498533
216.242355	1435.974487	1484.642578	1434.562500	-2.901259
216.618896	1428.023926	1479.961548	1433.002319	9.585332
216.995407	1429.138550	1477.955444	1429.658569	1.065245
217.371902	1429.212891	1484.048340	1423.714478	-10.027114
217.748367	1429.212891	1491.106934	1423.714478	-8.883590
218.124802	1432.705078	1489.026367	1421.113892	-20.580471
218.501236	1428.321289	1493.261719	1424.011597	-6.636378
218.877609	1429.138672	1488.283569	1419.702148	-15.954924
219.253983	1428.618530	1491.478516	1418.661743	-15.839627
219.630295	1427.429565	1489.175171	1417.993042	-15.282907
220.006592	1429.435913	1489.918091	1417.844360	-19.165237
220.382889	1426.538086	1491.924316	1412.717651	-21.136614
220.759140	1435.751587	1486.203003	1408.853882	-53.314075
221.135391	1441.992798	1497.868530	1412.346191	-53.058109
221.511581	1449.125977	1496.902466	1420.593750	-59.720222
221.887772	1442.735962	1503.887085	1423.491577	-31.470207
222.263931	1433.299438	1497.348267	1426.537964	-10.556750
222.640060	1434.191040	1497.868530	1426.909546	-11.434958
223.016159	1439.243774	1499.354492	1428.544067	-17.799999
223.392212	1440.581177	1506.264648	1429.658691	-16.628971
223.768265	1433.968140	1506.487671	1420.444946	-18.647657
224.144302	1431.590454	1511.020020	1420.890991	-13.470378
224.520294	1439.317993	1506.710571	1419.107788	-29.988770
224.896286	1439.838013	1512.580444	1425.051880	-20.326696
225.272217	1441.918579	1502.029419	1426.686523	-25.339949
225.648148	1438.574829	1501.435181	1419.256348	-30.732378
226.024048	1436.866211	1500.617798	1422.005493	-23.310350
226.399902	1437.386230	1510.351440	1418.067383	-26.476793
226.775772	1436.197266	1511.985962	1419.256348	-22.352829
227.151581	1444.519165	1516.146973	1417.993164	-37.033104
227.527374	1444.890625	1522.314087	1416.878540	-36.180359
227.903137	1444.964966	1533.459595	1419.553345	-28.715439
228.278870	1437.609009	1548.988892	1422.897095	-13.208772
228.654572	1438.946655	1563.849243	1425.497681	-10.767570
229.030273	1437.757813	1585.322876	1430.773071	-4.733330
229.405930	1438.797852	1595.725220	1429.807251	-5.729147
229.781555	1434.562622	1603.824341	1426.835327	-4.565294
230.157181	1433.522461	1599.291870	1423.491577	-6.051106
230.532761	1430.773315	1592.827515	1419.776489	-6.785894
230.908325	1427.652466	1584.208374	1427.355347	-0.189785
231.283859	1423.491577	1579.155762	1424.531860	0.668287
231.659332	1426.686523	1576.852417	1427.726929	0.692837
232.034821	1429.733032	1576.703735	1427.206665	-1.718960
232.410263	1437.311890	1570.388062	1428.172485	-6.867799
232.785690	1430.030273	1567.415894	1427.726929	-1.676554
233.161087	1434.711304	1562.957642	1425.423462	-7.242189
233.536469	1435.900024	1574.920532	1423.268677	-9.085960
233.911804	1442.884644	1585.322876	1430.401733	-8.763736
234.287140	1439.169434	1590.821289	1435.900024	-2.155865
234.662430	1441.844360	1594.833618	1436.271484	-3.642658
235.037704	1442.215820	1595.873657	1428.023926	-9.236037
235.412933	1445.187866	1597.805664	1423.268555	-14.362225
235.788162	1440.506836	1603.452759	1425.646362	-9.119881
236.163345	1440.506836	1608.431030	1423.342896	-10.221243
236.538513	1434.934204	1612.666138	1423.119995	-6.647207
236.913635	1440.952637	1608.208130	1420.593750	-12.172328
237.288742	1443.627563	1617.718872	1421.262329	-12.846842
237.663834	1446.748169	1622.325684	1418.513184	-16.081207
238.038879	1440.952637	1620.839478	1419.850586	-11.730736
238.413910	1440.804077	1615.564087	1420.593750	-11.564618
238.788910	1440.135376	1610.882935	1421.188110	-11.096654
239.163879	1442.810181	1615.266968	1417.993164	-14.390281
239.538834	1439.541016	1624.183228	1419.850708	-10.664034
239.913757	1436.568848	1646.696899	1422.302612	-6.789306
240.288651	1440.655640	1674.040405	1424.605957	-6.876920
240.663528	1442.587402	1691.724243	1430.029907	-5.040401
241.038361	1445.931030	1713.866577	1428.395508	-6.544679
241.413177	1437.237671	1738.237793	1431.367554	-1.950204
241.787979	1436.271851	1779.995972	1428.023926	-2.399577
242.162735	1435.380005	1823.165649	1434.859863	-0.134131
242.537476	1435.157227	1854.298706	1441.175415	1.435837
242.912170	1435.380005	1873.766113	1445.485229	2.305097
243.286865	1433.076660	1878.447266	1448.754517	3.520182
243.661514	1438.797852	1868.193359	1442.661621	0.899816
244.036148	1437.980469	1851.029297	1440.135376	0.521708
244.410751	1442.215820	1837.432007	1440.655640	-0.394766
244.785339	1433.002319	1837.877808	1444.222046	2.771155
245.159882	1431.739258	1852.143921	1440.432617	2.067855
245.534378	1427.652466	1876.366699	1437.980469	2.301688
245.908890	1427.355347	1927.189819	1440.655640	2.660939
246.283356	1431.070313	1998.371704	1452.320923	3.745912
246.657791	1430.030273	2085.157227	1449.646118	2.994205
247.032196	1435.008423	2150.543701	1451.800781	2.346825
247.406586	1438.277832	2194.382080	1450.166138	1.572310
247.780960	1440.135376	2214.964111	1451.503540	1.467184
248.155289	1446.822388	2208.425537	1447.268433	0.058567
248.529602	1440.135376	2171.571289	1445.336548	0.711091
248.903870	1440.952759	2101.875244	1445.039429	0.618328
249.278122	1434.637085	2040.724243	1447.268433	2.084081
249.652344	1429.807251	1983.213867	1437.088989	1.315803
250.026550	1428.469727	1945.096680	1436.494629	1.553326
250.400711	1433.448120	1919.462280	1431.590454	-0.382225
250.774857	1437.609009	1923.846069	1437.683472	0.015314
251.148987	1448.234375	1937.369141	1436.420288	-2.415303
251.523071	1446.079590	1967.759155	1440.135376	-1.139438
251.897125	1446.079468	1988.563843	1435.528687	-1.944901
252.271164	1441.844238	2013.157837	1434.414063	-1.300542
252.645187	1438.426392	2014.198242	1429.733032	-1.509862
253.019165	1444.965210	2004.835938	1444.222046	-0.132739
253.393112	1437.163452	1984.625610	1450.389160	2.415821
253.767044	1438.649414	1961.145874	1449.943359	2.161535
254.140930	1434.265503	1932.019165	1434.785645	0.104498
254.514801	1436.420288	1905.716187	1432.407837	-0.854994
254.888657	1430.996094	1898.434570	1436.643066	1.208068
255.262466	1429.212891	1908.539673	1446.971069	3.704817
255.636276	1428.321289	1926.595215	1446.896851	3.727982
256.010010	1427.503906	1948.588867	1444.965210	3.350951
256.383759	1425.349121	1966.495728	1440.506836	2.801037
256.757446	1427.132446	1998.668945	1437.757690	1.859067
257.131134	1428.172485	2039.386719	1439.540894	1.859971
257.504791	1428.692749	2099.349365	1443.701782	2.237961
257.878418	1432.036255	2172.611572	1452.320923	2.739042
258.252014	1435.082642	2262.517822	1460.494263	3.071131
258.625580	1429.732910	2370.182373	1461.162964	3.342025
258.999115	1422.451294	2498.354492	1460.717163	3.556628
259.372650	1420.370972	2634.774658	1464.283569	3.615980
259.746124	1424.160278	2766.067627	1471.193848	3.504979
260.119598	1430.624634	2848.468994	1479.069946	3.416829
260.493042	1435.379883	2861.769531	1488.803711	3.745388
260.866425	1444.742065	2812.878174	1484.196777	2.883829
261.239838	1438.426392	2715.615723	1475.503418	2.903017
261.613159	1435.082642	2594.353760	1458.785278	2.044616
261.986511	1423.640015	2483.196777	1454.475708	2.910245
262.359802	1428.989868	2397.600098	1444.816406	1.633943
262.733063	1426.315063	2367.358887	1446.228149	2.116064
263.106293	1427.875366	2351.160889	1442.735962	1.609534
263.479523	1429.510132	2347.594482	1448.680176	2.088048
263.852692	1436.123047	2326.492676	1445.484985	1.051466
264.225861	1438.574829	2316.536133	1446.451050	0.897103
264.598969	1431.070313	2325.675049	1445.039185	1.561457
264.972076	1432.779297	2355.990967	1446.302368	1.464786
265.345154	1441.769897	2392.250244	1458.933960	1.805830
265.718201	1449.200195	2430.442139	1465.621216	1.673494
266.091217	1450.686157	2479.110107	1468.964844	1.777349
266.464203	1440.061035	2535.951904	1462.574829	2.054383
266.837158	1427.058105	2588.335205	1461.831665	2.994424
267.210114	1417.918823	2637.597900	1463.020508	3.697832
267.583038	1424.977539	2657.956787	1463.094727	3.091470
267.955902	1432.259155	2673.560303	1469.559204	3.004915
268.328766	1440.506836	2661.226318	1465.249634	2.026903
268.701569	1434.339844	2671.108398	1470.525024	2.925784
269.074371	1434.859863	2672.966064	1467.775879	2.658578
269.447144	1427.206665	2706.996826	1473.794312	3.640257
269.819885	1434.042480	2762.872314	1471.862671	2.846128
270.192596	1437.311890	2860.655029	1476.097778	2.724985
270.565277	1441.621216	2979.910889	1476.766602	2.284705
270.937927	1439.763672	3103.699219	1483.082397	2.603390
271.310577	1439.392212	3207.351563	1479.961548	2.294698
271.683136	1444.222046	3275.041016	1479.887329	1.948051
272.055725	1439.615234	3305.282227	1474.760376	1.883784
272.428284	1445.708008	3281.059326	1489.769531	2.400713
272.800812	1439.392212	3239.969971	1498.388672	3.276529
273.173279	1441.026978	3158.237061	1498.760132	3.362032
273.545776	1432.333618	3129.705078	1485.311401	3.121166
273.918152	1436.866089	3093.073486	1477.509766	2.454021
274.290558	1438.574829	3082.671143	1483.750977	2.747780
274.662964	1444.519165	3059.934814	1484.716919	2.488384
275.035278	1442.290039	3069.519775	1486.500122	2.716892
275.407593	1436.420288	3105.928467	1481.298950	2.688137
275.779907	1428.023926	3151.772705	1490.140991	3.603603
276.152161	1424.085938	3205.939453	1494.227905	3.936461
276.524384	1437.460571	3249.852295	1496.159668	3.238764
276.896606	1440.581055	3279.276123	1490.661255	2.723682
277.268799	1451.280762	3283.734375	1494.227661	2.343683
277.640930	1445.262085	3290.347412	1495.713867	2.734387
278.013031	1449.423218	3302.904541	1490.512573	2.216875
278.385162	1444.890625	3323.932373	1487.837524	2.285574
278.757233	1440.581177	3321.553955	1492.741577	2.773055
279.129272	1441.398438	3344.365234	1501.955200	3.182229
279.501282	1441.398438	3362.866943	1500.989258	3.101316
279.873230	1446.451172	3427.807373	1492.444336	2.321297
280.245178	1440.283813	3522.989014	1494.227661	2.590086
280.617126	1437.014648	3638.083984	1497.274048	2.737733
280.988983	1440.581055	3753.104736	1506.933472	2.869264
281.360870	1445.039429	3844.274170	1499.577515	2.273145
281.732697	1447.416992	3932.843018	1493.558960	1.856501
282.104492	1441.621460	3981.585693	1501.137817	2.343197
282.476288	1431.813477	3999.641357	1508.345215	2.980408
282.848053	1433.076538	3996.668945	1515.181030	3.202713
283.219757	1428.841309	3986.341064	1504.333008	2.951777
283.591461	1438.723633	3977.647705	1505.075806	2.613397
283.963135	1436.197266	3983.369141	1508.568237	2.841228
284.334747	1441.324219	4030.699951	1515.032593	2.846569
284.706360	1444.593628	4107.826172	1514.661011	2.630915
285.077942	1445.559448	4201.595703	1521.125366	2.741833
285.449524	1441.026978	4298.635254	1515.106812	2.592372
285.821014	1441.472656	4337.347168	1520.010742	2.712068
286.192535	1439.763794	4373.978516	1519.639160	2.722206
286.563995	1443.330444	4363.650391	1527.812500	2.892904
286.935425	1436.048706	4335.266602	1523.874390	3.029289
287.306824	1433.670898	4261.855957	1516.741577	2.937243
287.678223	1431.664917	4187.403809	1507.676392	2.758297
288.049561	1429.881470	4150.401367	1508.345215	2.884145
288.420898	1427.949829	4143.490723	1511.540161	3.078220
288.792145	1427.429565	4181.979980	1518.301758	3.298985
289.163452	1433.745483	4256.877441	1516.741577	2.939859
289.534668	1432.184937	4357.186035	1517.484497	2.916223
289.905914	1436.494507	4462.324219	1518.004517	2.693807
290.277039	1436.123047	4544.354004	1525.880737	2.887742
290.648193	1444.222046	4603.425293	1529.670044	2.704733
291.019318	1447.119751	4604.391113	1531.527710	2.673446
291.390381	1449.720337	4559.289551	1528.629883	2.537636
291.761475	1443.999023	4487.438965	1523.725952	2.619632
292.132507	1437.163452	4443.748535	1523.280151	2.864269
292.503510	1433.076660	4439.810059	1525.583496	3.076656
292.874481	1433.596680	4473.692383	1533.979858	3.301974
293.245422	1434.488281	4559.140625	1538.586426	3.331511
293.616364	1438.129272	4692.736816	1540.592651	3.148256
293.987213	1445.931030	4837.330078	1544.381958	2.902959
294.358093	1447.937134	4945.737793	1548.914429	2.886879
294.728943	1441.175659	5052.361816	1556.344727	3.189231
295.099731	1432.036499	5159.654785	1553.001343	3.245097
295.470490	1428.024048	5277.350586	1557.979492	3.376056
295.841248	1432.705078	5349.721191	1554.041382	3.097672
296.211975	1431.441772	5459.466797	1561.620239	3.231819
296.582642	1438.649292	5563.639160	1562.363281	2.999135
296.953308	1434.785522	5636.679199	1569.347656	3.202416
297.323883	1442.661621	5608.814941	1566.152710	2.964151
297.694519	1434.711304	5524.333496	1561.991821	3.112281
298.065063	1436.048706	5411.170410	1556.419067	3.028093
298.435608	1437.163208	5269.623535	1557.310669	3.134995
298.806122	1444.816406	5078.516602	1558.128052	3.118354
299.176575	1447.268433	4905.911621	1558.573853	3.218182
299.547028	1451.578003	4787.547852	1556.716431	3.151660
299.917450	1441.621460	4734.941406	1552.332520	3.361686
300.287872	1436.494507	4727.510742	1546.685547	3.348238
300.658234	1423.640137	4703.659668	1540.072388	3.549743
301.028564	1427.578125	4684.489258	1538.883667	3.417519
301.398865	1430.104492	4639.090332	1534.351196	3.248587
301.769135	1442.661743	4601.195801	1537.992065	3.018182
302.139374	1442.884644	4566.496582	1531.601929	2.840215
302.509583	1443.999146	4532.763184	1531.230469	2.824150
302.879791	1436.197266	4482.757324	1515.403931	2.599872
303.249939	1435.825806	4433.197266	1516.518555	2.692117
303.620087	1433.671021	4381.482910	1521.496704	2.979352
303.990173	1426.092163	4366.919434	1531.230469	3.575127
304.360260	1434.562622	4362.981445	1530.784790	3.285806
304.730286	1443.850464	4371.080566	1524.617554	2.759165
305.100281	1456.184692	4361.050293	1525.211914	2.376262
305.470276	1449.794556	4368.554199	1520.753906	2.431147
305.840179	1442.884399	4381.408691	1525.360718	2.806726
306.210144	1442.438599	4422.572266	1522.239868	2.677775
306.579987	1441.695679	4449.618652	1527.812500	2.863000
306.949890	1443.478882	4489.370605	1534.871460	3.000520
307.319702	1437.831909	4567.165527	1539.552368	3.250547
307.689484	1435.974487	4664.576172	1541.855835	3.279480
308.059265	1429.733032	4784.129395	1541.187134	3.322628
308.429016	1427.355347	4859.472168	1544.679321	3.418415
308.798737	1421.262329	4937.638672	1550.697754	3.680932
309.168396	1425.126099	4972.263672	1546.016602	3.408114
309.538055	1432.928101	4995.148926	1540.443970	3.018226
309.907684	1441.175415	4976.944824	1541.930054	2.849582
310.277313	1446.005371	4993.960449	1545.645142	2.808372
310.646851	1441.249878	4990.690918	1550.623657	3.081437
311.016388	1443.404663	4993.885254	1545.273804	2.869165
311.385895	1434.414063	4937.489746	1545.719604	3.177366
311.755371	1435.528687	4887.410156	1543.119019	3.116861
312.124817	1429.510132	4830.345215	1543.787720	3.360280
312.494232	1435.379883	4776.253418	1540.592651	3.149259
312.863617	1435.528442	4758.494629	1539.701172	3.134932
313.232971	1440.581055	4775.064453	1539.181030	2.956979
313.602295	1444.593384	4849.664063	1540.295410	2.810574
313.971619	1442.215820	4912.895996	1542.004272	2.875184
314.340820	1442.215820	4949.081055	1548.468628	3.029851
314.710083	1434.711304	4944.696777	1546.016724	3.171108
315.079285	1440.655640	4895.806152	1547.800171	3.101009
315.448486	1446.451050	4819.273926	1539.180786	2.749321
315.817596	1448.828735	4715.993652	1539.552368	2.776830
316.186707	1440.878418	4615.907715	1529.521484	2.791882
316.555786	1437.386230	4524.144043	1524.023071	2.806726
316.924866	1437.757690	4470.274902	1518.896118	2.675613
317.293884	1437.980469	4461.655273	1522.314087	2.789110
317.662872	1434.191040	4467.673828	1527.515259	3.076471
318.031830	1427.280884	4502.150391	1528.035522	3.276713
318.400757	1424.308960	4529.270996	1528.852905	3.366996
318.769684	1427.429565	4560.032227	1533.608032	3.389465
319.138550	1427.652466	4562.855957	1534.499634	3.407982
319.507416	1434.785522	4537.964355	1538.809448	3.352173
319.876190	1431.590454	4489.519043	1527.441040	3.134494
320.244995	1439.615112	4410.758301	1533.608032	3.163527
320.613770	1437.311890	4348.641113	1528.109741	3.118777
320.982483	1434.711304	4348.121094	1527.886719	3.198157
321.351166	1423.640137	4391.885254	1521.496704	3.296782
321.719818	1425.720581	4458.608887	1522.611328	3.194669
322.088440	1431.813477	4565.233398	1523.577271	2.928551
322.457062	1442.661743	4722.606934	1521.273926	2.396753
322.825623	1443.999023	4880.945801	1520.010742	2.211606
323.194183	1447.640015	5018.331543	1524.023071	2.139167
323.562653	1435.751465	5081.934570	1530.636108	2.602301
323.931183	1433.076660	5110.689453	1536.580200	2.814422
324.299591	1425.869141	5062.912598	1551.366577	3.450534
324.668060	1431.293335	5006.517090	1544.530640	3.167279
325.036407	1432.779297	4945.068848	1544.159180	3.171148
325.404755	1434.339722	4876.189941	1538.214844	3.018003
325.773102	1429.955933	4809.540527	1541.335571	3.295661
326.141388	1432.853638	4731.597168	1534.722778	3.088119
326.509674	1433.225098	4660.935547	1521.942749	2.748625
326.877899	1444.370483	4599.412598	1527.069458	2.621169
327.246124	1440.135254	4554.607910	1529.001343	2.853327
327.614288	1445.187866	4527.784668	1533.385254	2.861139
327.982422	1447.342651	4496.875000	1529.670044	2.699673
328.350525	1443.404663	4489.296387	1531.453491	2.890741
328.718628	1439.392212	4516.640137	1531.899048	3.006155
329.086700	1432.333618	4566.645508	1535.094238	3.278570
329.454712	1437.088867	4623.858398	1532.567993	2.996110
329.822693	1436.940308	4648.229980	1535.094116	3.056523
330.190674	1436.717407	4686.347168	1534.425415	3.006743
330.558563	1435.751465	4722.829590	1539.923828	3.169148
330.926483	1436.197266	4805.379395	1543.713257	3.191160
331.294312	1441.250000	4901.527344	1541.484253	2.896712
331.662231	1442.513062	5013.130371	1543.119019	2.817607
332.029999	1442.513062	5115.667969	1547.428589	2.856278
332.397766	1438.352051	5162.627441	1550.029175	2.998627
332.765503	1433.671021	5206.763184	1543.267578	2.904688
333.133240	1433.745239	5223.778809	1533.831055	2.640763
333.500916	1428.098267	5241.239746	1535.168579	2.807929
333.868561	1435.825806	5209.066406	1547.725586	2.965615
334.236176	1432.705078	5175.333496	1546.313965	3.035537
334.603790	1441.992798	5135.729980	1549.583374	2.912784
334.971344	1436.866089	5123.990234	1541.261353	2.831347
335.338867	1437.163086	5075.544434	1553.744141	3.204201
335.706360	1434.859741	5070.194824	1554.932983	3.302948
336.073853	1437.311890	5071.012207	1563.923828	3.484380
336.441284	1434.339844	5132.832031	1558.128052	3.346991
336.808655	1433.968262	5172.732910	1556.790649	3.285106
337.176086	1433.819702	5217.017090	1550.029175	3.071727
337.543396	1439.540894	5223.481934	1556.567871	3.092727
337.910706	1439.615234	5232.249023	1556.493530	3.081718
338.277954	1440.506836	5214.490723	1561.620239	3.209166
338.645264	1442.438843	5182.986328	1559.019653	3.116678
339.012421	1443.924805	5119.085938	1552.926880	2.965913
339.379669	1444.519165	5039.284668	1545.050781	2.796611
339.746796	1437.757446	4963.718750	1540.964233	2.927054
340.113953	1439.169434	4926.790527	1541.707031	2.940044
340.481018	1439.020874	4903.013672	1536.431641	2.812095
340.848114	1448.902954	4907.174316	1529.447266	2.329034
341.215118	1445.931030	4943.805664	1531.602051	2.449231
341.582153	1444.593384	5062.764160	1540.890015	2.661473
341.949066	1435.157227	5231.580078	1548.914673	2.996438
342.316010	1435.974487	5442.971191	1554.338745	2.953940
342.682922	1433.671021	5658.226563	1562.363281	3.046291
343.049835	1434.934204	5949.938965	1570.759399	3.008307
343.416656	1434.785522	6232.660645	1584.505493	3.120548
343.783478	1437.088867	6493.908691	1593.941895	3.101812
344.150269	1433.596680	6621.857910	1602.932617	3.263828
344.516998	1429.807251	6648.979004	1600.257446	3.265847
344.883728	1426.760864	6581.734863	1592.604492	3.217157
345.250427	1423.045898	6475.259277	1580.270142	3.111987
345.617065	1424.606079	6338.319824	1576.183594	3.084785
345.983704	1428.544067	6200.264160	1583.168091	3.240425
346.350281	1436.494507	6062.953125	1588.369263	3.282743
346.716827	1437.088867	5929.282715	1582.573730	3.238615
347.083405	1440.506836	5838.559082	1568.753418	2.915986
347.449860	1444.147827	5771.463379	1569.496460	2.896683
347.816376	1448.903198	5751.550781	1569.347778	2.799313
348.182770	1441.546997	5737.358887	1570.016602	2.990578
348.549194	1439.317993	5762.547363	1562.437622	2.847862
348.915558	1429.732788	5846.806641	1560.134277	2.952214
349.281921	1425.200562	5925.493652	1570.908203	3.237737
349.648193	1421.113770	5978.693848	1575.440796	3.386162
350.014526	1425.646484	5978.917480	1579.081421	3.369774
350.380737	1428.841431	6014.136719	1570.982422	3.099931
350.746948	1433.745239	6075.361816	1570.536743	2.947066
351.113159	1433.150879	6137.999512	1574.994751	3.014845
351.479309	1438.575073	6194.097656	1580.864746	2.992093
351.845428	1439.243774	6286.529785	1586.065796	3.028953
352.211517	1446.599731	6412.695801	1592.381470	2.935540
352.577576	1443.701782	6535.667480	1595.353882	2.978262
352.943604	1441.770142	6659.827637	1596.914063	2.973212
353.309601	1439.392456	6801.299316	1595.353882	2.908693
353.675537	1443.404663	6961.347656	1598.251587	2.806244
354.041473	1437.163208	7113.445313	1599.960571	2.868028
354.407379	1435.008423	7212.193848	1607.539429	2.986420
354.773254	1434.711060	7339.771484	1607.019165	2.917974
355.139038	1439.838013	7485.107422	1613.037720	2.865045
355.504913	1444.742065	7730.455078	1619.502075	2.780273
355.870636	1435.528442	7995.121094	1641.198364	3.135407
356.236389	1436.420288	8263.577148	1655.910522	3.214958
356.602081	1435.379883	8513.458008	1662.671997	3.211212
356.967804	1444.073242	8689.778320	1656.653687	2.933882
357.333405	1443.553345	8816.983398	1654.721680	2.863909
357.699036	1435.008423	8831.250000	1659.402710	3.033896
358.064606	1435.602905	8790.605469	1662.820435	3.089292
358.430176	1436.568848	8710.062500	1661.408813	3.091224
358.795654	1438.575073	8728.786133	1661.185913	3.053558
359.161163	1438.649292	8893.961914	1668.987671	3.089587
359.526581	1438.277710	9261.239258	1682.436523	3.121053
359.892029	1441.621216	9759.141602	1708.665405	3.210623
360.257416	1435.974487	10316.487305	1724.863281	3.253064
360.622772	1431.367676	10760.148438	1740.615601	3.314987
360.988098	1432.482300	11062.858398	1734.894165	3.140188
361.353394	1427.875488	11169.258789	1734.299805	3.145594
361.718658	1435.677124	11046.065430	1728.058472	3.042347
362.083893	1432.333618	10667.195313	1720.554077	3.121005
362.449097	1446.748169	10063.040039	1708.962524	3.043239
362.814209	1446.673828	9419.950195	1695.811035	3.124653
363.179382	1453.286743	8826.791992	1678.721313	3.057359
363.544434	1449.720337	8405.570313	1662.820679	3.063613
363.909546	1440.804077	8138.451172	1650.932129	3.137341
364.274536	1437.683228	7986.502441	1639.786743	3.086106
364.639587	1432.184937	7858.032715	1633.099609	3.126664
365.004517	1431.813477	7771.767578	1631.316284	3.146755
365.369507	1432.779419	7704.226563	1633.916992	3.207196
365.734344	1435.380005	7702.814453	1636.814575	3.213988
366.099274	1443.924805	7701.328125	1637.409180	3.092087
366.464081	1446.525391	7685.428223	1637.111816	3.054807
366.828918	1448.382935	7639.583496	1630.201782	2.936730
367.193665	1452.023804	7548.859375	1625.223511	2.840813
367.558411	1450.611938	7482.655762	1625.149048	2.893499
367.923126	1448.605835	7398.618652	1635.551636	3.141940
368.287781	1438.946655	7365.107910	1638.523804	3.367731
368.652435	1439.392212	7316.143066	1634.734375	3.323982
369.017059	1438.872070	7328.477051	1625.372070	3.166596
369.381653	1443.627563	7361.542480	1614.820923	2.892798
369.746185	1438.055054	7444.464355	1615.266724	2.950376
370.110687	1433.299438	7521.292969	1615.118164	2.986513
370.475220	1433.448120	7597.898438	1623.960327	3.090498
370.839661	1432.333618	7644.114746	1623.142944	3.071733
371.204041	1431.590454	7685.872559	1627.824097	3.137589
371.568451	1424.754883	7695.978027	1625.372070	3.199012
371.932770	1423.342896	7674.505371	1624.406128	3.216413
372.297150	1431.442017	7641.068848	1628.715820	3.176903
372.661377	1441.324097	7626.059082	1627.155396	3.004677
373.025696	1442.735840	7657.563965	1633.916870	3.076208
373.389862	1444.370483	7729.118652	1633.248169	3.005334
373.754059	1446.376587	7818.949707	1635.031372	2.960418
374.118225	1449.125977	7930.701172	1630.647461	2.800577
374.482361	1446.822632	8075.070801	1631.242065	2.782326
374.846436	1430.698853	8290.697266	1643.427368	3.100999
375.210510	1424.383179	8590.137695	1644.913452	3.077558
375.574524	1417.250000	8893.069336	1649.371704	3.104967
375.938538	1420.370728	9202.243164	1651.080688	2.964710
376.302460	1422.376953	9425.077148	1671.885376	3.117803
376.666412	1435.900024	9586.833984	1684.293945	3.047429
377.030304	1441.324219	9573.385742	1683.402344	2.976836
377.394196	1445.336548	9472.110352	1682.065063	2.949236
377.757996	1445.633789	9259.605469	1676.195190	2.950630
378.121796	1446.376587	8989.068359	1676.269409	3.047888
378.485565	1448.605835	8711.845703	1670.622437	3.056716
378.849304	1441.026978	8480.763672	1659.105469	3.097822
379.212982	1446.971313	8355.415039	1662.300415	3.116897
379.576630	1449.869019	8291.663086	1656.133301	3.014769
379.940277	1447.565552	8292.109375	1656.430664	3.051556
380.303864	1446.673828	8274.871094	1643.427612	2.881490
380.667450	1433.522339	8271.527344	1641.569946	3.042519
381.030945	1430.996094	8257.038086	1635.254272	2.992337
381.394501	1426.537964	8282.970703	1642.090210	3.143796
381.757935	1431.144653	8339.440430	1640.381226	3.028773
382.121399	1435.082642	8432.319336	1642.238770	2.960542
382.484741	1438.277832	8578.100586	1647.662964	2.932638
382.848145	1438.203491	8719.499023	1658.362305	3.023622
383.211487	1438.574829	8860.376953	1671.736938	3.141583
383.574768	1428.098267	8950.133789	1668.616211	3.197511
383.938019	1428.098267	8982.975586	1667.278687	3.165907
384.301270	1429.510132	8980.078125	1669.284790	3.175585
384.664459	1431.887695	9002.442383	1684.219727	3.333072
385.027649	1429.510132	9051.706055	1684.814087	3.349480
385.390778	1427.949707	9149.785156	1686.523071	3.348600
385.753876	1435.082642	9233.970703	1673.223022	3.053517
386.116943	1436.643066	9341.412109	1676.863892	3.038935
386.479980	1438.649292	9392.161133	1669.805054	2.906336
386.842987	1431.887695	9421.065430	1673.148560	3.019846
387.205994	1438.797852	9416.384766	1669.284790	2.889181
387.568909	1436.048706	9407.096680	1674.857544	2.995953
387.931793	1442.141602	9337.696289	1679.018555	3.000131
388.294678	1433.745483	9299.133789	1683.179565	3.171288
388.657471	1433.150879	9258.044922	1687.414673	3.249422
389.020294	1436.271484	9332.645508	1690.907104	3.224716
389.383057	1440.358276	9500.198242	1694.324829	3.151012
389.745819	1444.370605	9722.511719	1700.640625	3.095744
390.108521	1441.695801	9961.542969	1703.538574	3.073327
390.471191	1444.667847	10207.708008	1710.448608	3.032974
390.833801	1445.039429	10443.024414	1713.272095	2.981030
391.196442	1442.141602	10624.545898	1720.479492	3.031209
391.558960	1435.825806	10658.428711	1726.869629	3.155767
391.921509	1433.671021	10601.512695	1731.476196	3.248367
392.284027	1429.881470	10545.339844	1730.436035	3.297197
392.646484	1431.516235	10508.708008	1736.380249	3.358572
393.008911	1430.104492	10509.004883	1746.039551	3.479882
393.371307	1437.014648	10513.983398	1754.138672	3.493722
393.733673	1435.008423	10463.606445	1768.776367	3.696786
394.096008	1435.454468	10375.706055	1771.971191	3.764063
394.458344	1429.881470	10241.886719	1780.144531	3.974840
394.820587	1436.271484	10046.916016	1775.760742	3.942670
395.182831	1439.540894	9843.401367	1774.200562	3.982213
395.545013	1436.791870	9605.558594	1772.640015	4.111369
395.907196	1432.630859	9440.532227	1765.432617	4.155917
396.269287	1425.571899	9346.315430	1772.565552	4.380822
396.631409	1431.739258	9301.214844	1780.218750	4.428243
396.993469	1433.893921	9262.130859	1796.119751	4.627170
397.355530	1436.940430	9246.082031	1814.992676	4.841150
397.717499	1437.906250	9277.139648	1825.246460	4.941047
398.079468	1439.763794	9322.836914	1837.208984	5.041754
398.441376	1430.624634	9331.901367	1848.354492	5.286865
398.803284	1429.435669	9301.512695	1859.276978	5.460329
399.165131	1426.463501	9291.778320	1876.143677	5.717256
399.526978	1430.550171	9257.821289	1883.722656	5.789661
399.888763	1434.859741	9255.815430	1903.115601	5.987195
400.250519	1434.785522	9249.945313	1909.579712	6.075297
400.612244	1441.324219	9298.985352	1920.948242	6.103903
400.973938	1432.630737	9380.049805	1928.824341	6.243456
401.335602	1432.333496	9470.402344	1954.830444	6.500279
401.697205	1433.968140	9606.821289	1979.870483	6.679459
402.058807	1438.426392	9746.288086	2008.699829	6.864263
402.420349	1438.723633	9987.400391	2039.906860	7.032471
402.781860	1439.466675	10218.555664	2064.203857	7.116196
403.143341	1437.014648	10434.776367	2084.414063	7.195116
403.504822	1440.878418	10607.530273	2109.974365	7.299240
403.866241	1440.284058	10730.649414	2131.819336	7.443575
404.227631	1439.392212	10836.532227	2163.695313	7.707697
404.588959	1440.729858	10854.067383	2157.230713	7.611549
404.950287	1435.900024	10820.333984	2155.224609	7.665082
405.311554	1436.791626	10717.276367	2145.268311	7.634048
405.672821	1433.893921	10601.437500	2142.593262	7.730525
406.034027	1435.008423	10463.160156	2144.970947	7.863875
406.395203	1428.544312	10308.461914	2135.608887	7.962512
406.756348	1427.578247	10209.193359	2132.859619	8.031340
407.117493	1425.943481	10157.627930	2130.927490	8.073860
407.478516	1436.494629	10182.592773	2139.546875	8.038467
407.839600	1439.838257	10237.726563	2152.624023	8.101782
408.200592	1448.977417	10356.536133	2163.992432	8.027060
408.561554	1444.444824	10491.171875	2176.549561	8.092483
408.922485	1433.448120	10619.122070	2193.044922	8.269364
409.283417	1428.989868	10694.613281	2203.521484	8.359197
409.644257	1429.138550	10783.776367	2215.855713	8.409916
410.005096	1438.426270	10851.838867	2223.805908	8.343198
410.365906	1437.609009	10869.225586	2219.942383	8.294797
410.726715	1442.215820	10839.207031	2215.409912	8.228103
411.087433	1438.797852	10770.773438	2201.515381	8.173162
411.448120	1441.546997	10749.894531	2197.725830	8.123663
411.808807	1438.946411	10713.114258	2188.512451	8.082299
412.169434	1441.324219	10698.254883	2172.537354	7.899088
412.530029	1438.203491	10717.202148	2173.131836	7.920341
412.890564	1442.141602	10797.894531	2172.611572	7.807709
413.251099	1446.896851	10927.180664	2189.998291	7.838388
413.611572	1444.593384	11099.192383	2190.592773	7.726882
413.972076	1435.528687	11262.731445	2209.911377	7.879991
414.332489	1434.785522	11378.717773	2220.313721	7.899573
414.692871	1439.986694	11541.143555	2240.078369	7.920792
415.053223	1441.026978	11705.723633	2243.644775	7.819207
415.413574	1432.333496	11982.354492	2264.895508	7.891567
415.773834	1427.726929	12203.850586	2279.310303	7.902502
416.134094	1433.299438	12481.816406	2293.130615	7.782322
416.494263	1441.992798	12757.480469	2298.183350	7.566537
416.854462	1446.005249	13121.637695	2322.331787	7.505602
417.214630	1443.107422	13525.546875	2351.012451	7.514253
417.574738	1433.448242	13927.600586	2376.646729	7.549119
417.934784	1430.476074	14372.003906	2396.634033	7.465564
418.294861	1437.609009	14912.555664	2431.036377	7.372403
418.654846	1440.209595	15502.593750	2466.552979	7.298502
419.014832	1441.918579	16095.530273	2499.394775	7.216489
419.374756	1438.129272	16682.000000	2530.676514	7.167125
419.734680	1441.472778	17343.294922	2573.846191	7.121029
420.094543	1435.305664	17885.259766	2611.963623	7.152956
420.454376	1434.191040	18225.195313	2630.539307	7.124936
420.814148	1432.630737	18374.544922	2619.096436	7.003139
421.173920	1435.008423	18513.265625	2614.564209	6.906769
421.533691	1442.290405	18631.779297	2608.768555	6.785997
421.893341	1448.457397	18708.384766	2621.399902	6.795755
422.253021	1446.673950	18673.685547	2613.672363	6.774236
422.612640	1437.163208	18632.375000	2596.508545	6.742257
422.972260	1435.677124	18606.814453	2574.663330	6.633144
423.331757	1434.414063	18688.544922	2573.846191	6.603822
423.691315	1436.494629	18837.968750	2591.232910	6.635865
424.050781	1433.299438	18844.583984	2586.328857	6.622311
424.410248	1440.061035	18701.103516	2563.072266	6.506045
424.769653	1441.101196	18377.662109	2524.063232	6.394227
425.128998	1444.444946	18051.103516	2494.936768	6.325727
425.488373	1449.794556	17598.228516	2455.704834	6.229151
425.847656	1447.788452	17190.529297	2423.828857	6.199939
426.206940	1445.484985	16767.078125	2395.222412	6.198686
426.566193	1441.026855	16417.113281	2368.696533	6.194340
426.925385	1437.609009	16012.014648	2340.907227	6.197839
427.284576	1440.061157	15616.574219	2314.604248	6.168958
427.643677	1437.163208	15315.796875	2286.517578	6.119870
428.002777	1442.215820	15122.089844	2261.774658	5.990983
428.361847	1435.677124	14931.875000	2236.214600	5.931578
428.720856	1432.556519	14708.075195	2222.468506	5.950140
429.079865	1433.002319	14534.281250	2204.933350	5.892028
429.438812	1436.048706	14468.968750	2191.410156	5.795796
429.797760	1433.448120	14442.145508	2188.586914	5.804876
430.156616	1425.423218	14346.889648	2193.713623	5.945845
430.515503	1420.370728	14276.971680	2189.255615	5.980468
430.874268	1424.160156	14288.785156	2181.825195	5.889523
431.233093	1433.596680	14376.312500	2163.992432	5.643296
431.591827	1433.522461	14542.901367	2170.679688	5.623128
431.950562	1434.339844	14666.390625	2170.531494	5.563700
432.309204	1427.875366	14811.950195	2179.299072	5.614312
432.667877	1437.832031	14993.471680	2171.794189	5.414442
433.026459	1446.451050	15098.461914	2157.602295	5.209132
433.385010	1453.435547	15157.382813	2159.162842	5.149810
433.743561	1447.565552	15123.203125	2162.580811	5.228387
434.102051	1442.587402	15146.682617	2169.565186	5.304821
434.460510	1438.946655	15192.304688	2161.540283	5.253943
434.818939	1442.884644	15183.165039	2149.726318	5.144303
435.177338	1446.302368	15173.878906	2134.940186	5.016456
435.535675	1443.702026	15163.625000	2120.971191	4.936392
435.894012	1434.785522	15177.221680	2120.450928	4.989402
436.252289	1422.748535	15340.242188	2130.110352	5.082537
436.610535	1428.246948	15448.872070	2131.819336	5.018124
436.968719	1433.373657	15717.625000	2141.627197	4.958282
437.326935	1437.980469	15945.289063	2146.531250	4.884095
437.685028	1431.144653	16239.528320	2158.122314	4.909230
438.043152	1430.327515	16422.164063	2157.453857	4.850148
438.401215	1433.299438	16696.339844	2167.484619	4.810216
438.759277	1439.615234	16999.794922	2181.973633	4.770886
439.117249	1440.283813	17522.216797	2205.156250	4.756098
439.475250	1442.215820	17894.843750	2221.354004	4.735645
439.833130	1440.804077	18339.173828	2236.140381	4.706586
440.191071	1440.283813	18508.361328	2237.477783	4.670672
440.548889	1441.770020	18600.869141	2241.192871	4.658886
440.906708	1439.095215	18500.115234	2235.397217	4.667377
441.264496	1440.878418	18299.646484	2225.663818	4.655058
441.622223	1437.683228	18097.541016	2209.911377	4.635262
441.979950	1438.872192	17805.904297	2186.357422	4.567018
442.337616	1434.488281	17603.353516	2169.119141	4.543490
442.695251	1428.692749	17353.250000	2157.156494	4.574468
443.052887	1424.680298	17290.615234	2152.029541	4.584345
443.410461	1428.767090	17366.033203	2159.088379	4.582476
443.768005	1431.887695	17559.962891	2167.633057	4.561892
444.125458	1435.231445	17796.765625	2173.206055	4.510424
444.482941	1432.630859	18117.603516	2187.174805	4.522296
444.840393	1432.705078	18601.314453	2201.886963	4.480164
445.197754	1432.630737	19068.751953	2221.502686	4.473047
445.555084	1433.596680	19459.066406	2225.663574	4.394154
445.912415	1437.906250	19719.347656	2230.641846	4.336286
446.269714	1435.157104	19813.044922	2234.951660	4.351939
446.626953	1431.219116	19815.123047	2232.351074	4.357790
446.984161	1427.429688	19664.736328	2225.440674	4.375706
447.341309	1427.949585	19461.292969	2213.180908	4.354330
447.698456	1429.584351	19150.560547	2208.128174	4.393346
448.055542	1431.664917	18931.960938	2190.369873	4.335383
448.412598	1430.921753	18625.537109	2177.961426	4.344614
448.769653	1436.940430	18294.962891	2152.624023	4.245359
449.126617	1433.596680	17820.318359	2135.534424	4.283576
449.483582	1441.695679	17511.369141	2117.999023	4.208569
449.840515	1437.460327	17278.724609	2105.961914	4.220001
450.197388	1437.237671	17149.958984	2088.278076	4.143397
450.554230	1437.163208	17047.496094	2080.624756	4.122023
450.911041	1444.667969	16995.857422	2067.696045	4.006305
451.267822	1444.147827	17018.666016	2077.355713	4.065666
451.624573	1444.742188	17027.136719	2084.934326	4.108432
451.981262	1440.061157	16958.482422	2088.872314	4.180910
452.337921	1438.723633	16780.080078	2075.943604	4.153609
452.694580	1431.739258	16466.744141	2049.120361	4.106291
453.051147	1428.544067	16262.932617	2040.575684	4.125762
453.407715	1433.968262	15929.909180	2032.848267	4.131363
453.764221	1441.175659	15828.782227	2034.037109	4.120640
454.120728	1441.621460	15505.043945	2021.925659	4.126337
454.477142	1436.420288	15463.434570	2013.603638	4.114798
454.833557	1437.386108	15344.179688	2004.390137	4.077173
455.189911	1435.900024	15343.734375	2009.442749	4.123882
455.546265	1438.946655	15402.656250	2013.380737	4.113764
455.902557	1432.928101	15486.171875	2023.040039	4.199115
456.258820	1433.670898	15750.168945	2028.612915	4.155639
456.615051	1435.305664	15994.625000	2037.603516	4.136855
456.971252	1440.878296	16329.062500	2049.863525	4.090393
457.327393	1443.478882	16827.187500	2075.497803	4.108365
457.683502	1441.472656	17443.380859	2093.256348	4.073162
458.039612	1435.379883	18324.685547	2115.547119	4.027207
458.395630	1436.420288	19193.880859	2136.648926	3.943293
458.751648	1443.255981	19965.291016	2167.335938	3.909289
459.107605	1439.020874	20596.267578	2202.927002	3.987557
459.463562	1435.156860	20819.697266	2214.072510	4.018231
459.819458	1423.937378	20698.212891	2219.050781	4.125257
460.175323	1426.537964	20183.291016	2197.948975	4.112710
460.531158	1423.937378	19510.482422	2179.744873	4.178838
460.886932	1430.698853	18813.744141	2146.679932	4.118847
461.242676	1432.928101	18109.876953	2132.636719	4.195663
461.598419	1434.562622	17595.626953	2108.859863	4.172357
461.954102	1433.225220	17099.582031	2094.519287	4.221109
462.309723	1437.163086	16683.931641	2067.398682	4.133568
462.665344	1441.026978	16334.338867	2055.807617	4.127898
463.020905	1444.742188	16158.687500	2044.067749	4.073181
463.376373	1451.132202	16116.632813	2043.919067	4.042050
463.731873	1452.618164	16111.729492	2045.330688	4.043304
464.087341	1452.841187	16161.436523	2043.993530	4.019094
464.442749	1440.729858	16293.992188	2044.736450	4.066491
464.798126	1437.311890	16411.611328	2054.395752	4.120953
465.153503	1433.596680	16573.890625	2072.674561	4.221040
465.508820	1437.906250	16692.031250	2077.206787	4.191001
465.864105	1431.442017	16789.146484	2072.971436	4.177248
466.219330	1430.475952	16989.763672	2088.054932	4.226279
466.574524	1426.315063	17025.873047	2091.101318	4.261571
466.929657	1433.745239	16952.240234	2092.438721	4.244571
467.284790	1435.454224	16749.318359	2075.869385	4.181931
467.639893	1439.838257	16557.839844	2071.114014	4.175656
467.994934	1435.305664	16409.384766	2054.767578	4.136895
468.349945	1431.070435	16226.969727	2048.897461	4.175664
468.704926	1427.726685	16075.467773	2038.569336	4.170218
469.059875	1437.534668	15915.418945	2045.999634	4.202720
469.414764	1442.290039	15838.218750	2035.671509	4.121870
469.769653	1436.940430	15814.961914	2037.157715	4.174547
470.124451	1424.977539	15894.614258	2041.467285	4.260575
470.479248	1425.126099	15937.339844	2049.789307	4.304396
470.834015	1430.030151	15987.715820	2058.111084	4.314428
471.188721	1439.912476	16161.213867	2063.683838	4.237203
471.543365	1445.262207	16403.439453	2073.640137	4.200899
471.898010	1443.553223	16665.283203	2071.039551	4.122306
472.252625	1445.039429	16949.119141	2082.110840	4.109056
472.607178	1431.664917	17218.021484	2095.411133	4.204556
472.961700	1432.705078	17335.271484	2108.339600	4.248588
473.316193	1430.253296	17359.123047	2108.488281	4.257898
473.670654	1432.036499	17276.349609	2109.677002	4.276869
474.025055	1433.522461	17351.023438	2114.655518	4.279146
474.379456	1434.191040	17418.564453	2116.215820	4.266822
474.733795	1440.432617	17554.167969	2116.290283	4.194295
475.088104	1441.472778	17777.521484	2127.955811	4.202259
475.442383	1433.373901	18082.830078	2144.302490	4.269980
475.796570	1433.671021	18408.869141	2167.113037	4.320669
476.150787	1432.184937	18801.708984	2190.964600	4.368454
476.504944	1440.358032	19155.166016	2205.230225	4.317699
476.859070	1439.020874	19472.439453	2217.787354	4.318463
477.213135	1430.773071	19705.228516	2228.264404	4.363968
477.567200	1423.417358	19956.818359	2242.902100	4.421664
477.921173	1426.314941	20271.267578	2254.939209	4.397062
478.275146	1432.556274	20547.005859	2263.186523	4.345562
478.629089	1432.482056	20824.673828	2280.499268	4.372983
478.983002	1424.680298	21192.472656	2296.251221	4.409045
479.336823	1420.965210	21688.666016	2322.034180	4.445837
479.690643	1426.686523	22337.626953	2342.393311	4.379080
480.044403	1431.664673	23152.505859	2377.315674	4.353657
480.398163	1437.386108	24247.650391	2438.094971	4.387099
480.751862	1438.946655	25790.322266	2515.667236	4.421601
481.105499	1438.574829	27919.544922	2618.056396	4.454072
481.459137	1441.918579	31020.939453	2732.631104	4.363608
481.812744	1441.918579	35076.382813	2906.350830	4.353963
482.166290	1435.751343	40032.746094	3123.389404	4.372459
482.519806	1432.259155	45085.332031	3370.817139	4.440828
482.873291	1428.543945	49440.511719	3597.663330	4.517872
483.226715	1435.379883	52325.609375	3749.686768	4.547645
483.580139	1437.237427	53397.277344	3819.754150	4.585287
483.933502	1435.082642	52799.062500	3787.878174	4.580633
484.286804	1435.379883	50813.175781	3696.114502	4.578444
484.640106	1441.175415	47985.886719	3554.121826	4.539606
484.993347	1440.952637	45088.597656	3418.221924	4.530071
485.346558	1433.596680	42908.632813	3315.313232	4.536986
485.699738	1432.705078	41902.574219	3263.746826	4.524457
486.052887	1428.989868	42071.835938	3264.266846	4.515621
486.405975	1429.807251	42894.218750	3291.684814	4.490303
486.759064	1421.856934	43846.855469	3338.421143	4.517535
487.112061	1426.017944	44304.261719	3384.042969	4.566477
487.464996	1431.739258	44006.531250	3378.693359	4.573021
487.817963	1438.277710	42921.707031	3335.152100	4.572608
488.170868	1434.785522	41191.941406	3241.827881	4.545200
488.523743	1432.779297	39194.316406	3160.020508	4.574075
488.876587	1425.423462	37349.597656	3081.854248	4.610908
489.229401	1428.618286	36171.683594	3033.631592	4.619665
489.582153	1426.389282	35880.414063	3009.111572	4.593723
489.934845	1429.881714	36425.050781	3025.384033	4.559207
490.287537	1433.968262	37462.464844	3073.235107	4.549918
490.640198	1435.900024	38620.027344	3149.840820	4.609334
490.992798	1430.550293	39249.144531	3192.416748	4.658731
491.345337	1430.698853	39126.324219	3194.422852	4.678856
491.697876	1429.584351	37972.402344	3134.237305	4.664810
492.050354	1437.163208	36146.863281	3046.114502	4.635452
492.402832	1431.070313	33709.214844	2923.960938	4.625082
492.755219	1433.671021	31156.396484	2811.391846	4.635244
493.107605	1427.652466	28777.443359	2716.061768	4.710856
493.459930	1440.581177	26936.593750	2644.136719	4.720564
493.812225	1444.296387	25611.476563	2576.892578	4.686505
494.164490	1451.949585	24785.900391	2536.843506	4.649422
494.516724	1447.714233	24338.375000	2506.750732	4.626501
494.868896	1439.763794	24244.906250	2510.614746	4.695656
495.221039	1437.906250	24380.287109	2512.992432	4.686027
495.573120	1432.259155	24582.685547	2533.128418	4.755287
495.925201	1439.912476	24827.810547	2552.669922	4.757834
496.277222	1434.934082	25013.937500	2556.979736	4.758664
496.629211	1434.562500	25073.529297	2556.459473	4.745965
496.981140	1435.751465	24945.501953	2545.760010	4.721482
497.333069	1441.621460	24732.625000	2536.695068	4.701702
497.684967	1443.181763	24453.695313	2522.577637	4.690881
498.036804	1446.822632	24017.312500	2504.819092	4.687521
498.388580	1445.485352	23538.507813	2488.695313	4.721898
498.740326	1448.605835	23037.037109	2471.531494	4.738305
499.092072	1441.249878	22576.138672	2463.581055	4.837173
499.443756	1443.181763	22176.759766	2446.491455	4.839057
499.795410	1443.701782	21835.119141	2421.971680	4.797459
500.147003	1437.609009	21570.156250	2407.556885	4.817810
500.498566	1443.553223	21298.281250	2400.572266	4.820107
500.850098	1437.237671	21099.966797	2398.640381	4.889467
501.201599	1446.079590	20959.384766	2386.306152	4.818387
501.553009	1435.528687	20858.111328	2381.773682	4.871881
501.904449	1442.661743	20794.806641	2388.609619	4.888078
502.255859	1440.358398	20828.242188	2392.473389	4.910877
502.607178	1443.701782	20933.677734	2394.628174	4.879054
502.958405	1436.271484	20976.328125	2395.073975	4.906856
503.309692	1432.853516	21028.412109	2401.538330	4.943389
503.660919	1424.160156	21080.498047	2404.584717	4.987829
504.012115	1426.240723	21110.220703	2406.219482	4.978560
504.363251	1429.138550	21091.496094	2398.863525	4.931886
504.714294	1437.534668	21019.570313	2390.318359	4.865601
505.065369	1441.472778	21003.820313	2393.959229	4.868978
505.416443	1439.763794	20920.302734	2399.977783	4.929093
505.767395	1435.974487	20877.281250	2406.962402	4.994458
506.118317	1439.169312	20828.537109	2398.046143	4.945374
506.469238	1435.974243	20909.083984	2388.758057	4.892818
506.820160	1434.934082	21007.609375	2400.572266	4.933603
507.170929	1431.813477	21212.683594	2414.467041	4.967696
507.521729	1433.448120	21467.392578	2427.915771	4.963913
507.872498	1440.804077	21767.873047	2428.064209	4.856874
508.223236	1431.664673	22095.029297	2438.838135	4.874198
508.573883	1433.002319	22295.349609	2452.732666	4.887898
508.924500	1429.287109	22505.103516	2470.268311	4.939221
509.275116	1432.333496	22585.945313	2474.949463	4.928785
509.625702	1430.921875	22799.046875	2487.655273	4.945373
509.976196	1435.751587	22896.382813	2491.667236	4.920245
510.326660	1447.640015	23093.656250	2506.230713	4.890464
510.677124	1449.720337	23278.375000	2515.518555	4.882565
511.027557	1445.633789	23456.703125	2539.741211	4.970714
511.377869	1441.918579	23587.400391	2543.604980	4.974768
511.728180	1442.141602	23569.492188	2550.292236	5.008058
512.078430	1437.460327	23545.046875	2547.023193	5.018924
512.428650	1431.516235	23430.470703	2552.669922	5.096395
512.778931	1430.921875	23317.085938	2543.679443	5.084297
513.129028	1428.172485	23183.193359	2533.277100	5.079768
513.479126	1426.909546	23052.568359	2521.983154	5.063770
513.829285	1431.293335	22946.759766	2512.695068	5.026160
514.179382	1433.671021	22851.357422	2494.788330	4.954398
514.529297	1432.333618	22848.009766	2497.314453	4.972903
514.879272	1425.572144	23008.357422	2497.388916	4.966073
515.229187	1423.491577	23154.955078	2514.106934	5.018601
515.579163	1423.565918	23543.634766	2523.692139	4.973431
515.928955	1422.674194	23978.601563	2539.889893	4.953091
516.278748	1438.426392	24653.867188	2574.737793	4.894636
516.628540	1443.181641	25393.623047	2623.926270	4.929949
516.978333	1446.971191	26264.673828	2673.188965	4.940899
517.327942	1438.649292	27146.572266	2710.414551	4.946978
517.677612	1439.317993	27770.197266	2737.312256	4.929552
518.027222	1434.414063	28148.468750	2759.825928	4.961478
518.376831	1429.584351	28252.865234	2760.866211	4.963158
518.726379	1429.807251	28143.119141	2759.380127	4.977192
519.075867	1437.980469	27642.248047	2737.238037	4.958191
519.425293	1441.918579	27027.021484	2715.021484	4.975954
519.774658	1434.414063	26373.009766	2660.186279	4.915161
520.124084	1433.447876	25825.322266	2631.059326	4.909879
520.473389	1424.085938	25334.849609	2604.979004	4.938751
520.822693	1435.974243	24936.587891	2598.365967	4.946218
521.171997	1440.283813	24758.556641	2590.712891	4.933595
521.521240	1453.286987	24665.531250	2588.484131	4.890510
521.870361	1446.599609	24749.345703	2593.313721	4.920940
522.219482	1442.364624	24890.447266	2599.554932	4.935117
522.568604	1438.723633	25189.068359	2599.257813	4.886389
522.917664	1442.884644	25641.421875	2625.560791	4.887387
523.266724	1442.364380	26261.330078	2659.591553	4.904424
523.615662	1434.042480	27104.740234	2710.563232	4.972677
523.964600	1433.151001	28174.328125	2751.355469	4.929493
524.313538	1437.237671	29358.787109	2801.212646	4.885026
524.662354	1441.026978	30660.048828	2852.927490	4.832128
525.011169	1439.838257	31888.197266	2909.843018	4.827862
525.359985	1439.169312	33133.660156	2960.666016	4.800508
525.708740	1436.048706	34409.292969	3025.235352	4.819624
526.057434	1437.906250	35897.722656	3106.448242	4.841993
526.406067	1431.590454	37864.074219	3210.917725	4.883903
526.754700	1433.893921	40645.746094	3343.548096	4.870094
527.103333	1430.773315	43980.968750	3516.896484	4.902734
527.451782	1421.708374	47472.902344	3698.938232	4.944996
527.800293	1427.206665	50149.730469	3848.955322	4.970491
528.148743	1428.321289	51730.597656	3929.722412	4.972739
528.497131	1438.649414	51808.984375	3953.573486	4.992867
528.845642	1434.934082	50487.734375	3896.285889	5.017760
529.193909	1434.637085	48010.031250	3767.221924	5.008192
529.542175	1436.271606	44742.644531	3566.901611	4.919899
529.890503	1438.723633	41345.082031	3380.402344	4.865587
530.238770	1435.900024	38261.371094	3224.143799	4.855997
530.586914	1433.225098	36102.871094	3128.218750	4.888985
530.934998	1438.946411	34840.246094	3075.315186	4.899117
531.283142	1439.020874	34746.628906	3065.432861	4.883004
531.631226	1441.918579	35269.644531	3086.683594	4.862180
531.979248	1428.915649	36414.648438	3133.643311	4.872636
532.327148	1429.138550	37536.027344	3183.648438	4.859210
532.675110	1431.293335	38401.949219	3227.264404	4.857829
533.023071	1435.157104	38552.339844	3245.171143	4.876485
533.370850	1432.853638	37865.929688	3209.431641	4.876278
533.718689	1429.138672	36723.156250	3149.989502	4.875758
534.066467	1432.036499	35196.308594	3071.897461	4.856793
534.414246	1443.255981	33777.574219	3010.151611	4.845922
534.761963	1442.810181	32511.156250	2948.109131	4.845121
535.109619	1447.491333	31856.328125	2917.570313	4.834381
535.457153	1442.364624	31540.615234	2900.480713	4.844521
535.804749	1437.163452	31528.357422	2897.360352	4.852572
536.152344	1432.407837	31373.287109	2881.979736	4.841447
536.499817	1430.030151	31042.708984	2871.428955	4.867506
536.847229	1439.986694	30475.853516	2858.946045	4.886919
537.194641	1436.048462	29748.056641	2820.308350	4.889303
537.542114	1436.643066	28997.228516	2776.618408	4.861926
537.889404	1433.596680	28352.876953	2732.705322	4.825941
538.236694	1435.380005	27965.166016	2713.832520	4.818933
538.583984	1432.036499	28084.646484	2703.875977	4.771914
538.931213	1428.395508	28809.023438	2741.324951	4.795103
539.278381	1427.355347	30225.083984	2803.813477	4.779746
539.625488	1425.720703	32097.361328	2891.193359	4.777940
539.972595	1423.565796	34473.117188	2999.452148	4.768253
540.319641	1428.841309	36831.261719	3113.135498	4.757568
540.666687	1438.129028	38685.785156	3218.199463	4.779013
541.013611	1441.398438	39734.714844	3264.638672	4.761249
541.360596	1442.735962	39920.921875	3273.257813	4.757298
541.707458	1432.928101	39315.058594	3239.895752	4.769974
542.054260	1436.643188	37943.207031	3176.961670	4.767139
542.401062	1425.200562	36264.636719	3099.240967	4.805016
542.747864	1432.556519	34433.218750	3014.833008	4.794681
543.094666	1429.064331	32682.720703	2931.836914	4.808310
543.441284	1440.432617	30946.859375	2843.045166	4.753583
543.787903	1439.095215	29516.234375	2768.593750	4.735164
544.134460	1439.541016	28290.314453	2708.185547	4.724797
544.481079	1435.082642	27491.708984	2674.452148	4.756446
544.827637	1436.568848	26944.468750	2641.684570	4.724480
545.174072	1439.392212	26691.244141	2622.068604	4.683524
545.520508	1437.757690	26589.599609	2613.746826	4.675559
545.866943	1438.277710	26531.570313	2609.660156	4.668110
546.213318	1435.825806	26433.490234	2607.505371	4.687156
546.559631	1437.386230	26054.843750	2583.357178	4.655115
546.905823	1433.076660	25504.259766	2568.645264	4.717544
547.252136	1431.590454	24757.890625	2527.035400	4.696179
547.598389	1440.432495	23886.541016	2485.648926	4.656559
547.944458	1441.992798	22997.658203	2433.265381	4.598664
548.290588	1444.519165	22082.322266	2400.943604	4.634333
548.636658	1441.770020	21309.203125	2368.324951	4.663687
548.982727	1445.336548	20615.216797	2341.650146	4.675635
549.328735	1441.770142	20075.183594	2321.885742	4.723319
549.674622	1437.460571	19641.552734	2307.619873	4.780020
550.020569	1424.606079	19388.625000	2293.873535	4.838936
550.366455	1430.030273	19216.093750	2279.310059	4.774973
550.712280	1424.457397	19154.496094	2263.260742	4.730973
551.058044	1432.630737	19200.787109	2258.208252	4.646388
551.403748	1426.612305	19349.990234	2263.855225	4.671234
551.749512	1433.448120	19512.339844	2286.592041	4.719006
552.095154	1430.104492	19635.681641	2294.393799	4.747387
552.440735	1435.231445	19679.150391	2296.028564	4.718269
552.786316	1436.048828	19656.783203	2286.294678	4.666364
553.131897	1435.602905	19482.470703	2279.087158	4.673854
553.477417	1432.705078	19203.166016	2263.557861	4.675471
553.822815	1429.807251	18803.568359	2250.926514	4.726203
554.168213	1429.732910	18457.689453	2238.666748	4.750622
554.513672	1426.092163	18180.242188	2214.666992	4.706743
554.859009	1428.618530	17923.970703	2199.732178	4.674733
555.204285	1432.110718	17687.167969	2184.351318	4.627733
555.549500	1428.321289	17458.539063	2181.379395	4.697741
555.894714	1430.698853	17355.927734	2176.029541	4.680188
556.239990	1440.135376	17282.070313	2169.862305	4.606299
556.585022	1457.522095	17189.042969	2166.815674	4.508741
556.930115	1447.937012	17097.054688	2147.571289	4.470759
557.275146	1437.757690	16971.410156	2141.478760	4.530300
557.620178	1432.482056	16906.099609	2141.552979	4.582451
557.965149	1434.934204	16794.494141	2157.750977	4.705973
558.310059	1439.615234	16689.060547	2158.939697	4.717053
558.654968	1434.339722	16602.125000	2154.333008	4.746859
558.999756	1436.717407	16593.136719	2137.169189	4.621486
559.344604	1435.825806	16635.488281	2127.435547	4.550165
559.689331	1440.358276	16672.193359	2128.921631	4.520554
560.033997	1438.872192	16706.298828	2139.992676	4.592264
560.378723	1438.277832	16834.544922	2157.528320	4.671590
560.723389	1436.866089	16952.314453	2162.432373	4.676412
561.067932	1437.014648	17038.208984	2162.803955	4.652139
561.412476	1433.299438	16976.240234	2150.097900	4.611730
561.757019	1435.454468	16909.740234	2146.977051	4.598096
562.101501	1439.020874	16848.662109	2142.518799	4.565310
562.445862	1437.460327	16771.833984	2138.803955	4.573670
562.790222	1428.766968	16700.726563	2131.522217	4.601605
563.134644	1425.200562	16620.255859	2126.469482	4.615113
563.478943	1431.664917	16650.421875	2144.599609	4.684579
563.823181	1441.993042	16750.509766	2150.469238	4.627987
564.167358	1440.061035	16983.521484	2163.992432	4.657466
564.511536	1436.494507	17292.992188	2162.655029	4.579577
564.855774	1430.327271	17658.634766	2177.144043	4.601939
565.199768	1437.237427	18040.404297	2190.666992	4.537867
565.543823	1439.986816	18351.359375	2200.623779	4.497784
565.887817	1439.615234	18571.517578	2207.756592	4.483690
566.231812	1432.705078	18559.408203	2202.555420	4.495029
566.575745	1431.144531	18416.896484	2199.360596	4.522708
566.919617	1435.454102	18199.263672	2192.896240	4.518318
567.263428	1435.454102	17941.802734	2182.270996	4.524423
567.607239	1431.664917	17744.083984	2172.760010	4.543134
567.950989	1428.915649	17508.619141	2159.162842	4.541422
568.294678	1430.476074	17424.361328	2156.116455	4.536986
568.638367	1430.698853	17318.478516	2152.252686	4.541565
568.981995	1430.996094	17311.494141	2146.679932	4.506684
569.325623	1441.992798	17325.164063	2142.890381	4.412832
569.669128	1445.113647	17441.003906	2141.998779	4.356651
570.012573	1441.101196	17635.974609	2152.104004	4.390296
570.356140	1432.036255	17925.085938	2160.723145	4.418146
570.699524	1428.544067	18203.794922	2182.048096	4.491760
571.042908	1432.110718	18505.388672	2191.038818	4.445123
571.386230	1424.234497	18696.273438	2198.171631	4.480867
571.729492	1431.367676	18824.000000	2198.097412	4.408359
572.072815	1435.082886	18800.296875	2199.732178	4.403339
572.416016	1444.147827	18703.779297	2198.766113	4.372158
572.759094	1434.339844	18538.974609	2193.936523	4.440882
573.102234	1433.745239	18371.646484	2193.193604	4.483722
573.445374	1429.509888	18180.984375	2188.809814	4.532735
573.788391	1437.534546	18055.562500	2179.521729	4.464953
574.131409	1436.642944	17950.720703	2163.843994	4.403522
574.474365	1442.067017	17861.259766	2145.788330	4.285968
574.817261	1440.506836	17774.250000	2135.311523	4.253799
575.160156	1442.735840	17604.765625	2130.927734	4.258079
575.502930	1442.290039	17349.314453	2124.537842	4.288972
575.845703	1439.392212	17070.751953	2115.249756	4.323729
576.188477	1435.379883	16783.275391	2101.058105	4.337261
576.531250	1436.717407	16512.070313	2089.912842	4.332870
576.873901	1443.330444	16148.285156	2069.108154	4.255557
577.216431	1445.039185	15811.620117	2056.402344	4.255454
577.559082	1443.330200	15493.752930	2050.086426	4.318419
577.901611	1436.420288	15226.114258	2047.560059	4.431859
578.244080	1428.469849	14966.574219	2032.996948	4.465375
578.586487	1427.949829	14734.973633	2015.832886	4.417840
578.928955	1461.237305	14583.246094	2014.792480	4.218524
579.271301	1474.537598	14366.132813	2005.653320	4.119860
579.613647	1475.057617	14193.230469	1995.622437	4.093079
579.955872	1440.581055	13984.812500	1976.155151	4.269485
580.298157	1436.866089	13922.472656	1975.634888	4.315119
580.640320	1440.581055	13838.436523	1981.876343	4.366040
580.982483	1446.228149	13753.507813	1977.715454	4.318479
581.324524	1453.361206	13682.028320	1974.372070	4.260570
581.666626	1447.119751	13631.429688	1967.536133	4.271201
582.008728	1451.503540	13591.231445	1966.941772	4.245880
582.350647	1441.324219	13528.296875	1955.350220	4.252728
582.692566	1441.992798	13473.460938	1948.886108	4.213063
583.034424	1437.980591	13414.242188	1939.226685	4.185330
583.376343	1439.317993	13310.664063	1937.220581	4.194155
583.718201	1442.438843	13271.135742	1938.112183	4.190431
584.059937	1438.797852	13221.500977	1937.889282	4.235797
584.401611	1436.271606	13203.221680	1931.053345	4.204843
584.743347	1433.968262	13211.171875	1925.034790	4.169636
585.085022	1429.361450	13182.789063	1928.526978	4.246978
585.426514	1430.030273	13174.393555	1931.424805	4.269236
585.768127	1431.293335	13138.875000	1933.133911	4.286458
586.109619	1437.163208	13133.377930	1929.567383	4.209945
586.451172	1447.342773	13128.993164	1926.743774	4.103881
586.792542	1445.336548	13142.813477	1925.629272	4.105952
587.133850	1445.559448	13220.906250	1931.276367	4.124863
587.475220	1434.414063	13304.868164	1938.409546	4.245798
587.816589	1434.636841	13377.684570	1934.248535	4.183285
588.157776	1432.482056	13436.531250	1920.651245	4.066704
588.498962	1433.596680	13495.676758	1917.084595	4.008329
588.840210	1433.448120	13553.113281	1923.103149	4.040170
589.181335	1437.311890	13611.515625	1938.929565	4.120332
589.522400	1440.432617	13652.379883	1944.873657	4.130717
589.863403	1440.804077	13624.741211	1944.130737	4.131067
590.204407	1440.432617	13568.344727	1939.003906	4.110941
590.545410	1438.203491	13526.512695	1936.626099	4.123178
590.886353	1433.522461	13419.963867	1937.592163	4.205332
591.227112	1435.825806	13274.405273	1937.146118	4.234632
591.567932	1435.157104	13158.863281	1936.774780	4.278661
591.908752	1442.215820	13117.625000	1937.071899	4.238447
592.249512	1441.621460	13141.625000	1931.276367	4.185083
592.590149	1442.810181	13108.187500	1929.641602	4.173302
592.930786	1448.754517	13189.996094	1923.920288	4.046981
593.271423	1450.537720	13279.828125	1933.802734	4.085326
593.612000	1445.410767	13478.141602	1937.369141	4.088501
593.952576	1437.163086	13604.159180	1945.691040	4.179569
594.292969	1429.658691	13766.362305	1949.777710	4.216029
594.633484	1434.414063	13893.270508	1954.978638	4.178269
594.973877	1431.293335	14123.164063	1964.712524	4.202841
595.314209	1433.670898	14403.805664	1970.359375	4.137879
595.654480	1436.494507	14731.628906	1979.275757	4.082555
595.994812	1441.175659	15043.551758	1982.545288	3.979964
596.335022	1441.992798	15314.608398	1995.622559	3.990810
596.675171	1430.401733	15404.143555	2003.795898	4.103369
597.015320	1426.092163	15337.715820	2003.201294	4.148395
597.355408	1427.280884	15042.882813	1989.529663	4.129445
597.695496	1428.543945	14659.851563	1969.096313	4.085404
598.035461	1428.841309	14159.571289	1957.059204	4.149156
598.375366	1425.051758	13695.848633	1933.579590	4.144212
598.715271	1429.510132	13322.997070	1923.474487	4.153234
599.055176	1435.974243	12961.886719	1904.230103	4.062636
599.395081	1436.940308	12696.403320	1900.663696	4.118521
599.734802	1440.061035	12490.139648	1885.654663	4.032493
600.074524	1433.150879	12420.815430	1885.431641	4.116260
600.414246	1436.197266	12381.359375	1876.886719	4.026340
600.753906	1440.506836	12405.285156	1881.196289	4.019137
601.093506	1443.330444	12481.519531	1882.607910	3.979615
601.433044	1439.838257	12646.471680	1890.558228	4.021903
601.772583	1433.373657	12845.676758	1887.437622	3.978724
602.112122	1432.333618	13132.561523	1897.617188	3.976705
602.451538	1438.723633	13474.874023	1903.115601	3.858310
602.790894	1433.596680	13845.867188	1927.412598	3.978450
603.130310	1432.853638	14244.872070	1941.158569	3.967407
603.469604	1427.057983	14633.104492	1955.870605	4.004322
603.808838	1438.203491	14949.708008	1962.780762	3.882449
604.148010	1446.599609	15160.429688	1971.622681	3.828420
604.487305	1449.720337	15217.495117	1974.371948	3.810722
604.826416	1446.228149	15126.250000	1978.607056	3.891653
605.165527	1441.101196	14836.989258	1962.409058	3.891551
605.504456	1444.444824	14478.405273	1949.629028	3.875907
605.843445	1444.222046	14061.864258	1931.647827	3.863050
606.182434	1445.410767	13670.808594	1914.112305	3.833835
606.521423	1441.770142	13277.674805	1900.812134	3.878386
606.860229	1445.931030	12972.363281	1884.465454	3.804598
607.199036	1446.228149	12808.081055	1879.338745	3.811972
607.537903	1445.039429	12760.155273	1879.932983	3.843474
607.876648	1436.568726	12846.643555	1889.295288	3.967779
608.215271	1433.448120	12982.541992	1891.747437	3.968271
608.553955	1425.794922	13174.094727	1900.737915	4.042653
608.892578	1426.909546	13333.920898	1904.230103	4.008735
609.231140	1426.463745	13442.476563	1902.372559	3.960622
609.569641	1430.773315	13427.096680	1885.728638	3.792456
609.908081	1436.048828	13353.757813	1882.533691	3.746398
610.246521	1433.745483	13177.661133	1878.372681	3.786022
610.584961	1438.277832	12937.143555	1877.183960	3.816952
610.923340	1438.575073	12620.093750	1858.608276	3.756495
611.261597	1440.729858	12267.899414	1851.772461	3.796399
611.599854	1441.398560	11985.473633	1838.323730	3.764438
611.938110	1440.655640	11742.281250	1830.670532	3.785955
612.276245	1441.472778	11548.426758	1814.101074	3.686851
612.614319	1435.231445	11369.504883	1809.791382	3.770381
612.952393	1431.739258	11187.241211	1806.967896	3.846328
613.290466	1433.225220	11066.645508	1802.063965	3.828742
613.628479	1437.906250	10906.969727	1792.553223	3.745322
613.966370	1436.048706	10801.833008	1784.379883	3.719189
614.304260	1442.438843	10691.196289	1781.110474	3.661807
614.642151	1439.764038	10632.644531	1776.578125	3.663858
614.979980	1433.894043	10602.775391	1764.615234	3.606996
615.317749	1435.900024	10544.076172	1759.042603	3.547830
615.655396	1449.869141	10502.540039	1755.773071	3.379157
615.993164	1459.305298	10448.449219	1764.317993	3.393123
616.330811	1446.302368	10446.813477	1775.017578	3.652184
616.668396	1435.528442	10452.833008	1780.961914	3.830784
617.005859	1438.352051	10468.510742	1772.417114	3.699438
617.343445	1442.215820	10475.198242	1763.575195	3.557622
617.680908	1439.986694	10432.325195	1766.547241	3.631542
618.018311	1432.482056	10400.968750	1774.497559	3.813525
618.355652	1428.692749	10364.040039	1782.596680	3.960718
618.692993	1429.658569	10367.681641	1776.057983	3.875571
619.030273	1438.797852	10353.563477	1771.822754	3.735655
619.367554	1443.850464	10318.864258	1767.215820	3.643548
619.704712	1441.472656	10289.291992	1765.135376	3.658107
620.041870	1431.367554	10269.824219	1768.553345	3.814985
620.379028	1429.955933	10238.988281	1753.841431	3.676743
620.716064	1430.773315	10189.354492	1753.767090	3.687741
621.053040	1436.197266	10134.444336	1745.371094	3.554438
621.389954	1433.819702	10071.659180	1753.395630	3.699720
621.726929	1436.643188	10041.790039	1749.086060	3.630884
622.063843	1441.546997	10042.086914	1740.689819	3.478187
622.400635	1442.661499	10090.754883	1741.581543	3.456485
622.737427	1443.850464	10140.091797	1741.953125	3.427948
623.074219	1445.113647	10150.271484	1758.225220	3.596851
623.410889	1440.358276	10164.017578	1758.151001	3.642883
623.747559	1440.952637	10193.887695	1765.209595	3.704551
624.084167	1437.386108	10227.769531	1764.243774	3.718355
624.420715	1441.695679	10326.741211	1758.819702	3.569188
624.757324	1439.838257	10406.765625	1754.955933	3.514221
625.093750	1437.088867	10598.020508	1759.785645	3.522532
625.430176	1436.866089	10768.396484	1778.138306	3.657195
625.766602	1437.237427	10997.545898	1788.763672	3.676934
626.102905	1432.705078	11162.348633	1790.175415	3.674033
626.439209	1436.643066	11304.416992	1784.231079	3.522456
626.775452	1437.906250	11370.916992	1784.900024	3.493339
627.111694	1435.157104	11374.929688	1782.819458	3.497689
627.447876	1436.717407	11296.093750	1786.386108	3.546560
627.783997	1435.379883	11152.688477	1784.602661	3.593822
628.120056	1443.924805	10997.545898	1783.265259	3.551956
628.456055	1442.438843	10814.166992	1773.383179	3.531305
628.792053	1451.206543	10652.260742	1765.655640	3.417533
629.128052	1444.519165	10465.538086	1760.454468	3.502213
629.463928	1433.968384	10337.365234	1765.061035	3.718723
629.799744	1421.485352	10220.338867	1758.671021	3.832155
630.135559	1425.943481	10132.810547	1753.767090	3.765115
630.471375	1425.423462	10035.399414	1743.439087	3.693572
630.807068	1424.903320	9958.718750	1747.971558	3.785742
631.142700	1423.714355	9890.583008	1743.067505	3.771797
631.478333	1437.088867	9813.085938	1742.250366	3.643286
631.813965	1442.513062	9737.891602	1731.253418	3.480737
632.149475	1446.079590	9684.764648	1737.791992	3.540764
632.484924	1445.708008	9686.995117	1738.460815	3.552270
632.820435	1447.862793	9711.885742	1743.067505	3.572167
633.155884	1447.045532	9732.690430	1734.894409	3.474067
633.491150	1440.581055	9777.569336	1737.569214	3.562295
633.826477	1431.664673	9818.583984	1738.015015	3.652716
634.161804	1427.578125	9845.184570	1738.535156	3.694127
634.497009	1423.565796	9798.522461	1731.848022	3.681001
634.832153	1430.475952	9694.795898	1728.504272	3.606205
635.167297	1431.590454	9573.163086	1727.166626	3.630455
635.502380	1433.968262	9436.222656	1729.990234	3.699232
635.837463	1436.345825	9327.295898	1723.451538	3.638417
636.172424	1439.392212	9262.280273	1721.148315	3.601689
636.507324	1438.203491	9225.796875	1714.906860	3.553131
636.842224	1431.293335	9182.849609	1710.745972	3.605117
637.177124	1430.996094	9082.987305	1707.402222	3.612212
637.511963	1427.132446	8990.406250	1708.145142	3.715490
637.846741	1429.435669	8887.050781	1705.544556	3.702375
638.181396	1427.280762	8800.339844	1693.804810	3.614837
638.516113	1433.447876	8740.081055	1680.430298	3.380249
638.850769	1432.110718	8694.458008	1680.727539	3.423367
639.185303	1433.819702	8648.614258	1686.374634	3.500515
639.519836	1436.345825	8569.852539	1692.467285	3.590400
639.854370	1435.528687	8504.318359	1687.266235	3.561254
640.188843	1434.339844	8430.015625	1686.151733	3.599536
640.523254	1433.448242	8368.195313	1684.071167	3.614017
640.857605	1437.534790	8296.493164	1688.380859	3.657203
641.191895	1435.900024	8261.050781	1679.315918	3.566454
641.526184	1435.157104	8249.534180	1682.956543	3.636421
641.860413	1435.082642	8237.719727	1682.213501	3.632869
642.194580	1436.494507	8218.995117	1683.550903	3.642556
642.528748	1437.757690	8190.091309	1672.034180	3.469563
642.862793	1439.169312	8162.228027	1664.009399	3.344312
643.196838	1435.528442	8126.042969	1663.638062	3.409448
643.530823	1426.463501	8064.965332	1664.752441	3.589499
643.864746	1430.475952	8019.343750	1671.142578	3.652625
644.198669	1434.116699	8019.937988	1664.826782	3.503133
644.532532	1448.605835	8011.021973	1664.603882	3.291441
644.866333	1433.893921	8018.378418	1665.792603	3.521896
645.200073	1431.442017	7987.468262	1676.492188	3.737785
645.533813	1428.915649	7994.006348	1669.879272	3.670377
645.867554	1433.893921	8012.210938	1665.866821	3.526326
646.201172	1437.980469	8031.900879	1662.523438	3.405303
646.534729	1437.757446	8051.442871	1673.074341	3.558030
646.868225	1434.042480	8047.653809	1674.634766	3.637835
647.201782	1429.807251	8038.588379	1672.034180	3.665228
647.535217	1427.058105	8044.310059	1668.541992	3.649308
647.868591	1435.602905	8023.876953	1669.284790	3.546936
648.201965	1430.475952	8002.255371	1672.182739	3.677950
648.535278	1435.454102	7956.484375	1671.959961	3.626817
648.868591	1435.231323	7963.765625	1670.473755	3.603296
649.201782	1446.748413	7938.799316	1664.901001	3.360303
649.534912	1441.324219	7971.418457	1669.953613	3.501165
649.868103	1447.491333	7972.161621	1668.541992	3.387921
650.201172	1448.457397	8008.941406	1676.863892	3.481550
650.534180	1452.469604	8008.867188	1673.074341	3.364725
650.867188	1440.061035	7991.629395	1676.046387	3.601967
651.200134	1433.893921	7986.576660	1676.269409	3.698874
651.533020	1428.989868	7974.763184	1681.024780	3.850346
651.865845	1438.129028	7966.291504	1681.396118	3.726425
652.198608	1440.655396	7948.681641	1681.619141	3.702563
652.531433	1443.107422	7907.369629	1679.984375	3.664408
652.864136	1438.352173	7883.443848	1681.247559	3.768688
653.196777	1568.753418	7996.013184	1817.370117	3.868160
653.529358	1573.137207	7955.963379	1811.946167	3.741430
653.861938	1568.158813	7883.667480	1800.652222	3.681309
654.194519	1428.246704	7643.669434	1654.052856	3.632998
654.526978	1418.364624	7602.356934	1653.755737	3.806459
654.859375	1424.011597	7581.923828	1661.706055	3.859985
655.191833	1430.327271	7600.277344	1671.068359	3.901832
655.524170	1429.361450	7583.410156	1669.359253	3.899836
655.856445	1426.166382	7572.859375	1667.724609	3.929889
656.188660	1430.327515	7575.162109	1674.634644	3.975813
656.520874	1432.853882	7617.589355	1674.188843	3.902107
656.853088	1435.082886	7701.773926	1673.297241	3.801278
657.185181	1427.949707	7795.544434	1675.080444	3.881069
657.517212	1421.708374	7921.636230	1686.597290	4.075259
657.849243	1422.971558	8088.519531	1700.492065	4.163507
658.181274	1429.361450	8289.210938	1708.888184	4.074823
658.513123	1436.271606	8438.040039	1707.328003	3.871256
658.844971	1428.767090	8590.434570	1703.835571	3.840844
659.176819	1428.544312	8701.516602	1699.154663	3.720767
659.508667	1429.435913	8775.522461	1711.488892	3.839500
659.840393	1442.067383	8756.204102	1711.043091	3.677477
660.172058	1438.872192	8674.842773	1709.928589	3.745958
660.503662	1442.141602	8559.822266	1708.591187	3.743489
660.835266	1428.989868	8396.504883	1709.185547	4.021458
661.166931	1430.773071	8192.840820	1705.247437	4.059030
661.498413	1425.720703	8028.557129	1700.714966	4.164790
661.829773	1432.705078	7816.794434	1701.532349	4.210895
662.161194	1430.921875	7665.439941	1697.445679	4.274971
662.492615	1431.293335	7499.670410	1692.318726	4.301404
662.823975	1425.646362	7387.696777	1686.820313	4.380606
663.155212	1432.259277	7281.815918	1678.646973	4.212075
663.486450	1434.711304	7192.131348	1673.297241	4.143973
663.817627	1440.655396	7141.085938	1663.415039	3.907769
664.148743	1437.237427	7084.839355	1662.226196	3.983793
664.479858	1435.825806	7041.222656	1652.269531	3.861345
664.810913	1430.921875	7015.143066	1651.898071	3.957153
665.141907	1429.807251	6995.898438	1650.189087	3.959364
665.472778	1425.646362	6963.948730	1654.647461	4.134861
665.803711	1439.912476	6950.499512	1655.241821	3.907557
666.134583	1434.859863	6943.440918	1655.316040	4.002050
666.465454	1443.924805	6952.654785	1658.288086	3.891338
666.796143	1433.076538	6956.221191	1666.312866	4.222890
667.126831	1437.163086	6946.115723	1674.337524	4.305254
667.457458	1439.169312	6934.747559	1673.297363	4.260299
667.788147	1438.872070	6901.236816	1677.012573	4.359660
668.118774	1442.067261	6884.593262	1668.393433	4.158477
668.449219	1435.379883	6897.596191	1674.411743	4.376097
668.779663	1439.466675	6908.221191	1670.325195	4.221409
669.110107	1435.008423	6940.097168	1682.807983	4.501282
669.440552	1431.070435	6940.617188	1680.430298	4.525959
669.770874	1427.578125	6939.725098	1678.201172	4.546741
670.101135	1428.098267	6898.933594	1677.383789	4.556626
670.431396	1433.002319	6857.175293	1668.170410	4.335557
670.761597	1435.231323	6786.364746	1670.176636	4.390571
671.091797	1435.602905	6752.259277	1670.845337	4.424631
671.421875	1437.237427	6725.510254	1676.120728	4.517227
671.751892	1433.002319	6720.161621	1672.851440	4.536446
672.081909	1437.980469	6682.118652	1673.371460	4.488650
672.411865	1438.946411	6648.830566	1684.739868	4.717830
672.741821	1440.358276	6606.626465	1688.083496	4.795052
673.071716	1436.866089	6605.363281	1679.018555	4.685162
673.401550	1433.819702	6546.738770	1673.074219	4.679411
673.731262	1439.169312	6533.810059	1674.114624	4.611617
674.060974	1435.231445	6483.730469	1672.776978	4.705270
674.390625	1436.940430	6474.888184	1673.743164	4.700381
674.720276	1434.859863	6410.021484	1665.198242	4.629767
675.049927	1435.305664	6388.548340	1666.164185	4.660755
675.379395	1430.476074	6363.062500	1654.052734	4.532646
675.708923	1425.720703	6345.229004	1656.281860	4.686671
676.038330	1428.915649	6350.728027	1660.740234	4.710146
676.367737	1432.928101	6360.610840	1665.124023	4.712071
676.697083	1436.345825	6406.603516	1667.576172	4.652281
677.026428	1444.444824	6394.343750	1673.148804	4.620377
677.355652	1446.228149	6412.324707	1679.018555	4.687593
677.684875	1446.748413	6431.197754	1684.962769	4.779151
678.013977	1435.008423	6472.807129	1683.550903	4.933553
678.343079	1431.070435	6524.001953	1691.724243	5.117952
678.672180	1431.144897	6587.084473	1692.244507	5.064055
679.001221	1422.822876	6682.043457	1695.216431	5.179352
679.330139	1427.578247	6766.303223	1697.742798	5.060470
679.659058	1426.092163	6849.225098	1706.882202	5.177635
679.987976	1442.958984	6928.431641	1706.659180	4.807247
680.316772	1444.816406	6968.035156	1712.603516	4.848389
680.645630	1444.890625	6965.880371	1714.832520	4.889375
680.974304	1438.575073	6894.623535	1718.696289	5.134141
681.302979	1434.191040	6851.082520	1715.947266	5.201437
681.631653	1432.407837	6803.008301	1710.077271	5.170175
681.960266	1433.225098	6785.250000	1714.535278	5.256145
682.288757	1429.658691	6724.916504	1710.374390	5.301266
682.617249	1429.658569	6638.502441	1714.163696	5.461963
682.945679	1432.779297	6531.878418	1710.002808	5.436716
683.274109	1440.506836	6429.712402	1701.309448	5.227337
683.602478	1447.491211	6341.812012	1693.730469	5.031122
683.930725	1445.708008	6229.242676	1696.554077	5.243948
684.259033	1445.336426	6133.466309	1700.046265	5.433080
684.587280	1443.627563	6059.832520	1698.857422	5.528997
684.915344	1444.593384	6035.238281	1697.742798	5.514463
685.243469	1439.020874	6004.849121	1702.572632	5.772266
685.571533	1435.751587	5995.040527	1704.875977	5.902771
685.899536	1439.317993	5974.087402	1694.250610	5.621733
686.227539	1446.079590	5980.997559	1691.575684	5.413463
686.555420	1444.296265	6013.318848	1692.170288	5.425100
686.883301	1441.621460	6051.585449	1694.102051	5.476845
687.211121	1431.962036	6067.634766	1696.479858	5.706137
687.538940	1437.906250	6057.752441	1696.999878	5.608274
687.866638	1432.407837	6027.584473	1703.018555	5.889017
688.194336	1430.401733	6032.191406	1710.745972	6.092070
688.521973	1421.931030	5980.700684	1709.557007	6.309290
688.849609	1422.599976	5932.255371	1707.253540	6.312091
689.177063	1425.869141	5844.354980	1695.736694	6.107693
689.504578	1427.875366	5776.144531	1701.978149	6.303722
689.832031	1431.590454	5745.160645	1699.080444	6.201128
690.159485	1439.912476	5684.307129	1703.910034	6.219911
690.486816	1437.460327	5644.109375	1695.662476	6.137953
690.814087	1436.568726	5591.354004	1688.380737	6.060771
691.141296	1433.076538	5566.314453	1677.383789	5.910796
691.468506	1432.259277	5538.450684	1673.965942	5.886395
691.795715	1431.144653	5488.073730	1680.653320	6.150186
692.122803	1427.578247	5434.278320	1680.727539	6.318149
692.449829	1430.550293	5404.111328	1681.470703	6.314749
692.776855	1428.469727	5370.154785	1680.133301	6.384670
693.103821	1425.051880	5351.802246	1680.876343	6.514915
693.430664	1426.314941	5309.152344	1688.083496	6.741682
693.757568	1427.355103	5291.690918	1684.368530	6.650908
694.084351	1436.345825	5274.229980	1681.842163	6.396658
694.411133	1438.426392	5273.189941	1674.263306	6.149972
694.737854	1443.999023	5252.979980	1671.216797	5.965317
695.064575	1440.209595	5236.558105	1680.578979	6.331594
695.391174	1444.890625	5234.849609	1680.132935	6.206988
695.717773	1451.578003	5259.146484	1690.164063	6.266100
696.044250	1455.813110	5304.917480	1684.814087	5.949461
696.370789	1456.333374	5354.700195	1693.433228	6.082031
696.697205	1448.011597	5430.414551	1699.154663	6.306320
697.023621	1438.426392	5544.246094	1718.621948	6.824351
697.349915	1439.615234	5696.343750	1726.795288	6.746497
697.676208	1435.454224	5880.837402	1749.011719	7.053554
698.002380	1438.649292	6093.640625	1765.878540	7.029643
698.328674	1426.315063	6305.998047	1788.838013	7.429231
698.654724	1430.252930	6484.101563	1803.029785	7.376099
698.980896	1435.157104	6578.465332	1807.859375	7.246353
699.306946	1437.460449	6579.283203	1812.912109	7.301918
699.632935	1441.398438	6490.119629	1810.385742	7.308530
699.958862	1435.677246	6353.923340	1796.788452	7.342276
700.284729	1439.763794	6181.317871	1783.934204	7.258599
700.610596	1432.927856	6018.445801	1765.358398	7.249574
700.936340	1439.243652	5856.763184	1766.026978	7.397439
701.262146	1430.624512	5706.077637	1755.624634	7.601536
701.587830	1427.206665	5549.075684	1749.754883	7.825290
701.913513	1425.720703	5378.476563	1743.290527	8.034137
702.239075	1436.940308	5238.787598	1738.757813	7.938707
702.564697	1445.559570	5135.358887	1733.779663	7.811267
702.890137	1438.352051	5061.204590	1721.594116	7.818206
703.215698	1427.132324	5000.127441	1721.222534	8.230915
703.541016	1423.268555	4914.679199	1713.866577	8.323227
703.866455	1424.977539	4848.921387	1704.132813	8.153033
704.191711	1425.051758	4804.562500	1699.749146	8.128318
704.517029	1426.240723	4785.763672	1706.287720	8.335916
704.842163	1427.280884	4771.274902	1713.272095	8.552383
705.167419	1436.643188	4738.358887	1700.789185	8.000264
705.492493	1437.163452	4725.652832	1691.501465	7.734190
705.817566	1439.838257	4705.442871	1688.157837	7.604092
706.142578	1443.330444	4692.217285	1695.959595	7.775868
706.467590	1440.061035	4684.786621	1692.615845	7.783549
706.792480	1439.540894	4678.916992	1695.142212	7.890449
707.117371	1437.088867	4685.455566	1693.730469	7.900635
707.442200	1439.095093	4687.907227	1709.334106	8.318088
707.766907	1439.615234	4694.742676	1710.077148	8.308797
708.091675	1438.575073	4702.545410	1716.690063	8.520758
708.416321	1439.020874	4724.835938	1712.231934	8.314864
708.741028	1437.386108	4743.188965	1716.318481	8.437659
709.065552	1431.590454	4744.303223	1717.433105	8.628657
709.390137	1426.612305	4733.900879	1723.080078	8.964073
709.714600	1422.971558	4760.798340	1724.194702	9.024529
710.039063	1424.531738	4807.162598	1734.819946	9.172985
710.363403	1424.977539	4856.277344	1735.414429	9.047210
710.687744	1421.336914	4911.261230	1749.829102	9.412588
711.012085	1426.315063	4972.115234	1746.411133	9.027471
711.336304	1427.280884	4998.641113	1755.698853	9.195879
711.660461	1436.048462	4993.662598	1748.640137	8.786553
711.984619	1434.042480	4960.821289	1749.457397	8.943428
712.308716	1432.407837	4928.945313	1750.200562	9.088783
712.632751	1429.212891	4890.159668	1746.634155	9.171515
712.956726	1431.144653	4834.283691	1745.816772	9.246525
713.280701	1442.884644	4794.605957	1733.556641	8.672320
713.604553	1442.587402	4747.721191	1737.494751	8.922706
713.928467	1439.169434	4727.510742	1744.256348	9.277836
714.252258	1435.008423	4718.668457	1752.132446	9.657639
714.575989	1439.540894	4709.529297	1749.680298	9.484420
714.899719	1439.169312	4726.916016	1739.872559	9.146181
715.223267	1436.494507	4723.646973	1735.265747	9.089060
715.546936	1440.283813	4723.721191	1734.745728	8.968099
715.870422	1440.655273	4702.544922	1737.717773	9.107068
716.193970	1438.649048	4673.344238	1739.575195	9.303076
716.517395	1436.643066	4660.117676	1745.222290	9.572876
716.840820	1437.906250	4613.456543	1744.850708	9.665867
717.164124	1438.500610	4564.416016	1739.649536	9.633944
717.487488	1433.299438	4511.661133	1730.436035	9.652426
717.810730	1430.698853	4461.729980	1724.120239	9.680579
718.133972	1428.321289	4395.674805	1719.067749	9.798174
718.457092	1433.671021	4325.161621	1718.473267	9.849669
718.780212	1433.819702	4258.140137	1712.380493	9.862932
719.103210	1432.556519	4226.338867	1713.792114	10.066483
719.426208	1429.881470	4169.720215	1712.380493	10.310790
719.749207	1433.745239	4129.819824	1709.854126	10.241144
720.072083	1437.014648	4075.727295	1702.572632	10.063922
720.394958	1434.414063	4054.104736	1697.742798	10.051902
720.717773	1425.126343	4028.247803	1698.634399	10.506926
721.040527	1419.999390	4005.213867	1699.303345	10.803899
721.363281	1422.153931	3971.926514	1695.736816	10.729698
721.685913	1431.961914	3950.824219	1695.067993	10.445434
722.008545	1438.054810	3929.499268	1697.296997	10.405297
722.331055	1439.689575	3916.867920	1702.275269	10.600194
722.653503	1437.906250	3897.029297	1692.987427	10.372851
722.976013	1438.277710	3898.366455	1685.705688	10.057685
723.298401	1436.568848	3894.651611	1682.584961	10.008455
723.620789	1430.030273	3895.691650	1686.002930	10.381501
723.943115	1428.098267	3889.747314	1689.718140	10.627831
724.265381	1425.943481	3891.010742	1685.334351	10.522669
724.587585	1429.955933	3878.602295	1699.600464	11.011983
724.909790	1431.219116	3892.645264	1703.092773	11.045371
725.231873	1432.036499	3902.899170	1713.197876	11.379077
725.553894	1435.825806	3936.558350	1713.420898	11.100552
725.875916	1478.475586	3989.313232	1758.968384	11.171284
726.197937	1479.515747	3995.628906	1753.469849	10.887987
726.519775	1479.590210	3989.981689	1743.884888	10.528026
726.841675	1438.797852	3943.542725	1698.263062	10.358948
727.163513	1442.587402	3960.855469	1705.916382	10.456749
727.485291	1437.534790	4000.310303	1706.956421	10.512885
727.806946	1440.061157	4044.000000	1710.671509	10.392346
728.128662	1436.643188	4076.321533	1716.392944	10.597874
728.450256	1446.376831	4080.928467	1727.909790	10.686181
728.771790	1442.438843	4074.240967	1731.476196	10.982488
729.093323	1443.776245	4059.305908	1727.018188	10.829238
729.414795	1440.061157	4040.804932	1726.943848	11.030794
729.736145	1439.169434	4026.018799	1734.151367	11.403135
730.057495	1437.609009	4027.653564	1731.253418	11.337427
730.378845	1424.977539	4056.111328	1737.271851	11.869191
730.700134	1423.640015	4084.049072	1734.299805	11.677143
731.021301	1422.822754	4102.476074	1745.593750	12.045252
731.342468	1435.751465	4113.324219	1742.175903	11.444113
731.663574	1433.968140	4125.509766	1749.011719	11.704949
731.984680	1434.488403	4143.119629	1750.869507	11.680478
732.305664	1432.036499	4149.732910	1757.259399	11.966860
732.626648	1432.259277	4147.131836	1748.045898	11.631729
732.947571	1434.562622	4138.810059	1746.113892	11.520812
733.268433	1437.014648	4142.971191	1743.067505	11.310339
733.589233	1439.986694	4128.705078	1748.566040	11.476820
733.909973	1431.962036	4100.172363	1750.052124	11.921476
734.230713	1428.321289	4038.278564	1736.231812	11.797531
734.551331	1424.903320	3999.492432	1728.058228	11.774885
734.871948	1426.389282	3950.229736	1716.541382	11.496452
735.192505	1424.903320	3903.865234	1724.789063	12.097231
735.513062	1427.132324	3851.555908	1732.888062	12.611482
735.833435	1432.779297	3803.556396	1741.507202	13.022224
736.153931	1438.797852	3778.887695	1734.968628	12.656384
736.474304	1448.902954	3753.550537	1726.349487	12.038568
736.794617	1444.073608	3744.931396	1713.272095	11.699918
737.114807	1445.113770	3734.008789	1706.584961	11.423468
737.434998	1440.432617	3735.272217	1703.464233	11.461874
737.755188	1446.451172	3733.860596	1707.030640	11.391903
738.075256	1437.683228	3746.417725	1711.711792	11.869211
738.395325	1434.859863	3768.485596	1706.213379	11.627979
738.715271	1437.609009	3804.893799	1706.436157	11.355928
739.035278	1444.370728	3823.915283	1709.259766	11.131923
739.355164	1437.683472	3810.094971	1716.764282	11.763592
739.675049	1432.630737	3793.079834	1725.457886	12.405569
739.994873	1429.955933	3767.593750	1729.544556	12.815870
740.314636	1435.900024	3754.962158	1732.813843	12.803185
740.634277	1433.745239	3717.141846	1727.018188	12.843716
740.953979	1433.819702	3678.579102	1710.820190	12.339875
741.273499	1433.373657	3641.055908	1704.727417	12.291342
741.593140	1434.191040	3606.802734	1700.194824	12.243503
741.912598	1427.875366	3585.031982	1705.470337	12.868558
742.232117	1433.819702	3555.013672	1694.101929	12.270554
742.551453	1433.670898	3529.453369	1697.742798	12.600158
742.870850	1441.026978	3501.961670	1689.866821	12.074126
743.190063	1433.893921	3475.361084	1691.130005	12.600550
743.509338	1437.088867	3456.414063	1687.637695	12.407552
743.828552	1436.940308	3446.457275	1689.198120	12.553157
744.147705	1442.513062	3435.832031	1699.600220	12.897442
744.466797	1440.655396	3424.017578	1690.312500	12.587570
744.785828	1443.850586	3402.172607	1690.832642	12.611922
745.104858	1443.255981	3372.080078	1678.647095	12.203866
745.423706	1444.444824	3353.727539	1678.721313	12.270392
745.742615	1439.392212	3325.046875	1677.978149	12.652684
746.061401	1436.048706	3325.715576	1680.950317	12.960042
746.380249	1428.395508	3321.926025	1681.693359	13.377014
746.698975	1429.435669	3327.424561	1689.792480	13.717510
747.017639	1429.361328	3330.396729	1688.677856	13.640805
747.336304	1435.305664	3344.291260	1691.129883	13.401055
747.654907	1433.522461	3358.854492	1684.145508	13.017134
747.973389	1435.157104	3374.978271	1691.724243	13.226330
748.291931	1436.940308	3364.278564	1690.684082	13.165503
748.610352	1440.432617	3347.040283	1695.885376	13.398287
748.928711	1439.243774	3330.694092	1689.346680	13.222812
749.247070	1435.900024	3326.161377	1692.021606	13.549533
749.565308	1438.946655	3338.421143	1686.671875	13.041777
749.883545	1439.095093	3329.133545	1687.191772	13.126541
750.201782	1446.228149	3309.740479	1683.030884	12.707334
750.519836	1439.763672	3290.198486	1685.557129	13.283010
750.837952	1434.339722	3294.508545	1686.002930	13.529052
751.155884	1428.692749	3302.755859	1677.458130	13.274119
751.473877	1430.475952	3301.269531	1670.993774	12.856460
751.791809	1433.076538	3292.724854	1668.170410	12.641846
752.109619	1437.460449	3286.409424	1676.715210	12.940042
752.427490	1438.649292	3288.861328	1686.597290	13.401058
752.745300	1441.175659	3287.746826	1693.136108	13.644773
753.062988	1435.677246	3283.734619	1688.380493	13.673994
753.380615	1436.123047	3271.920166	1678.572754	13.206781
753.698303	1438.872192	3258.768799	1678.498413	13.167024
754.015808	1438.649414	3260.998047	1683.699585	13.446942
754.333374	1431.739136	3265.307373	1688.529297	14.004942
754.650757	1428.692749	3267.759521	1679.464355	13.635808
754.968262	1426.389282	3259.511719	1679.835938	13.825953
755.285583	1427.429688	3260.700439	1681.693481	13.869408
755.602905	1429.361450	3251.338623	1681.842163	13.857512
755.920105	1430.847534	3239.226807	1677.755371	13.653543
756.237305	1434.934204	3223.846436	1681.990723	13.810432
756.554443	1433.819702	3225.703857	1693.210449	14.475866
756.871582	1435.751465	3239.673096	1697.297241	14.498733
757.188599	1434.562622	3252.527344	1695.216675	14.337685
757.505615	1431.739136	3271.697266	1696.925415	14.412625
757.822510	1428.841309	3284.625977	1700.937866	14.662076
758.139465	1431.813477	3307.139893	1703.315552	14.477591
758.456238	1429.435669	3328.687500	1701.383789	14.318697
758.773010	1428.989868	3350.309570	1710.522949	14.653110
759.089783	1426.017944	3361.826416	1713.420776	14.846657
759.406433	1432.333496	3357.665771	1714.981079	14.680457
759.723145	1441.472656	3358.557373	1714.535156	14.243632
760.039673	1443.850464	3370.594482	1720.702515	14.368907
760.356201	1444.964966	3387.683838	1726.349487	14.484057
760.672668	1443.553345	3393.405273	1717.135742	14.030932
760.989136	1441.769897	3378.544922	1715.278320	14.121848
761.305481	1436.420288	3361.603516	1711.637329	14.295629
761.621826	1438.352051	3367.622070	1713.643677	14.269212
761.938049	1442.067261	3392.141846	1705.767578	13.522576
762.254333	1442.141602	3437.838623	1703.910156	13.116648
762.570496	1434.414063	3501.664307	1721.965454	13.909849
762.886597	1422.748657	3606.505615	1750.051880	14.988080
763.202637	1419.553345	3780.076416	1781.482056	15.332564
763.518677	1424.828979	3993.176758	1804.738770	14.791992
763.834656	1431.219116	4212.221191	1834.905640	14.515866
764.150574	1430.327515	4344.405762	1864.701172	14.906040
764.466370	1422.674194	4385.569824	1871.834106	15.159492
764.782288	1425.720581	4319.812012	1864.626831	15.165598
765.097961	1435.900024	4190.153809	1842.930298	14.778241
765.413696	1445.039429	4029.882080	1822.051270	14.585485
765.729309	1443.924805	3863.072510	1805.481812	14.945636
766.044861	1437.757813	3736.460938	1783.933960	15.059628
766.360474	1429.807251	3613.861328	1766.993042	15.438527
766.675903	1431.590454	3528.487549	1743.141968	14.857740
766.991394	1428.098267	3449.429688	1737.271973	15.295547
767.306763	1437.683228	3407.894531	1731.996460	14.938156
767.622131	1443.404663	3373.046631	1724.491821	14.566804
767.937378	1450.760620	3339.015625	1712.752075	13.874792
768.252625	1454.921509	3296.514404	1701.383789	13.383103
768.567810	1448.680176	3251.561279	1691.204224	13.452026
768.882996	1449.200195	3220.428467	1681.024780	13.088351
769.197998	1444.296265	3195.314453	1679.241577	13.417640
769.513062	1442.141602	3163.661377	1682.882324	13.984198
769.828064	1442.364380	3126.138428	1680.281860	14.130013
770.142944	1436.271606	3075.835693	1678.349731	14.764786
770.457825	1440.209595	3051.241211	1681.693359	14.989388
770.772705	1438.872192	3020.034180	1680.355957	15.272551
771.087402	1438.575073	3005.842529	1677.681152	15.256240
771.402100	1435.677124	2978.647461	1661.260254	14.620056
771.716736	1435.900024	2976.492920	1657.768066	14.401471
772.031372	1438.352051	2970.548584	1654.870117	14.131220
772.345947	1440.135376	2959.848877	1657.842285	14.325523
772.660461	1438.575073	2942.536377	1654.870117	14.381689
772.974854	1441.324097	2929.905029	1651.823853	14.140968
773.289246	1437.163208	2932.579834	1647.291382	14.051480
773.603638	1436.123047	2925.075195	1646.102539	14.102501
773.917908	1422.674194	2911.552002	1645.656616	14.976542
774.232178	1422.228516	2886.511963	1645.879517	15.273750
774.546265	1422.674194	2871.056885	1639.638062	14.979733
774.860474	1431.961914	2869.571045	1627.898315	13.629324
775.174561	1434.265259	2873.657471	1627.749634	13.442088
775.488586	1433.299438	2870.537109	1637.037476	14.175668
775.802551	1429.584351	2852.184326	1648.034180	15.355675
776.116516	1427.578247	2827.367188	1643.056030	15.393591
776.430359	1425.423340	2811.540283	1641.941406	15.620476
776.744202	1432.853638	2812.209229	1648.405884	15.627026
777.057922	1436.345825	2810.351563	1648.331543	15.428299
777.371704	1440.283813	2804.407471	1654.795898	15.725266
777.685303	1439.763672	2786.946533	1646.548340	15.349414
777.998962	1432.705078	2784.494385	1652.641113	16.269993
778.312500	1433.225098	2780.779297	1641.198608	15.433406
778.626038	1432.705078	2781.151123	1636.740234	15.131132
778.939453	1441.546997	2784.643311	1628.641235	13.930069
779.252869	1444.667847	2789.918701	1632.356445	13.951941
779.566223	1443.181763	2783.974609	1636.071655	14.386256
779.879578	1435.677246	2785.832031	1637.186157	14.924875
780.192749	1431.664917	2772.383057	1628.046875	14.647520
780.505920	1435.157104	2776.321045	1621.285522	13.878126
780.819031	1441.770020	2764.729736	1620.319458	13.496211
781.132141	1444.890625	2767.479248	1628.715698	13.898885
781.445190	1438.203491	2758.117188	1637.186157	15.075430
781.758118	1432.556274	2747.640625	1643.427734	16.034824
782.071045	1434.265259	2732.111328	1640.827148	15.915747
782.383911	1435.156860	2713.386719	1630.721802	15.299669
782.696838	1435.825806	2699.715088	1625.669312	15.020580
783.009583	1431.887695	2693.844971	1620.839478	14.972915
783.322266	1429.510132	2689.238281	1620.319336	15.146855
783.634888	1432.110718	2680.173584	1608.876831	14.163238
783.947510	1434.488403	2669.473877	1607.167847	13.982306
784.260132	1434.488281	2658.922852	1611.180298	14.430499
784.572571	1436.346069	2657.585205	1615.192505	14.644670
784.885010	1437.757690	2653.275635	1608.579590	14.053425
785.197449	1435.677246	2652.086914	1599.588867	13.475035
785.509766	1431.739136	2644.359619	1602.783813	14.105376
785.822083	1431.516235	2634.254395	1599.960327	14.005051
786.134277	1443.330444	2622.366211	1599.960449	13.284585
786.446533	1444.221802	2609.734619	1600.926392	13.445120
786.758606	1434.042480	2609.139893	1620.542358	15.871015
787.070740	1425.943359	2618.947754	1628.790039	17.003012
787.382690	1427.652466	2637.523438	1629.161499	16.655415
787.694641	1438.649414	2662.786621	1625.892212	15.295899
788.006653	1440.804077	2704.247803	1621.582642	14.308398
788.318481	1440.729858	2742.662109	1631.241821	14.633017
788.630310	1435.602905	2783.379883	1628.938477	14.344775
788.942017	1438.574829	2797.868896	1639.043579	14.748005
789.253784	1442.364380	2814.141357	1637.929077	14.256304
789.565430	1447.045532	2793.261963	1645.285156	14.725687
789.877014	1440.952637	2775.429443	1647.811523	15.501122
790.188538	1435.231323	2729.881836	1639.786987	15.800068
790.500061	1430.104492	2697.262939	1635.254272	16.189749
790.811462	1435.900024	2666.873291	1631.687622	15.905106
791.122925	1439.986694	2649.560791	1631.167603	15.805638
791.434204	1438.203491	2635.666260	1625.000488	15.599400
791.745483	1438.723633	2609.214600	1617.941772	15.311364
792.056702	1436.643066	2585.214600	1614.449585	15.480665
792.367920	1444.296265	2568.273438	1609.025391	14.655914
792.678955	1451.206421	2567.158936	1606.870605	13.948997
792.990112	1444.964966	2563.220947	1610.140015	14.770773
793.301086	1433.596680	2556.459473	1613.780762	16.046848
793.612122	1423.342896	2544.645264	1609.619751	16.612545
793.922974	1429.287231	2538.180908	1601.223633	15.505219
794.233826	1435.900024	2534.614502	1600.332031	14.965855
794.544556	1431.442017	2533.277100	1597.359985	15.058331
794.855286	1431.144653	2531.048096	1592.455933	14.665949
795.166016	1431.590454	2538.032471	1591.341431	14.438260
795.476624	1439.986694	2542.118896	1600.703613	14.582363
795.787292	1440.878418	2562.923828	1614.820923	15.502270
796.097778	1439.689575	2579.418701	1616.158569	15.483416
796.408264	1434.116821	2597.102783	1617.644531	15.780733
796.718689	1432.630737	2613.152100	1616.158569	15.546337
797.029053	1430.996094	2625.412354	1613.409180	15.272154
797.339355	1434.711304	2630.019287	1611.848755	14.819398
797.649658	1434.488281	2619.839600	1609.173950	14.737038
797.959839	1435.602905	2595.988525	1604.715820	14.573854
798.270020	1434.488281	2576.669922	1600.332031	14.519910
798.580078	1433.745483	2560.397217	1605.458862	15.241035
798.890137	1435.305664	2554.230225	1611.031616	15.704897
799.200195	1431.367554	2552.892822	1612.146118	16.118992
799.510071	1430.698853	2537.586426	1602.486816	15.519911
799.820007	1430.773071	2520.274170	1596.468262	15.208355
800.129883	1426.983765	2502.887451	1591.935913	15.331497
800.439575	1431.739258	2500.063721	1599.960571	15.746276
800.749329	1432.556519	2490.552979	1601.075195	15.928095
801.058960	1436.048828	2478.739014	1603.229858	16.033625
801.368591	1435.008423	2462.466553	1594.016479	15.475867
801.678162	1434.191040	2462.169189	1593.793457	15.525857
801.987671	1439.541016	2456.373535	1585.099976	14.314939
802.297119	1431.664673	2453.624268	1577.446655	14.264946
802.606506	1429.732910	2436.832031	1578.412720	14.763175
802.915894	1421.113892	2432.002441	1587.997681	16.508623
803.225159	1426.760864	2427.990234	1591.490112	16.452698
803.534424	1430.253052	2430.070557	1591.861450	16.163790
803.843628	1430.996094	2428.510010	1583.539673	15.292376
804.152771	1427.875488	2423.457275	1581.384766	15.419052
804.461792	1425.423462	2425.538086	1568.604858	14.316499
804.770874	1433.002319	2429.698975	1572.691406	14.015205
805.079773	1439.392212	2445.748291	1576.109375	13.585366
805.388733	1438.054688	2456.745117	1592.827515	15.193314
805.697571	1434.042480	2468.336182	1595.873901	15.646564
806.006470	1429.138550	2474.800537	1604.715942	16.791027
806.315125	1432.407837	2485.500488	1608.431030	16.714882
806.623901	1425.794922	2480.373535	1612.071777	17.663630
806.932495	1426.166504	2473.686279	1603.898438	16.966928
807.241150	1428.172485	2461.872070	1593.050293	15.950264
807.549622	1440.209595	2452.138428	1589.780884	14.780811
807.858154	1445.410767	2442.924805	1582.424927	13.735562
808.166565	1438.426392	2434.157227	1587.997681	15.021257
808.474915	1439.615234	2424.052002	1581.756348	14.438827
808.783264	1441.026978	2403.247314	1583.242554	14.779939
809.091492	1444.519165	2386.231689	1575.143433	13.870928
809.399719	1443.553345	2371.742920	1573.583008	14.008955
809.707825	1438.575073	2368.919189	1570.388062	14.168197
810.015930	1439.392456	2364.460938	1566.301392	13.718869
810.323975	1430.921875	2364.906982	1568.901978	14.773266
810.632080	1436.643188	2351.904053	1568.456177	14.401685
810.939880	1433.225220	2329.539063	1567.638794	14.996263
811.247864	1435.825806	2310.369141	1559.762695	14.171612
811.555664	1438.055054	2302.195557	1560.282837	14.144434
811.863464	1442.810181	2291.421631	1558.053711	13.580247
812.171143	1445.931030	2292.536133	1553.744141	12.734758
812.478882	1438.277710	2283.768555	1555.676147	13.885241
812.786438	1435.231445	2299.743408	1561.620239	14.619670
813.094055	1427.875366	2299.149170	1566.970093	15.964525
813.401489	1430.550293	2302.864258	1561.917480	15.059622
813.708984	1430.401733	2295.433838	1552.778320	14.147058
814.016357	1437.163208	2291.124512	1543.490234	12.451035
814.323730	1429.287109	2290.381348	1540.889648	12.960548
814.630981	1424.234497	2287.855225	1546.982544	14.213189
814.938232	1420.370728	2275.372314	1554.412720	15.677397
815.245361	1427.652466	2263.558105	1554.338501	15.155542
815.552490	1426.240723	2254.121582	1552.183960	15.212725
815.859619	1423.640137	2262.294922	1553.967163	15.540009
816.166565	1422.302734	2272.994385	1562.734863	16.507994
816.473572	1422.822754	2287.334961	1566.301392	16.596485
816.780457	1426.315063	2298.183350	1568.010376	16.251917
817.087341	1423.714478	2304.201660	1573.360229	16.995790
817.394043	1430.327515	2299.594971	1567.490234	15.779116
817.700806	1432.630737	2298.257568	1571.279663	16.017170
818.007507	1433.819702	2302.715576	1568.158813	15.460898
818.314209	1428.692749	2315.421387	1584.505493	17.571638
818.620667	1434.711304	2328.870361	1585.545776	16.868864
818.927246	1438.054810	2362.009033	1589.632324	16.405306
819.233704	1441.101196	2388.386719	1584.059692	15.091384
819.540161	1427.801147	2420.782959	1589.558105	16.290022
819.846497	1423.268555	2459.494385	1594.090698	16.485031
820.152832	1425.943359	2541.153076	1610.585938	16.556759
820.458984	1432.333618	2633.288330	1618.759155	15.523111
820.765259	1439.838257	2731.145264	1640.083984	15.507213
821.071350	1441.398438	2821.497314	1655.910278	15.543222
821.377502	1444.816406	2971.217529	1689.643921	16.039526
821.683472	1437.906250	3265.084717	1742.324585	16.660570
821.989441	1432.259277	3880.088135	1841.815918	16.731424
822.295349	1433.150879	4863.855957	2011.894897	16.869535
822.601196	1431.367554	6172.921875	2236.586426	16.982172
822.907043	1442.067383	7423.808105	2458.751221	16.996454
823.212769	1439.466675	8235.045898	2585.734619	16.867847
823.518494	1444.742065	8256.666992	2588.855469	16.795744
823.824097	1435.008423	7614.691406	2482.899902	16.957043
824.129700	1431.887695	6611.529785	2324.857910	17.239998
824.435242	1434.934082	5621.372559	2162.283447	17.373941
824.740723	1436.197388	4806.791504	2009.814087	17.018267
825.046082	1437.386108	4215.341797	1903.709961	16.786585
825.351501	1438.203491	3809.203369	1822.051270	16.189278
825.656799	1437.311890	3543.422607	1779.252930	16.235662
825.962036	1438.055054	3366.878906	1758.076538	16.591536
826.267212	1426.983765	3294.433838	1753.172485	17.467066
826.572449	1432.036255	3311.969482	1760.825806	17.489428
826.877502	1433.968140	3444.971436	1779.995972	17.206726
827.182495	1439.243774	3691.061768	1815.958374	16.729355
827.487488	1433.968262	4019.702881	1871.091187	16.905174
827.792419	1429.584473	4332.962891	1920.205200	16.898270
828.097290	1425.200562	4443.822754	1939.078125	17.023581
828.402100	1419.330566	4321.148926	1920.205200	17.260715
828.706848	1424.531616	4009.226318	1875.177734	17.435177
829.011597	1429.955688	3645.737305	1815.586914	17.403845
829.316223	1444.296265	3308.477295	1752.355347	16.525169
829.620789	1449.868774	3019.068359	1695.588257	15.658906
829.925354	1450.240601	2803.441650	1663.935181	15.791783
830.229797	1439.020874	2642.650635	1636.517578	16.408426
830.534302	1433.893921	2540.261475	1611.031738	16.010757
830.838562	1430.030151	2467.593506	1585.694336	15.002861
831.142944	1433.522339	2404.584717	1576.406372	14.714197
831.447144	1430.624390	2359.408447	1571.725464	15.192021
831.751404	1431.887573	2332.288086	1574.771851	15.868969
832.055542	1437.609009	2336.226318	1576.555054	15.462204
832.359619	1443.553223	2336.077637	1578.189819	15.084920
832.663635	1442.141602	2354.653320	1580.641724	15.177900
832.967651	1439.540894	2390.690186	1587.254761	15.530040
833.271545	1440.209595	2493.673584	1609.545532	16.074203
833.575439	1441.175659	2657.659668	1635.477173	15.972385
833.879211	1443.033203	2885.174805	1672.182739	15.889531
834.183044	1443.033203	3120.120117	1711.786133	16.024984
834.486694	1443.033081	3303.276123	1739.723999	15.949040
834.790344	1439.763794	3353.579102	1752.429688	16.337307
835.093933	1434.488281	3293.468018	1733.556641	16.087769
835.397522	1440.432617	3132.751221	1710.300171	15.946616
835.700928	1438.872192	2949.149170	1681.470703	16.063181
836.004395	1441.770020	2754.327393	1654.424438	16.201532
836.307739	1429.881470	2605.276367	1630.350220	17.055439
836.611023	1428.321289	2479.184326	1595.130859	15.873579
836.914307	1428.098267	2379.544434	1574.177368	15.353375
837.217529	1438.426392	2290.083984	1560.951538	14.386667
837.520691	1436.197266	2229.378906	1554.115601	14.866498
837.823730	1433.745239	2181.973633	1546.982544	15.134056
838.126831	1430.996094	2141.107178	1530.487427	14.010672
838.429749	1435.454224	2118.667725	1533.236694	14.312140
838.732727	1427.132446	2097.640137	1529.595825	15.281462
839.035522	1426.909546	2088.723877	1530.413208	15.639380
839.338379	1432.407837	2072.302979	1522.537109	14.085007
839.641113	1438.723633	2067.176270	1532.939453	14.991714
839.943848	1435.602905	2089.689941	1538.437866	15.721908
840.246460	1427.206665	2134.791504	1547.651367	17.021946
840.549072	1431.961914	2215.038330	1549.211548	14.972949
840.851563	1440.060913	2258.802490	1556.641968	14.239054
841.154053	1446.005249	2272.400146	1561.768921	14.008275
841.456482	1441.695679	2234.877197	1553.521362	14.098372
841.758850	1434.934204	2186.282959	1544.456421	14.576748
842.061157	1433.671021	2127.732666	1521.942749	12.718140
842.363403	1430.773071	2080.847656	1510.054199	12.195697
842.665588	1431.887695	2035.299927	1500.692261	11.402580
842.967712	1437.757690	2002.384155	1504.927368	11.896303
843.269775	1440.506836	1955.944824	1504.555786	12.426122
843.571777	1441.621460	1934.842896	1499.874878	11.810804
843.873840	1433.745239	1914.335327	1503.441406	14.502207
844.175659	1446.376587	1917.976196	1504.035645	12.226274
844.477600	1455.367310	1904.601563	1507.825073	11.677152
844.779297	1462.500488	1895.090820	1500.840454	8.862881
845.081116	1454.401733	1877.332520	1501.806641	11.208668
845.382751	1447.342773	1874.657715	1501.360840	12.641277
845.684387	1444.296387	1863.586548	1499.354614	13.131295
845.985962	1437.832031	1855.636108	1492.295898	13.035744
846.287537	1436.420288	1837.208984	1491.924316	13.848701
846.588989	1431.070313	1825.840820	1484.716797	13.589284
846.890381	1431.293335	1813.878052	1488.729370	15.012631
847.191711	1435.008423	1810.608887	1475.429199	10.761642
847.493042	1432.036499	1816.627319	1482.116577	13.021652
847.794250	1437.163208	1821.902710	1479.069946	10.892237
848.095459	1435.008423	1815.438354	1478.772827	11.503933
848.396606	1444.370605	1805.556030	1473.200073	7.981902
848.697693	1443.181763	1799.686157	1469.707886	7.440616
848.998657	1441.621460	1797.902954	1473.422852	8.925918
849.299622	1438.649292	1797.605835	1478.847046	11.198502
849.600464	1437.980469	1794.187866	1480.556030	11.952464
849.901367	1442.364380	1799.537720	1478.921265	10.235054
850.202087	1440.135254	1793.370483	1473.422852	9.423635
850.502808	1438.352051	1788.912476	1465.323853	7.693910
850.803467	1434.414063	1779.921753	1471.119507	10.623626
851.104065	1436.123047	1780.813354	1467.330078	9.053643
851.404663	1435.454468	1780.441895	1474.091431	11.199528
851.705139	1432.928101	1780.590454	1474.834595	12.053791
852.005615	1429.138550	1779.773071	1476.246460	13.435046
852.306030	1430.178711	1779.178589	1475.131958	12.880591
852.606384	1438.574829	1779.178589	1464.803833	7.700738
852.906616	1441.844238	1781.704956	1467.181641	7.455231
853.206909	1439.838013	1778.138306	1463.540649	7.006390
853.506958	1434.265503	1774.274536	1470.599487	10.686182
853.807129	1439.243774	1767.513062	1466.587036	8.329522
854.107178	1447.342651	1765.729858	1469.484863	6.954492
854.407166	1440.804077	1769.370728	1476.395142	10.832221
854.707092	1437.534790	1761.494629	1478.327026	12.591757
855.007019	1439.317993	1756.590820	1475.651978	11.451968
855.306763	1451.578003	1751.017944	1466.958618	5.136461
855.606567	1446.525391	1751.761108	1467.924438	7.010663
855.906250	1439.615234	1757.705078	1469.113403	9.273534
856.205933	1431.813477	1748.937500	1474.909180	13.589542
856.505493	1438.054810	1745.593750	1474.240234	11.766128
856.805054	1439.317993	1733.333984	1472.828613	11.397551
857.104492	1436.494507	1738.906616	1465.769653	9.680547
857.403931	1431.664673	1735.191406	1470.376587	12.754038
857.703308	1427.355103	1739.649536	1474.537598	15.108336
858.002563	1428.024048	1732.442261	1478.104004	16.451038
858.301819	1428.915649	1741.878784	1475.354858	14.838555
858.601013	1430.476074	1744.999512	1482.859375	16.654816
858.900208	1438.946411	1747.228516	1483.230835	14.364902
859.199219	1442.661621	1752.875488	1481.373413	12.479066
859.498291	1441.918579	1750.497681	1475.131836	10.763288
859.797302	1430.996094	1752.949829	1471.119629	12.462516
860.096191	1430.698853	1743.662109	1471.268188	12.962971
860.395020	1428.024048	1739.649780	1469.930664	13.447740
860.693787	1433.893921	1731.773438	1468.073242	11.474210
860.992554	1433.671021	1721.371094	1464.283691	10.640481
861.291260	1435.900024	1713.346558	1460.419922	8.837702
861.589844	1431.516235	1711.934570	1461.683105	10.757810
861.888428	1428.469727	1714.832397	1462.872070	12.013557
862.186890	1433.893921	1720.628052	1466.066895	11.220490
862.485413	1436.048706	1716.541382	1471.936890	12.794696
862.783813	1435.008423	1710.002808	1468.667480	12.239907
863.082153	1434.042480	1703.389771	1468.370483	12.744885
863.380371	1433.448120	1705.321655	1464.952515	11.587886
863.678589	1439.838013	1707.550781	1467.107300	10.186024
863.976746	1435.677124	1710.448608	1468.073242	11.790204
864.274902	1437.757690	1712.900513	1471.416992	12.233393
864.572937	1432.630859	1716.244263	1470.525269	13.361290
864.870911	1436.346069	1716.838745	1464.878296	10.172182
865.168884	1434.637085	1717.804565	1462.500610	9.839946
865.466736	1431.590454	1716.912964	1467.033081	12.421952
865.764587	1430.030151	1716.987183	1467.701660	13.127927
866.062317	1432.705078	1711.711792	1472.531250	14.274270
866.360107	1438.797852	1716.615845	1471.936890	11.928327
866.657715	1438.351929	1714.609375	1472.085449	12.210900
866.955322	1436.643066	1715.649780	1462.723267	9.347517
867.252808	1430.698853	1711.265991	1456.482056	9.189673
867.550293	1428.766968	1708.591187	1454.698608	9.267118
867.847717	1427.280884	1710.894531	1449.423218	7.807218
868.145081	1421.113892	1707.328003	1452.246704	10.877456
868.442383	1423.788696	1706.436157	1454.475708	10.856992
868.739624	1426.909546	1705.544556	1458.339478	11.279965
869.036804	1433.522461	1709.036743	1463.169312	10.760550
869.333984	1426.909546	1710.225586	1465.695435	13.689973
869.631042	1426.166504	1714.089478	1468.147461	14.580621
869.928101	1430.104492	1717.061523	1463.169067	11.522483
870.224976	1435.900024	1719.885132	1459.676880	8.372571
870.521851	1435.305664	1718.324585	1458.042358	8.033630
870.818726	1429.807251	1721.445313	1456.927734	9.299363
871.115479	1433.893921	1715.426758	1452.320923	6.545241
871.412231	1434.488281	1712.380493	1456.259155	7.834287
871.708862	1434.116821	1712.009155	1462.649048	10.267367
872.005493	1431.293335	1710.522949	1474.537598	15.486990
872.302063	1432.036255	1706.956421	1472.011230	14.540576
872.598572	1439.169312	1698.931641	1466.364258	10.469165
872.895020	1440.655396	1705.396118	1463.094849	8.476011
873.191406	1437.609009	1712.157593	1460.419922	8.308516
873.487671	1436.865845	1718.250366	1458.785522	7.789937
873.783997	1439.466431	1721.965454	1460.345703	7.390918
874.080200	1436.717407	1720.182129	1462.723267	9.174284
874.376343	1433.745483	1715.129517	1471.713867	13.493440
874.672424	1425.274780	1712.454712	1467.181519	14.592503
874.968445	1427.206665	1712.454712	1468.147461	14.352700
875.264465	1426.092163	1710.002930	1466.735718	14.315609
875.560364	1432.036255	1711.340210	1467.553101	12.716199
875.856201	1431.441895	1712.974976	1467.330078	12.747413
876.152039	1427.280884	1722.114258	1462.723511	12.021240
876.447754	1424.828979	1718.399048	1460.122681	12.022241
876.743469	1427.578125	1718.027466	1458.042358	10.488656
877.039063	1433.150879	1714.683960	1457.745117	8.735826
877.334595	1434.859863	1715.946899	1455.218750	7.242912
877.630127	1436.940308	1718.176147	1456.110352	6.816359
877.925537	1438.723633	1716.095703	1464.878296	9.429451
878.221008	1439.838257	1720.999634	1468.816284	10.306546
878.516296	1440.284058	1721.371094	1470.227905	10.652874
878.811646	1440.804077	1734.819946	1461.831665	7.151855
879.106812	1433.968140	1743.884888	1465.398315	10.141490
879.401978	1435.825806	1763.500977	1466.067017	9.229021
879.697083	1439.169434	1788.392212	1470.079468	8.851093
879.992126	1445.039429	1818.113403	1476.023560	8.305090
880.287109	1445.336548	1865.295532	1488.877930	10.368009
880.582031	1440.284058	1927.338257	1506.933594	13.684214
880.876892	1436.940308	2058.631104	1521.050781	13.529310
881.171753	1429.807251	2292.015869	1555.378906	14.563952
881.466492	1430.401733	2681.139404	1620.319458	15.184457
881.761230	1432.779419	3212.626953	1714.163696	15.809460
882.055786	1432.705078	3747.829346	1803.847168	16.031195
882.350403	1431.813477	4101.807129	1847.685913	15.575784
882.644958	1433.076538	4141.633301	1853.704224	15.529588
882.939453	1434.116821	3912.781250	1818.336304	15.501068
883.233826	1434.116821	3554.716553	1767.735962	15.732303
883.528137	1424.605957	3176.589844	1707.699585	16.158461
883.822449	1424.234375	2843.490479	1653.086914	16.124823
884.116577	1436.791626	2568.273438	1610.214233	15.327035
884.410828	1449.125977	2359.854248	1572.542603	13.551421
884.704956	1453.138306	2213.106689	1546.982544	12.348440
884.999023	1445.633789	2098.680420	1523.131348	11.867079
885.292969	1439.540894	2024.377808	1519.490601	13.670427
885.586914	1438.352051	1965.529907	1514.512329	14.446790
885.880798	1431.219116	1926.520874	1517.335815	17.386713
886.174622	1435.825806	1900.217773	1508.345337	15.616017
886.468384	1431.962280	1877.109741	1496.456909	14.488374
886.762085	1433.671021	1862.917969	1488.952271	12.878659
887.055664	1429.212891	1832.453735	1483.305298	13.414416
887.349304	1429.807251	1817.444702	1487.391968	14.855303
887.642822	1432.705078	1795.228027	1480.481812	13.178954
887.936340	1431.739258	1784.676880	1472.234009	11.473628
888.229736	1437.386108	1763.649414	1466.215454	8.836221
888.523071	1427.578125	1746.336914	1469.484985	13.146888
888.816284	1430.550171	1736.083008	1465.695679	11.503021
889.109619	1426.983765	1722.114258	1462.277710	11.958759
889.402710	1437.980469	1712.454712	1461.460327	8.554485
889.695862	1442.067017	1694.622070	1465.621094	9.326314
889.988892	1442.661621	1686.820313	1467.330078	10.103453
890.281921	1434.859863	1686.077393	1469.187744	13.664604
>>>>>End Processed Spectral Data<<<<<
