Jaz Data File
++++++++++++++++++++++++++++++++++++
Date: Fri Jun 04 13:12:07 2021
User: jaz
Dark Spectrum Present: Yes
Reference Spectrum Present: Yes
Processed Spectrum Present: Yes
Spectrometers: JAZA3586
Integration Time (usec): 31000 (JAZA3586)
Spectra Averaged: 10 (JAZA3586)
Boxcar Smoothing: 1 (JAZA3586)
Correct for Electrical Dark: No (JAZA3586)
Strobe/Lamp Enabled: Yes (JAZA3586)
Correct for Detector Non-linearity: No (JAZA3586)
Correct for Stray Light: No (JAZA3586)
Number of Pixels in Processed Spectrum: 2048
>>>>>Begin Processed Spectral Data<<<<<
W	D	R	S	P
191.335022	0.000000	0.000000	0.000000	0.000000
191.713211	360.962646	357.024567	354.275421	169.809296
192.091385	715.386658	714.049133	712.934631	183.325729
192.469528	1071.445313	1078.652710	1074.937500	48.452824
192.847641	1072.262573	1088.014648	1082.293457	63.679760
193.225739	1091.358398	1095.519409	1090.317993	-25.003668
193.603790	1109.042358	1102.429443	1099.531616	143.820724
193.981842	1114.912231	1109.636841	1108.522339	121.126434
194.359863	1116.621216	1118.032837	1113.426270	-226.331726
194.737854	1121.822388	1124.348633	1111.271484	-417.651611
195.115829	1130.590210	1123.828613	1106.441895	357.139252
195.493774	1136.683105	1123.902954	1104.584351	251.160995
195.871704	1131.778931	1113.277710	1105.401733	142.570038
196.249603	1131.184692	1118.627563	1116.621460	115.975815
196.627457	1125.834839	1119.519043	1113.574829	194.116623
197.005310	1129.995728	1120.782227	1118.181641	128.225815
197.383133	1122.713989	1113.500488	1112.163086	114.515678
197.760910	1123.902954	1110.974243	1119.147583	36.781479
198.138687	1116.992798	1116.398438	1119.890625	-487.553925
198.516449	1122.268188	1118.033081	1120.187866	49.120884
198.894180	1115.209473	1116.101196	1115.358032	16.659822
199.271866	1115.878174	1114.838135	1100.051758	1521.713623
199.649536	1106.367432	1114.986694	1093.958984	-143.961823
200.027191	1104.064087	1118.627563	1092.472900	-79.590790
200.404816	1107.184692	1119.964966	1099.977417	-56.393749
200.782410	1112.460327	1129.401367	1101.017700	-67.543831
201.159988	1111.865845	1144.782104	1101.686401	-30.925274
201.537537	1114.615112	1155.704590	1103.246704	-27.667444
201.915070	1113.500610	1157.562134	1098.045532	-35.076134
202.292557	1116.101196	1158.007813	1089.352173	-63.830070
202.670029	1103.692627	1156.596069	1083.556641	-38.061771
203.047485	1100.571899	1150.874878	1082.516479	-35.893341
203.424911	1098.491455	1140.695435	1085.711426	-30.281574
203.802292	1101.463501	1136.311523	1088.757813	-36.460285
204.179688	1100.348999	1139.209351	1090.689575	-24.856758
204.557037	1104.732910	1153.921387	1101.017700	-7.553009
204.934357	1102.429565	1155.853149	1099.680298	-5.146168
205.311661	1102.429565	1161.351440	1107.704956	8.953196
205.688934	1094.702026	1154.144165	1100.794800	10.249923
206.066177	1095.444946	1151.766479	1100.423218	8.839020
206.443390	1098.342773	1146.268066	1099.680298	2.790853
206.820587	1101.760742	1145.079224	1100.571899	-2.744424
207.197769	1106.070313	1156.670532	1102.875366	-6.314095
207.574921	1109.265381	1157.190552	1102.280884	-14.573755
207.952042	1106.516113	1153.698242	1096.708130	-20.787497
208.329147	1101.612183	1145.970825	1097.079712	-10.217785
208.706223	1107.036133	1155.035767	1095.816528	-23.374353
209.083267	1104.658569	1158.602417	1098.714233	-11.019488
209.460297	1101.463501	1156.819092	1093.810425	-13.825299
209.837280	1088.980713	1147.754028	1081.253174	-13.148040
210.214264	1090.912476	1148.645630	1080.138672	-18.661381
210.591217	1094.776245	1153.103882	1074.491577	-34.777111
210.968124	1091.952759	1156.819092	1084.299561	-11.798413
211.345016	1090.541016	1153.698364	1089.649414	-1.411715
211.721893	1088.460571	1156.818970	1092.918579	6.521522
212.098724	1091.061157	1155.481567	1094.404785	5.190324
212.475555	1097.822754	1151.469238	1090.689575	-13.296638
212.852356	1098.342773	1148.794312	1093.661743	-9.278271
213.229126	1099.234497	1147.828369	1088.237671	-22.630068
213.605865	1091.952759	1153.103882	1084.894043	-11.543068
213.982590	1087.866089	1146.342407	1090.986816	5.336737
214.359283	1087.123047	1149.240234	1093.141602	9.689033
214.735931	1090.317993	1144.261841	1096.485229	11.432696
215.112579	1090.838257	1151.469238	1084.373901	-10.661802
215.489197	1090.466675	1150.800415	1084.002441	-10.714127
215.865799	1087.271729	1147.159790	1079.098511	-13.647491
216.242355	1093.290405	1141.884277	1079.247070	-28.899395
216.618896	1093.810425	1140.918335	1085.042603	-18.612207
216.995407	1095.816528	1146.565308	1090.466797	-10.541596
217.371902	1097.376831	1157.339233	1097.005371	-0.619488
217.748367	1095.816528	1154.664307	1090.912476	-8.333454
218.124802	1093.513184	1153.772705	1090.912598	-4.315643
218.501236	1094.256226	1146.639648	1090.392456	-7.375939
218.877609	1096.931030	1145.227905	1086.305786	-21.999859
219.253983	1092.026978	1150.949097	1087.643188	-7.439972
219.630295	1090.169434	1143.296021	1085.414185	-8.950789
220.006592	1083.779419	1146.936890	1094.033203	16.235268
220.382889	1095.222168	1152.063599	1087.717651	-13.202547
220.759140	1088.906372	1159.791138	1087.048828	-2.620512
221.135391	1094.330566	1158.305054	1081.178955	-20.557589
221.511581	1091.729858	1150.280396	1084.076782	-13.070889
221.887772	1091.506958	1147.754150	1088.683472	-5.019782
222.263931	1087.643188	1150.949219	1094.850586	11.385010
222.640060	1086.528687	1155.704590	1105.847290	27.926783
223.016159	1094.627563	1163.357666	1105.847290	16.324327
223.392212	1101.612061	1163.134766	1105.921631	7.004845
223.768265	1107.853516	1163.432007	1098.417114	-16.978514
224.144302	1114.317871	1154.887207	1093.067261	-52.380966
224.520294	1117.364258	1153.475464	1088.757813	-79.217644
224.896286	1115.135132	1154.812866	1085.488403	-74.718803
225.272217	1102.132202	1168.410278	1089.129272	-19.618750
225.648148	1092.993042	1180.373047	1091.432617	-1.785792
226.024048	1086.380249	1184.459595	1090.763794	4.469387
226.399902	1087.271729	1180.373047	1088.460571	1.276934
226.775772	1097.005371	1178.589722	1090.763916	-7.650309
227.151581	1099.680298	1175.617676	1089.277832	-13.698743
227.527374	1095.593628	1185.277100	1092.547119	-3.396957
227.903137	1094.107544	1194.787964	1094.256104	0.147556
228.278870	1086.305786	1211.357300	1097.971313	9.328577
228.654572	1091.581177	1222.651245	1102.355103	8.219975
229.030273	1087.420288	1238.031982	1099.828857	8.238782
229.405930	1089.723633	1248.359985	1105.921753	10.210850
229.781555	1081.921997	1262.849121	1105.550171	13.059498
230.157181	1085.339966	1255.567261	1099.457397	8.293283
230.532761	1099.308716	1249.623169	1093.810425	-3.657859
230.908325	1105.401733	1227.778076	1090.615356	-12.082708
231.283859	1104.064087	1222.279663	1096.485229	-6.411048
231.659332	1091.804199	1225.623413	1093.810425	1.499206
232.034821	1095.370728	1234.539673	1094.553345	-0.587331
232.410263	1094.256226	1239.517944	1084.968262	-6.393951
232.785690	1095.965210	1234.391113	1090.615356	-3.864778
233.161087	1092.695923	1234.390991	1088.757690	-2.779372
233.536469	1084.894043	1230.155884	1094.924927	6.905381
233.911804	1084.225220	1230.750366	1096.559570	8.417907
234.287140	1082.442017	1225.920532	1096.633911	9.891303
234.662430	1088.534912	1231.864746	1097.971313	6.583696
235.037704	1087.123169	1243.678955	1092.398560	3.369655
235.412933	1093.438843	1257.350586	1092.770142	-0.407964
235.788162	1091.729858	1262.774658	1092.993042	0.738510
236.163345	1099.011597	1258.242188	1092.547241	-4.059745
236.538513	1097.376831	1251.183472	1096.708130	-0.434767
236.913635	1097.896973	1249.474609	1097.748413	-0.098009
237.288742	1094.627808	1251.852295	1089.426636	-3.308118
237.663834	1089.723755	1254.824341	1083.408081	-3.825349
238.038879	1101.909302	1261.660278	1084.894043	-10.651114
238.413910	1108.002075	1267.827271	1096.039551	-7.484755
238.788910	1110.008301	1276.743774	1097.451294	-7.531095
239.163879	1108.225098	1282.985107	1103.618286	-2.636079
239.538834	1105.624512	1289.375122	1108.596558	1.617435
239.913757	1105.104370	1298.588623	1110.305542	2.688163
240.288651	1096.188110	1314.043579	1105.178589	4.126809
240.663528	1088.014771	1327.566650	1099.457397	4.776680
241.038361	1084.299561	1353.795532	1098.417114	5.238503
241.413177	1085.488403	1383.368164	1101.686523	5.437805
241.787979	1093.067261	1426.389282	1103.172485	3.031670
242.162735	1101.017700	1471.119629	1109.711182	2.348943
242.537476	1104.584229	1497.348633	1104.807129	0.056752
242.912170	1107.036255	1516.147095	1106.516113	-0.127140
243.286865	1101.760864	1517.187134	1105.252930	0.840598
243.661514	1100.200439	1515.552612	1106.367432	1.484762
244.036148	1099.606079	1494.524780	1105.178589	1.411052
244.410751	1099.457397	1469.707886	1100.423340	0.260889
244.785339	1093.364624	1463.614868	1101.166382	2.107158
245.159882	1090.243896	1474.091797	1099.531738	2.419667
245.534378	1089.352173	1508.196655	1101.463501	2.891605
245.908890	1084.671143	1556.344727	1109.265503	5.214275
246.283356	1081.327515	1630.647461	1113.203491	5.802807
246.657791	1078.132446	1702.943970	1115.135376	5.922255
247.032196	1082.590698	1771.525391	1112.534668	4.346416
247.406586	1086.305786	1813.506470	1110.528442	3.330945
247.780960	1086.157227	1834.682739	1112.311768	3.494142
248.155289	1097.302612	1814.992554	1114.317993	2.370854
248.529602	1098.565796	1775.240601	1118.553101	2.953753
248.903870	1114.615112	1713.123413	1115.135254	0.086906
249.278122	1111.717285	1659.105469	1105.252930	-1.180945
249.652344	1106.144653	1619.427734	1097.599854	-1.664734
250.026550	1099.828979	1594.907837	1096.336670	-0.705405
250.400711	1095.073608	1581.161987	1098.640015	0.733695
250.774857	1100.126099	1573.880249	1104.584351	0.941048
251.148987	1094.924927	1585.471313	1109.859741	3.044526
251.523071	1091.729858	1610.214233	1108.893799	3.310406
251.897125	1078.355347	1634.213867	1110.379883	5.761275
252.271164	1082.144775	1645.953735	1105.698853	4.177670
252.645187	1086.900269	1645.433960	1108.447998	3.857910
253.019165	1100.571899	1640.529907	1102.132202	0.288967
253.393112	1100.200317	1619.056274	1105.401489	1.002431
253.767044	1100.720459	1593.124634	1106.887695	1.252474
254.140930	1098.045532	1571.948242	1111.271484	2.790858
254.514801	1100.497559	1570.536621	1111.791626	2.402793
254.888657	1098.565674	1573.062988	1103.841187	1.111811
255.262466	1095.222046	1577.595337	1101.612183	1.324729
255.636276	1091.581177	1575.812134	1101.017700	1.948765
256.010010	1090.689575	1585.843140	1105.550171	3.001209
256.383759	1092.918701	1607.242188	1112.311646	3.770573
256.757446	1091.655640	1649.000366	1111.048584	3.479524
257.131134	1093.513184	1689.792480	1115.878296	3.750778
257.504791	1091.804199	1736.528931	1121.525391	4.609904
257.878418	1098.045532	1791.958862	1133.413696	5.096914
258.252014	1103.172485	1882.013672	1144.633423	5.323413
258.625580	1105.624512	1994.656616	1140.398071	3.911395
258.999115	1100.126099	2133.974365	1141.512817	4.003171
259.372650	1093.735962	2269.353760	1136.683105	3.653155
259.746124	1088.609131	2379.024414	1146.713989	4.502803
260.119598	1093.513184	2444.559326	1148.868652	4.097230
260.493042	1095.296509	2454.813232	1152.583740	4.213794
260.866425	1104.955933	2410.974609	1141.735596	2.816167
261.239838	1102.949585	2327.829834	1133.710938	2.511376
261.613159	1095.593628	2216.598877	1124.200195	2.551867
261.986511	1092.324219	2124.760742	1127.320801	3.389708
262.359802	1087.123047	2057.219482	1137.128906	5.154731
262.733063	1095.444946	2025.046265	1139.952515	4.787813
263.106293	1097.896973	2007.287964	1133.042358	3.864717
263.479523	1099.457275	1989.455200	1125.909180	2.972131
263.852692	1098.417114	1977.492554	1122.937134	2.789296
264.225861	1094.479126	1963.226440	1124.720337	3.481014
264.598969	1097.971313	1969.096313	1125.240356	3.130325
264.972076	1096.782349	1987.597778	1129.327026	3.653358
265.345154	1100.646240	2024.303345	1131.630493	3.354519
265.718201	1093.661743	2066.953125	1125.463379	3.267432
266.091217	1094.107544	2122.011475	1123.382813	2.848055
266.464203	1093.661743	2181.379150	1122.268188	2.629952
266.837158	1098.788574	2236.883545	1128.583984	2.618007
267.210114	1101.389160	2277.526855	1133.487915	2.729167
267.583038	1096.485229	2302.121094	1141.587036	3.740915
267.955902	1093.513062	2306.356201	1142.181519	4.012758
268.328766	1092.621460	2314.158203	1142.552979	4.087599
268.701569	1096.410889	2326.343994	1141.141235	3.636811
269.074371	1096.485229	2344.770996	1144.707764	3.863101
269.447144	1091.358276	2375.309326	1147.011108	4.334498
269.819885	1085.488403	2426.429688	1143.890381	4.355297
270.192596	1089.649414	2526.366943	1143.444580	3.744311
270.565277	1090.986816	2647.851807	1150.726196	3.837159
270.937927	1099.531616	2770.525391	1162.688965	3.779628
271.310577	1097.302612	2861.843750	1175.766235	4.446687
271.683136	1100.794800	2914.301514	1168.113159	3.712054
272.055725	1096.633911	2930.499268	1166.849976	3.828856
272.428284	1095.742188	2904.196045	1163.654907	3.755292
272.800812	1092.770142	2867.490479	1176.137817	4.697511
273.173279	1086.082886	2803.218750	1176.286499	5.253144
273.545776	1091.506958	2770.376953	1169.450562	4.642623
273.918152	1086.231567	2728.618896	1158.602417	4.406442
274.290558	1091.135498	2718.736816	1147.159790	3.442138
274.662964	1085.859985	2713.609619	1148.051392	3.820698
275.035278	1098.937256	2737.089111	1148.422852	3.020818
275.407593	1097.079590	2771.788818	1161.945923	3.873289
275.779907	1095.444946	2817.559326	1164.472168	4.008283
276.152161	1082.070435	2870.983154	1170.119263	4.921918
276.524384	1085.859985	2916.233398	1170.862183	4.643981
276.896606	1096.633911	2944.171143	1170.044922	3.973452
277.268799	1101.983643	2934.734375	1169.896362	3.705508
277.640930	1100.869019	2936.443604	1171.085205	3.825297
278.013031	1090.615356	2928.939209	1174.800293	4.579440
278.385162	1090.838257	2940.158936	1169.524780	4.254888
278.757233	1090.466675	2952.195557	1166.552734	4.086850
279.129272	1090.986816	2993.359375	1163.952148	3.835491
279.501282	1095.222046	3034.746094	1167.667358	3.735211
279.873230	1097.896973	3096.120117	1175.617554	3.889485
280.245178	1099.754517	3174.361084	1185.499878	4.133090
280.617126	1102.801025	3305.430908	1191.295532	4.017675
280.988983	1097.822754	3417.479492	1182.899414	3.667640
281.360870	1103.098145	3534.283203	1177.252441	3.050130
281.732697	1095.965088	3599.669678	1173.091431	3.080489
282.104492	1101.017700	3659.780518	1183.196655	3.211668
282.476288	1092.993042	3670.851563	1187.729004	3.674987
282.848053	1091.284058	3666.764893	1193.821899	3.981308
283.219757	1094.702026	3654.282471	1201.400757	4.168602
283.591461	1101.760742	3634.443604	1201.252075	3.928298
283.963135	1105.698853	3647.891846	1206.676147	3.972055
284.334747	1095.593628	3708.820313	1201.846558	4.065967
284.706360	1089.054932	3803.184814	1202.961060	4.196783
285.077942	1086.305664	3893.536865	1199.468872	4.031132
285.449524	1088.832031	3968.805420	1203.109619	3.968009
285.821014	1095.593628	3985.523438	1208.310913	3.900347
286.192535	1098.268555	4037.535400	1215.518188	3.989078
286.563995	1097.376953	4038.352783	1213.957886	3.964022
286.935425	1093.884644	4041.547852	1209.871216	3.934865
287.306824	1091.284058	3954.613525	1209.202515	4.118228
287.678223	1096.410889	3876.298096	1203.778320	3.862294
288.049561	1086.825806	3816.261963	1199.766113	4.137862
288.420898	1083.333618	3820.645752	1194.044800	4.044522
288.792145	1079.767212	3845.686279	1199.988892	4.346537
289.163452	1085.042603	3947.778076	1207.196289	4.267027
289.534668	1093.735962	4058.266357	1211.951660	3.987670
289.905914	1095.519409	4179.750488	1209.945557	3.710038
290.277039	1103.246948	4278.499512	1214.626587	3.507741
290.648193	1095.816528	4309.482910	1219.307617	3.842685
291.019318	1096.410889	4320.331543	1222.279785	3.904218
291.390381	1090.615356	4258.883301	1218.564575	4.038459
291.761475	1096.633911	4211.849609	1212.026001	3.704144
292.132507	1092.175659	4170.760254	1213.809204	3.950957
292.503510	1092.026978	4166.228027	1215.146606	4.004931
292.874481	1084.448120	4210.586426	1224.137207	4.468423
293.245422	1088.386230	4288.009766	1222.725464	4.198595
293.616364	1089.500854	4421.680176	1226.069214	4.098470
293.987213	1094.553345	4553.567871	1222.354004	3.694713
294.358093	1093.810303	4674.755371	1226.217773	3.697556
294.728943	1091.358276	4789.033203	1229.635742	3.739579
295.099731	1087.717529	4903.087402	1239.740845	3.984498
295.470490	1083.556641	5015.507324	1249.400269	4.217846
295.841248	1089.054932	5100.584473	1261.883179	4.308288
296.211975	1097.376831	5209.883301	1266.266968	4.106745
296.582642	1106.293091	5320.148926	1263.443481	3.729373
296.953308	1105.178711	5374.464355	1252.966675	3.461656
297.323883	1096.708252	5352.545410	1249.846069	3.598301
297.694519	1091.209839	5241.313965	1254.081299	3.924515
298.065063	1091.135498	5122.578125	1256.830566	4.110069
298.435608	1095.147827	4978.208008	1251.480591	4.026020
298.806122	1095.593628	4812.810059	1232.756470	3.689934
299.176575	1094.182007	4655.437012	1223.394409	3.628283
299.547028	1094.256226	4534.843750	1214.329468	3.489905
299.917450	1093.884644	4470.497559	1220.422241	3.747471
300.287872	1092.398560	4472.801270	1213.363403	3.578415
300.658234	1093.215942	4476.812988	1221.685425	3.796831
301.028564	1092.547241	4465.593750	1224.880371	3.923253
301.398865	1093.884644	4409.718262	1235.431274	4.268810
301.769135	1096.485229	4353.396973	1226.589355	3.994709
302.139374	1098.119873	4326.424316	1215.146606	3.625022
302.509583	1103.246826	4285.261230	1206.676147	3.250435
302.879791	1099.903198	4234.512207	1212.323242	3.586414
303.249939	1099.234497	4167.045410	1216.930054	3.836467
303.620087	1091.506958	4134.872070	1219.976440	4.221297
303.990173	1088.757813	4130.116699	1224.880371	4.475715
304.360260	1085.859985	4130.637207	1227.852539	4.663479
304.730286	1081.624634	4126.327637	1234.539673	5.022330
305.100281	1087.123169	4115.999023	1224.508789	4.535861
305.470276	1089.055054	4121.571777	1219.010376	4.285395
305.840179	1097.822754	4133.460449	1213.066162	3.796349
306.210144	1090.317993	4162.586914	1218.267334	4.164653
306.579987	1089.055054	4208.208496	1217.004272	4.102050
306.949890	1087.271729	4271.960449	1219.604858	4.155293
307.319702	1090.763916	4350.869629	1222.130981	4.029534
307.689484	1093.215942	4430.002441	1228.521118	4.054955
308.059265	1098.565674	4516.937012	1227.332275	3.766899
308.429016	1101.017700	4600.453125	1232.979370	3.770941
308.798737	1101.537720	4711.684082	1237.511841	3.766443
309.168396	1092.250122	4771.646484	1244.347656	4.133763
309.538055	1090.689819	4791.411133	1236.100098	3.929242
309.907684	1094.702026	4776.327637	1235.208496	3.816425
310.277313	1095.519409	4797.132324	1228.595581	3.595086
310.646851	1097.525513	4810.061035	1239.740967	3.830683
311.016388	1089.723633	4792.896973	1243.158936	4.143346
311.385895	1092.026978	4726.619141	1247.468384	4.276722
311.755371	1092.398560	4656.997559	1239.146484	4.116814
312.124817	1096.931030	4604.911621	1230.750366	3.814712
312.494232	1095.445190	4568.131348	1221.239624	3.622396
312.863617	1089.500854	4544.279785	1219.976440	3.776670
313.232971	1090.095215	4552.973145	1220.050659	3.752816
313.602295	1092.472778	4624.452637	1226.069214	3.782480
313.971619	1097.228149	4730.036621	1224.211792	3.495467
314.340820	1094.924927	4773.727051	1229.487183	3.657773
314.710083	1092.547119	4766.445313	1226.960938	3.658616
315.079285	1093.884644	4683.597168	1222.725586	3.589172
315.448486	1087.048828	4601.715820	1214.032227	3.612957
315.817596	1089.426636	4467.748535	1212.991943	3.657594
316.186707	1086.677368	4361.718262	1219.679199	4.061074
316.555786	1097.822754	4271.291992	1218.787598	3.811754
316.924866	1100.274780	4227.230469	1221.165283	3.866077
317.293884	1099.160156	4220.394043	1214.403687	3.692243
317.662872	1099.977417	4244.542480	1219.233398	3.792448
318.031830	1097.748413	4282.734375	1221.388184	3.881957
318.400757	1091.506958	4317.285645	1224.211792	4.113885
318.769684	1085.934204	4353.322266	1223.097046	4.197935
319.138550	1088.163452	4359.711426	1219.307617	4.008627
319.507416	1092.770142	4351.612793	1213.214844	3.695935
319.876190	1094.850586	4300.716309	1209.945435	3.590133
320.244995	1098.045654	4233.100098	1208.682251	3.529017
320.613770	1098.491333	4179.676270	1211.505859	3.667892
320.982483	1093.810425	4179.453613	1212.471802	3.845596
321.351166	1085.637085	4218.017090	1212.248901	4.042033
321.719818	1085.339844	4279.910645	1210.019775	3.902869
322.088440	1082.739258	4394.857422	1213.437744	3.946069
322.457062	1084.522583	4559.958008	1221.536743	3.942359
322.825623	1090.169434	4740.291016	1232.830688	3.908397
323.194183	1088.237671	4858.135254	1240.855469	4.048327
323.562653	1087.123047	4930.877441	1239.443726	3.962810
323.931183	1079.024048	4936.598145	1243.307495	4.258724
324.299591	1090.392456	4910.740723	1238.477661	3.876223
324.668060	1095.370728	4859.991699	1235.951538	3.734262
325.036407	1103.098145	4789.330566	1228.892700	3.412551
325.404755	1104.212769	4729.293457	1219.010376	3.166760
325.773102	1101.314819	4648.304199	1218.415894	3.301422
326.141388	1089.872192	4571.028809	1214.923706	3.592240
326.509674	1083.259399	4464.255859	1216.335571	3.936004
326.877899	1081.253296	4383.637207	1207.047729	3.809201
327.246124	1092.992920	4341.285156	1203.183960	3.392276
327.614288	1098.862915	4314.833496	1203.926880	3.266944
327.982422	1100.126099	4310.672363	1210.762817	3.446040
328.350525	1100.943481	4322.263672	1217.895874	3.630573
328.718628	1092.918701	4369.148926	1223.542969	3.987030
329.086700	1090.466675	4417.296875	1226.292114	4.082728
329.454712	1088.757690	4466.113770	1226.886475	4.089850
329.822693	1093.736084	4485.952637	1225.326172	3.879177
330.190674	1097.079712	4536.403809	1223.319946	3.670495
330.558563	1095.370728	4567.908691	1224.360229	3.714560
330.926483	1099.977417	4657.517578	1224.137329	3.490050
331.294312	1099.754517	4739.473145	1225.920532	3.466367
331.662231	1101.315063	4857.688965	1222.205566	3.218277
332.029999	1091.284180	4951.310547	1232.310669	3.653511
332.397766	1090.169556	5018.851563	1233.796753	3.655862
332.765503	1092.027100	5055.037109	1246.725342	3.903554
333.133240	1100.943481	5077.253418	1238.626343	3.462579
333.500916	1099.457397	5083.420410	1253.338257	3.862507
333.868561	1098.714355	5078.591309	1248.359985	3.760057
334.236176	1094.256226	5053.179199	1258.019409	4.136559
334.603790	1093.810425	5014.170898	1247.319824	3.915696
334.971344	1090.466797	4978.728027	1241.895630	3.894513
335.338867	1088.534790	4955.545410	1236.471558	3.825610
335.706360	1095.667847	4949.601563	1235.059692	3.616872
336.073853	1102.355225	4966.542480	1241.895630	3.611119
336.441284	1107.407837	4995.520508	1241.375488	3.445570
336.808655	1108.819580	5052.808105	1240.409546	3.336469
337.176086	1098.862915	5096.869629	1236.545776	3.443788
337.543396	1092.918823	5120.794922	1239.815063	3.646990
337.910706	1082.293335	5127.630371	1247.914063	4.094115
338.277954	1079.915649	5118.714355	1246.725464	4.130184
338.645264	1082.442017	5098.429688	1248.285767	4.129588
339.012421	1087.123047	5041.811035	1240.186890	3.870440
339.379669	1096.039551	4946.332031	1243.976074	3.842215
339.746796	1101.835083	4853.156250	1236.843140	3.598947
340.113953	1098.862915	4780.636719	1236.025757	3.725455
340.481018	1095.965088	4754.185059	1230.750244	3.684447
340.848114	1085.562744	4754.185547	1240.261108	4.216797
341.215118	1091.952759	4801.441895	1240.186768	3.996076
341.582153	1090.689697	4944.994629	1245.165039	4.007865
341.949066	1094.924927	5140.485352	1246.576782	3.748599
342.316010	1088.832153	5407.900879	1254.675659	3.839798
342.682922	1088.460693	5659.861328	1266.044067	3.884660
343.049835	1086.454468	5974.458496	1274.811646	3.853458
343.416656	1090.615356	6264.313965	1289.003662	3.834555
343.783478	1094.479126	6510.775879	1295.839478	3.717676
344.150269	1098.342773	6633.970215	1300.446289	3.650959
344.516998	1101.983521	6636.273438	1299.480225	3.568601
344.883728	1101.537720	6520.063965	1295.393677	3.577651
345.250427	1102.503906	6415.222656	1286.551636	3.464285
345.617065	1102.280884	6261.416016	1276.000610	3.367226
345.983704	1102.578125	6164.153809	1273.994507	3.386621
346.350281	1100.051758	6011.907715	1272.062622	3.501953
346.716827	1096.485229	5885.369629	1263.740601	3.492575
347.083405	1096.931030	5774.881348	1262.254761	3.534106
347.449860	1096.411011	5687.353027	1266.638550	3.707900
347.816376	1091.061035	5667.291504	1275.926392	4.039686
348.182770	1087.197388	5656.963379	1270.130737	4.003123
348.549194	1085.562866	5722.201660	1269.090454	3.958203
348.915558	1089.426514	5807.054688	1271.319580	3.855604
349.281921	1091.358398	5920.143066	1278.675537	3.879178
349.648193	1093.810425	5955.882813	1280.087280	3.831223
350.014526	1097.599854	5980.253906	1288.186279	3.903337
350.380737	1099.234497	5983.152344	1288.557739	3.876462
350.746948	1104.955688	6047.943848	1296.656860	3.878244
351.113159	1103.766968	6121.355469	1285.734375	3.626591
351.479309	1102.578125	6195.360840	1281.796265	3.519061
351.845428	1096.188110	6308.673340	1274.886108	3.428269
352.211517	1090.243774	6426.591309	1282.167725	3.596541
352.577576	1087.940308	6570.589355	1293.907593	3.756711
352.943604	1089.426392	6709.461426	1308.025146	3.889633
353.309601	1099.234375	6871.218750	1315.901245	3.753767
353.675537	1106.590332	7049.619141	1318.427612	3.564467
354.041473	1105.029907	7200.974121	1317.015747	3.477490
354.407379	1099.754517	7315.548340	1327.269531	3.660273
354.773254	1087.643188	7426.854004	1335.219849	3.905481
355.139038	1092.993042	7598.716309	1348.371460	3.925442
355.504913	1092.027100	7858.924316	1351.863770	3.839820
355.870636	1104.881348	8157.398438	1359.739868	3.613724
356.236389	1105.698853	8423.848633	1367.244507	3.573931
356.602081	1103.246826	8719.350586	1382.104858	3.661427
356.967804	1088.980591	8899.980469	1390.723999	3.863057
357.333405	1088.757813	9022.133789	1389.386597	3.789418
357.699036	1088.757690	8992.041016	1387.751953	3.783165
358.064606	1095.222168	8955.855469	1382.848022	3.659067
358.430176	1090.689575	8885.119141	1378.538452	3.693007
358.795654	1092.473022	8929.774414	1379.504272	3.662374
359.161163	1096.633911	9116.201172	1381.881958	3.556901
359.526581	1097.599854	9525.609375	1392.358765	3.497373
359.892029	1099.383057	10059.325195	1412.568970	3.495401
360.257416	1090.986938	10667.566406	1440.655396	3.651288
360.622772	1092.695801	11137.605469	1463.169312	3.688171
360.988098	1087.717651	11464.463867	1476.097778	3.742793
361.353394	1096.931030	11528.215820	1480.184570	3.674078
361.718658	1096.856812	11393.729492	1474.091675	3.663587
362.083893	1103.023804	10953.855469	1452.172363	3.544356
362.449097	1101.612183	10366.418945	1425.274780	3.493463
362.814209	1096.485229	9663.068359	1400.309082	3.546617
363.179382	1100.943481	9030.305664	1378.389771	3.498974
363.544434	1097.525513	8561.679688	1359.591187	3.510989
363.909546	1093.810425	8289.062500	1348.817261	3.544099
364.274536	1091.655518	8136.742188	1348.817383	3.650230
364.639587	1090.615356	8002.552246	1347.999878	3.723768
365.004517	1095.816528	7940.435059	1351.046387	3.728913
365.369507	1086.603027	7882.775879	1346.216675	3.819998
365.734344	1085.711426	7875.791504	1351.417847	3.913156
366.099274	1087.346069	7845.625000	1347.702759	3.852411
366.464081	1096.188110	7816.274902	1343.244507	3.676387
366.828918	1098.565796	7744.945313	1342.278564	3.666850
367.193665	1101.983643	7660.833984	1344.804932	3.702193
367.558411	1100.646118	7580.958496	1350.229004	3.851402
367.923126	1105.401489	7498.333496	1344.730591	3.743652
368.287781	1093.587402	7441.194824	1337.374634	3.840616
368.652435	1092.026978	7393.417969	1331.207642	3.795680
369.017059	1090.020874	7421.058594	1331.356323	3.811941
369.381653	1104.955688	7484.810059	1330.018677	3.527714
369.746185	1103.321045	7569.292480	1323.257202	3.401440
370.110687	1099.903198	7657.415527	1320.879517	3.369819
370.475220	1093.364624	7734.021973	1319.467773	3.404831
370.839661	1094.182007	7798.591309	1328.161255	3.489931
371.204041	1100.571899	7838.863281	1330.093140	3.406223
371.568451	1100.200439	7826.008301	1345.993774	3.654481
371.932770	1095.816528	7813.228516	1353.721191	3.839345
372.297150	1097.079712	7776.002441	1352.160767	3.819195
372.661377	1094.776245	7813.748535	1351.492188	3.820762
373.025696	1099.828857	7853.798340	1345.027832	3.630442
373.389862	1093.661743	7908.855957	1352.829712	3.802796
373.754059	1104.435547	7976.917480	1355.801636	3.657574
374.118225	1104.212769	8107.541504	1354.761475	3.577566
374.482361	1112.534546	8292.480469	1365.535278	3.523714
374.846436	1107.482056	8530.174805	1359.591187	3.396465
375.210510	1110.751343	8844.104492	1374.377441	3.408949
375.574524	1103.246826	9182.850586	1381.584839	3.444947
375.938538	1096.708130	9519.368164	1401.646484	3.620452
376.302460	1094.850586	9769.024414	1421.559570	3.766457
376.666412	1100.571899	9927.290039	1419.925171	3.618030
377.030304	1104.361328	9912.428711	1416.730103	3.546394
377.394196	1102.801025	9766.274414	1396.073853	3.385164
377.757996	1095.444946	9501.385742	1389.460938	3.497717
378.121796	1092.027100	9191.097656	1378.166870	3.532995
378.485565	1095.816528	8902.506836	1377.052246	3.602496
378.849304	1093.735962	8699.881836	1376.903687	3.722880
379.212982	1097.971313	8591.176758	1367.987305	3.603478
379.576630	1092.250000	8524.973633	1359.814087	3.599812
379.940277	1091.284058	8519.549805	1354.984497	3.549960
380.303864	1088.386353	8481.878906	1352.829712	3.576704
380.667450	1094.404785	8506.769531	1352.012451	3.475378
381.030945	1095.593628	8493.395508	1359.665527	3.569600
381.394501	1097.302612	8557.147461	1371.702637	3.678361
381.757935	1094.553467	8623.945313	1378.166992	3.766752
382.121399	1097.748413	8730.346680	1376.383667	3.650595
382.484741	1095.444946	8884.598633	1380.098633	3.654488
382.848145	1097.599731	9019.680664	1384.333984	3.619431
383.211487	1100.943481	9148.967773	1385.894409	3.540632
383.574768	1102.875244	9215.320313	1389.089355	3.528087
383.938019	1100.497559	9256.260742	1390.575562	3.556724
384.301270	1098.640015	9308.347656	1382.922241	3.462757
384.664459	1094.776245	9335.838867	1379.875977	3.459502
385.027649	1093.290161	9361.547852	1377.869629	3.441831
385.390778	1091.061157	9439.937500	1389.981079	3.580361
385.753876	1097.674194	9550.648438	1394.290649	3.509019
386.116943	1094.999146	9678.152344	1404.024292	3.600368
386.479980	1098.194214	9734.399414	1400.606323	3.501678
386.842987	1101.909424	9758.399414	1401.720825	3.463429
387.205994	1102.132202	9733.582031	1399.194458	3.441626
387.568909	1098.937134	9707.948242	1402.761108	3.529139
387.931793	1090.764038	9626.437500	1398.600220	3.606466
388.294678	1093.067261	9630.895508	1398.080078	3.572487
388.657471	1091.432617	9628.295898	1399.640259	3.610315
389.020294	1094.107544	9705.421875	1400.754883	3.560982
389.383057	1093.364502	9880.626953	1412.123169	3.627508
389.745819	1094.033325	10093.875977	1415.541016	3.572370
390.108521	1088.683472	10391.607422	1432.705078	3.697994
390.471191	1088.312012	10654.192383	1432.630859	3.599447
390.833801	1090.392456	10923.391602	1446.005371	3.616525
391.196442	1093.884644	11068.282227	1452.841187	3.598779
391.558960	1095.073486	11115.018555	1462.203247	3.663990
391.921509	1094.256226	11048.145508	1456.481934	3.639037
392.284027	1094.479004	10990.932617	1448.828613	3.580572
392.646484	1093.810425	10917.299805	1443.404663	3.558758
393.008911	1093.215942	10909.200195	1452.023804	3.655343
393.371307	1099.160156	10926.140625	1454.772827	3.618738
393.733673	1093.958984	10914.178711	1456.927734	3.696137
394.096008	1088.980713	10832.815430	1449.274536	3.697659
394.458344	1087.568970	10693.647461	1447.937134	3.751460
394.820587	1084.225342	10468.881836	1446.153931	3.856599
395.182831	1083.259399	10242.258789	1444.519165	3.944315
395.545013	1079.692871	9997.357422	1434.785522	3.981902
395.907196	1096.633789	9815.092773	1422.079712	3.732838
396.269287	1101.017700	9690.858398	1421.113892	3.726451
396.631409	1099.011475	9623.762695	1426.538086	3.842067
396.993469	1088.832031	9590.920898	1428.469849	3.994757
397.355530	1090.095093	9610.313477	1424.531860	3.925213
397.717499	1097.451172	9671.911133	1428.469849	3.860519
398.079468	1100.274780	9713.817383	1433.150757	3.864565
398.441376	1101.091919	9720.059570	1438.129028	3.910412
398.803284	1094.924805	9653.929688	1438.723633	4.016809
399.165131	1097.451294	9635.725586	1440.283813	4.015244
399.526978	1099.606079	9596.196289	1441.101196	4.019202
399.888763	1101.760742	9613.434570	1445.113647	4.033906
400.250519	1107.110474	9619.081055	1447.714233	4.001468
400.612244	1103.395386	9662.325195	1458.710938	4.151402
400.973938	1101.314819	9743.539063	1460.865845	4.160399
401.335602	1094.924805	9852.764648	1473.422974	4.321821
401.697205	1095.742310	10023.808594	1482.636597	4.333461
402.058807	1099.531738	10196.042969	1507.305054	4.482744
402.420349	1104.212769	10456.176758	1525.806274	4.508075
402.781860	1107.704956	10700.483398	1543.861938	4.546722
403.143341	1105.253052	10946.350586	1549.286011	4.512027
403.504822	1092.398560	11151.351563	1570.759399	4.755573
403.866241	1092.398560	11320.166992	1584.802734	4.814385
404.227631	1090.615234	11428.797852	1598.325806	4.911024
404.588959	1098.417114	11432.440430	1589.558228	4.752661
404.950287	1094.627686	11360.885742	1593.421875	4.858579
405.311554	1096.856812	11233.902344	1587.031738	4.835481
405.672821	1093.141602	11129.878906	1586.585938	4.916382
406.034027	1097.228271	10988.481445	1578.784180	4.868503
406.395203	1098.342773	10810.897461	1575.737793	4.915236
406.756348	1101.017700	10662.366211	1579.081421	4.999961
407.117493	1097.748413	10589.846680	1578.264160	5.062271
407.478516	1096.336548	10643.865234	1585.025757	5.118489
407.839600	1104.064087	10727.975586	1588.146362	5.029995
408.200592	1103.098145	10892.481445	1600.332031	5.079318
408.561554	1105.401489	11054.387695	1616.232788	5.134506
408.922485	1097.599731	11218.374023	1630.498901	5.265399
409.283417	1094.330322	11320.390625	1644.244995	5.377581
409.644257	1088.757690	11396.625000	1649.000366	5.435098
410.005096	1087.568970	11456.885742	1660.071411	5.521121
410.365906	1095.742310	11445.887695	1657.396484	5.426534
410.726715	1098.491455	11416.835938	1655.761841	5.400773
411.087433	1097.153931	11348.106445	1657.470825	5.465999
411.448120	1094.182007	11287.698242	1658.510864	5.536155
411.808807	1090.615356	11256.937500	1667.873047	5.678137
412.169434	1094.404663	11197.122070	1666.758667	5.665347
412.530029	1094.256226	11255.969727	1675.600708	5.720930
412.890564	1097.079712	11333.320313	1672.703003	5.623386
413.251099	1091.952759	11516.996094	1683.922729	5.678346
413.611572	1089.129272	11703.718750	1690.238403	5.663046
413.972076	1087.643188	11896.534180	1705.321899	5.714543
414.332489	1086.825806	12014.155273	1715.129883	5.749841
414.692871	1092.398560	12220.346680	1732.219360	5.749674
415.053223	1097.748413	12400.531250	1750.349243	5.773807
415.413574	1099.457397	12708.885742	1766.175659	5.742903
415.773834	1101.835083	12958.989258	1782.745117	5.742609
416.134094	1092.175781	13307.765625	1797.308594	5.772401
416.494263	1101.389160	13623.776367	1812.243530	5.676668
416.854462	1102.132202	14003.983398	1834.831421	5.679024
417.214630	1107.630737	14443.260742	1868.119141	5.702681
417.574738	1105.104370	14864.926758	1901.555176	5.788235
417.934784	1094.776367	15388.241211	1934.545532	5.875196
418.294861	1101.537720	15949.523438	1969.467773	5.845440
418.654846	1097.971313	16604.279297	2004.464478	5.845964
419.014832	1102.132202	17247.964844	2037.900879	5.795729
419.374756	1096.336548	17958.226563	2072.005615	5.786238
419.734680	1095.890747	18717.746094	2113.986572	5.777461
420.094543	1094.850464	19323.908203	2155.521973	5.818575
420.454376	1097.599731	19668.375000	2183.608398	5.847945
420.814148	1091.581177	19842.244141	2190.146973	5.858811
421.173920	1092.175537	20025.251953	2203.818604	5.871434
421.533691	1092.621460	20165.462891	2198.691650	5.799189
421.893341	1090.615356	20189.386719	2207.756592	5.849283
422.253021	1088.311890	20089.748047	2201.440918	5.858131
422.612640	1076.349121	20029.859375	2207.236328	5.966638
422.972260	1078.503906	20046.798828	2208.945557	5.959638
423.331757	1080.213013	20174.080078	2215.781494	5.947294
423.691315	1090.243774	20319.490234	2225.143799	5.901947
424.050781	1095.667847	20334.943359	2237.403564	5.934401
424.410248	1093.958862	20154.685547	2223.285889	5.924890
424.769653	1093.215942	19801.376953	2200.177734	5.917000
425.128998	1097.971313	19418.869141	2173.057129	5.868084
425.488373	1103.246826	18899.417969	2153.738525	5.902908
425.847656	1104.955688	18466.158203	2134.865479	5.932249
426.206940	1103.915649	18026.732422	2106.184814	5.922591
426.566193	1102.280884	17623.935547	2076.612305	5.897299
426.925385	1099.160156	17116.298828	2051.052002	5.942958
427.284576	1094.850586	16619.513672	2023.114380	5.979285
427.643677	1092.695801	16267.168945	2001.269531	5.987514
428.002777	1089.797974	16048.347656	1986.334595	5.993473
428.361847	1092.398560	15886.218750	1976.675293	5.977339
428.720856	1096.188110	15677.652344	1961.814819	5.936487
429.079865	1097.079712	15514.929688	1953.195679	5.937890
429.438812	1089.946655	15458.086914	1942.198853	5.931541
429.797760	1084.373901	15457.863281	1940.638550	5.957250
430.156616	1084.076660	15355.104492	1932.465332	5.944832
430.515503	1089.500732	15270.250000	1931.647827	5.938664
430.874268	1091.209717	15250.484375	1936.626099	5.970761
431.233093	1095.073486	15380.217773	1936.254517	5.888502
431.591827	1097.525513	15576.227539	1949.926270	5.887273
431.950562	1100.869141	15736.424805	1954.755859	5.834331
432.309204	1099.531616	15893.203125	1963.895142	5.842793
432.667877	1101.835083	16050.426758	1973.108765	5.828466
433.026459	1100.571899	16112.692383	1980.019043	5.858247
433.385010	1099.977417	16215.825195	1993.467773	5.910951
433.743561	1099.977417	16183.579102	1990.347046	5.902898
434.102051	1098.937134	16257.434570	1995.845337	5.916868
434.460510	1104.807129	16280.989258	2002.458374	5.914869
434.818939	1101.240723	16291.465820	2006.693481	5.960760
435.177338	1096.485229	16290.723633	2006.396484	5.988528
435.535675	1085.265381	16279.502930	1998.668823	6.011512
435.894012	1088.906250	16291.985352	2000.452148	5.995798
436.252289	1096.187988	16449.507813	2010.482910	5.955030
436.610535	1098.714233	16529.531250	2016.130005	5.945348
436.968719	1090.318237	16831.423828	2032.476563	5.985338
437.326935	1086.751587	17082.716797	2050.086426	6.022362
437.685028	1090.243774	17424.955078	2072.005615	6.010280
438.043152	1093.958984	17707.900391	2084.414063	5.961590
438.401215	1091.655518	18043.451172	2100.760742	5.952793
438.759277	1093.215942	18424.548828	2125.206299	5.954478
439.117249	1094.479126	18941.919922	2160.128662	5.970881
439.475250	1101.166382	19407.798828	2180.264893	5.894577
439.833130	1100.571899	19890.095703	2209.837158	5.903637
440.191071	1099.605957	20061.066406	2212.289307	5.868131
440.548889	1092.027100	20177.646484	2218.010498	5.899643
440.906708	1092.101440	20081.572266	2205.676025	5.864169
441.264496	1095.444946	19863.939453	2198.097412	5.875018
441.622223	1102.057983	19529.132813	2183.756836	5.870161
441.979950	1101.166260	19147.587891	2166.741699	5.904635
442.337616	1096.856812	18899.937500	2148.240234	5.905627
442.695251	1092.844360	18686.466797	2135.014404	5.923567
443.052887	1087.494629	18619.148438	2126.766846	5.927976
443.410461	1088.460571	18742.712891	2141.107178	5.962567
443.768005	1086.602905	19002.402344	2155.819092	5.968007
444.125458	1089.352173	19320.119141	2173.577393	5.947227
444.482941	1089.203491	19703.150391	2192.004639	5.924596
444.840393	1090.763794	20246.154297	2224.029053	5.916169
445.197754	1093.215942	20748.142578	2250.332275	5.887157
445.555084	1097.079712	21180.138672	2277.601563	5.878198
445.912415	1093.513062	21388.853516	2282.802490	5.859914
446.269714	1091.581177	21525.349609	2288.821045	5.859125
446.626953	1087.568970	21529.435547	2285.403076	5.859710
446.984161	1094.330444	21406.017578	2279.310303	5.833981
447.341309	1098.268433	21185.636719	2262.369385	5.795189
447.698456	1093.364624	20848.228516	2235.248779	5.780269
448.055542	1098.417114	20558.298828	2229.824707	5.814052
448.412598	1102.578003	20168.136719	2221.056885	5.866489
448.769653	1111.791626	19763.408203	2202.258057	5.846498
449.126617	1105.847290	19260.603516	2157.156494	5.790820
449.483582	1095.890869	18933.224609	2131.893555	5.808058
449.840515	1094.107544	18665.066406	2120.971191	5.844096
450.197388	1090.095337	18510.070313	2126.692627	5.950624
450.554230	1095.370728	18337.912109	2123.720459	5.964026
450.911041	1093.884766	18236.041016	2108.636963	5.919630
451.267822	1103.618286	18283.595703	2103.212891	5.818370
451.624573	1107.110474	18377.738281	2100.537842	5.752121
451.981262	1103.172485	18352.771484	2108.711182	5.829345
452.337921	1100.571899	18149.626953	2099.794922	5.860870
452.694580	1094.627686	17779.302734	2083.076660	5.924293
453.051147	1097.599731	17580.916016	2064.278076	5.864586
453.407715	1091.506958	17202.863281	2040.129883	5.887915
453.764221	1086.231567	17082.195313	2035.597290	5.935033
454.120728	1083.036499	16695.820313	2026.532349	6.043098
454.477142	1079.321411	16660.156250	2024.451782	6.065980
454.833557	1082.887817	16519.054688	2013.009155	6.025598
455.189911	1090.912598	16544.466797	2000.452026	5.885633
455.546265	1101.240601	16613.716797	1999.188965	5.788556
455.902557	1107.853638	16727.548828	2002.829712	5.729792
456.258820	1105.401489	17000.537109	2025.640991	5.789441
456.615051	1102.057983	17298.193359	2043.176270	5.810758
456.971252	1101.389282	17638.648438	2066.656006	5.836921
457.327393	1103.172485	18260.117188	2094.519287	5.778108
457.683502	1101.315063	18984.716797	2141.404297	5.815947
458.039612	1105.550293	20008.236328	2186.654785	5.719317
458.395630	1103.172485	20919.335938	2242.827637	5.751139
458.751648	1101.760620	21744.615234	2289.192627	5.752266
459.107605	1094.924805	22537.427734	2328.572998	5.753284
459.463562	1093.958984	22827.578125	2341.724609	5.741178
459.819458	1104.881470	22709.734375	2329.984619	5.670500
460.175323	1108.299316	22001.703125	2306.430664	5.734496
460.531158	1109.339600	21195.072266	2269.799561	5.777534
460.886932	1102.652344	20366.525391	2231.087891	5.857781
461.242676	1100.274658	19641.181641	2183.236572	5.840933
461.598419	1100.646118	19074.773438	2145.268066	5.811809
461.954102	1104.138306	18463.408203	2106.184814	5.772400
462.309723	1102.280762	17963.427734	2080.550537	5.801917
462.665344	1100.051758	17533.435547	2057.813721	5.828148
463.020905	1094.181885	17391.814453	2049.417725	5.861194
463.376373	1093.884644	17356.744141	2051.869629	5.890631
463.731873	1088.832031	17438.031250	2052.018311	5.891336
464.087341	1086.677368	17475.478516	2056.179199	5.915636
464.442749	1091.729858	17613.015625	2061.900635	5.872248
464.798126	1097.228271	17695.935547	2065.169678	5.831427
465.153503	1101.240601	17879.390625	2067.101563	5.756660
465.508820	1094.702026	18025.542969	2081.442139	5.828063
465.864105	1098.119873	18128.750000	2093.405029	5.844089
466.219330	1096.856689	18324.908203	2113.243896	5.899607
466.574524	1097.673950	18351.955078	2114.506836	5.893221
466.929657	1096.633789	18271.187500	2117.256104	5.942642
467.284790	1095.890747	18086.470703	2109.751221	5.967192
467.639893	1101.909302	17867.576172	2102.469971	5.967915
467.994934	1101.091919	17696.976563	2087.683838	5.944798
468.349945	1101.537964	17484.470703	2078.915771	5.965829
468.704926	1101.314941	17307.480469	2059.745850	5.913989
469.059875	1103.766968	17149.958984	2051.349365	5.905341
469.414764	1099.308716	17071.720703	2038.569336	5.880518
469.769653	1090.764038	17054.111328	2039.312500	5.942040
470.124451	1089.129272	17164.896484	2040.575684	5.918513
470.479248	1095.519287	17214.603516	2045.405273	5.892928
470.834015	1096.559570	17278.205078	2048.971924	5.885757
471.188721	1085.042603	17419.009766	2064.501221	5.996453
471.543365	1083.928101	17700.914063	2078.544189	5.985538
471.898010	1088.386230	17956.142578	2082.408203	5.893030
472.252625	1093.141602	18318.666016	2092.958984	5.804279
472.607178	1092.324341	18591.060547	2099.052002	5.753145
472.961700	1082.887817	18703.630859	2118.519287	5.877343
473.316193	1084.002319	18701.103516	2113.912354	5.846081
473.670654	1084.151001	18628.806641	2120.971191	5.909607
474.025055	1096.485229	18777.189453	2111.014893	5.738061
474.379456	1096.559570	18859.888672	2123.051758	5.778716
474.733795	1098.268433	19033.013672	2122.903076	5.713126
475.088104	1092.026978	19326.138672	2151.881104	5.812480
475.442383	1094.553345	19649.281250	2172.611572	5.810153
475.796570	1095.519165	20015.296875	2200.846680	5.842180
476.150787	1104.584229	20474.337891	2225.069336	5.784715
476.504944	1110.082642	20959.015625	2246.914307	5.727419
476.859070	1112.608887	21324.138672	2262.295166	5.688270
477.213135	1104.881470	21579.962891	2275.818115	5.718837
477.567200	1099.011597	21854.734375	2290.306885	5.739599
477.921173	1095.890747	22179.287109	2307.173828	5.745199
478.275146	1095.370728	22404.275391	2318.244873	5.738794
478.629089	1094.924927	22702.529297	2341.204346	5.767782
478.983002	1092.695801	23126.203125	2370.628174	5.799950
479.336823	1097.154053	23749.156250	2399.680664	5.750161
479.690643	1102.057983	24458.078125	2433.265381	5.699633
480.044403	1101.537842	25380.695313	2474.354736	5.654302
480.398163	1099.234375	26633.365234	2545.759766	5.665066
480.751862	1089.203491	28423.093750	2651.789795	5.716662
481.105499	1088.683472	30837.486328	2792.221924	5.726410
481.459137	1081.996216	34329.417969	2995.068359	5.754046
481.812744	1084.151001	38855.269531	3242.050781	5.713095
482.166290	1085.785645	44224.753906	3563.410156	5.743356
482.519806	1091.135376	49371.261719	3900.001221	5.817851
482.873291	1091.506958	53518.535156	4212.964844	5.953910
483.226715	1091.432617	56087.332031	4433.643066	6.077199
483.580139	1090.541016	56988.699219	4514.187500	6.124793
483.933502	1090.615356	56375.332031	4462.026855	6.098271
484.286804	1086.454468	54467.613281	4310.300781	6.039296
484.640106	1090.764038	51658.968750	4106.711426	5.964118
484.993347	1095.742310	48771.562500	3908.174561	5.899075
485.346558	1102.726685	46579.558594	3758.826172	5.840556
485.699738	1094.256226	45657.761719	3680.510986	5.803527
486.052887	1095.519409	45992.199219	3692.473389	5.784290
486.405975	1092.473022	47112.906250	3741.959229	5.757195
486.759064	1102.652466	48293.277344	3810.317627	5.737718
487.112061	1099.903320	48829.144531	3827.555908	5.714846
487.464996	1094.999268	48370.253906	3813.215576	5.749766
487.817963	1087.717407	47058.292969	3744.336914	5.778957
488.170868	1089.203613	45012.589844	3639.792969	5.806905
488.523743	1095.370728	42717.675781	3504.487549	5.788043
488.876587	1096.336548	40653.769531	3380.328125	5.773862
489.229401	1094.404663	39429.406250	3298.074951	5.748456
489.582153	1090.392334	39283.480469	3285.369141	5.747052
489.934845	1097.153931	40039.730469	3313.901123	5.692348
490.287537	1095.816406	41367.222656	3389.169922	5.694744
490.640198	1097.302612	42715.964844	3446.308594	5.644116
490.992798	1089.055054	43414.113281	3486.952148	5.665431
491.345337	1093.215942	43099.515625	3476.624268	5.673930
491.697876	1096.188110	41725.214844	3420.005615	5.719599
492.050354	1098.417114	39564.121094	3312.117920	5.754999
492.402832	1094.776367	36815.214844	3157.791016	5.775446
492.755219	1092.175659	33912.578125	2992.319092	5.789519
493.107605	1089.277954	31300.318359	2845.348389	5.812678
493.459930	1094.033203	29328.177734	2721.634277	5.764655
493.812225	1098.937256	27939.978516	2646.068359	5.764050
494.164490	1099.828735	27100.505859	2598.514648	5.764026
494.516724	1097.748413	26675.718750	2570.279541	5.757029
494.868896	1097.748413	26604.314453	2560.546143	5.734985
495.221039	1103.989868	26842.156250	2560.843506	5.660285
495.573120	1100.497559	27148.431641	2586.477783	5.704791
495.925201	1095.667969	27486.953125	2600.892578	5.703491
496.277222	1097.599731	27654.953125	2612.706787	5.705038
496.629211	1101.909302	27662.162109	2603.492920	5.653499
496.981140	1104.732788	27512.142578	2587.740967	5.615879
497.333069	1102.726685	27241.677734	2574.218018	5.629497
497.684967	1098.342773	26880.865234	2559.728760	5.668126
498.036804	1097.451172	26380.509766	2537.215088	5.694580
498.388580	1094.850586	25849.693359	2510.763184	5.719739
498.740326	1095.742310	25331.132813	2485.574707	5.734723
499.092072	1093.810425	24788.576172	2456.968018	5.752990
499.443756	1094.033325	24317.718750	2431.185059	5.757707
499.795410	1091.061157	23897.462891	2402.578369	5.750654
500.147003	1093.141724	23591.632813	2382.591064	5.731270
500.498566	1089.946655	23283.130859	2356.213623	5.705657
500.850098	1098.417114	23050.486328	2351.160889	5.706723
501.201599	1093.661743	22868.000000	2348.188965	5.761494
501.553009	1093.290161	22776.310547	2358.294189	5.834077
501.904449	1086.677368	22781.509766	2357.179443	5.856243
502.255859	1089.649414	22898.242188	2367.953369	5.861469
502.607178	1096.633911	23079.615234	2367.210205	5.779818
502.958405	1103.246704	23157.037109	2366.839111	5.729593
503.309692	1103.395386	23168.333984	2362.975098	5.708512
503.660919	1096.113647	23194.187500	2364.164063	5.738285
504.012115	1090.169434	23222.572266	2363.718018	5.754227
504.363251	1088.311890	23236.986328	2353.687256	5.713098
504.714294	1087.717651	23094.771484	2345.291016	5.714410
505.065369	1087.271729	22971.056641	2342.467529	5.735734
505.416443	1091.432617	22817.474609	2338.083740	5.738050
505.767395	1094.702026	22792.656250	2342.467529	5.750613
506.118317	1100.051758	22773.265625	2334.517090	5.695811
506.469238	1102.206543	22950.328125	2341.130127	5.670619
506.820160	1097.302612	23101.312500	2343.433838	5.663201
507.170929	1097.822632	23366.052734	2371.594482	5.720130
507.521729	1095.370728	23612.662109	2387.272217	5.737375
507.872498	1104.584351	23930.750000	2413.055176	5.732328
508.223236	1105.178589	24242.226563	2421.599854	5.689668
508.573883	1098.714355	24503.625000	2431.705078	5.695346
508.924500	1098.342773	24754.767578	2437.054932	5.658979
509.275116	1094.181763	24937.328125	2447.383057	5.675431
509.625702	1102.355103	25159.865234	2471.903076	5.692809
509.976196	1098.640015	25353.203125	2487.283447	5.725287
510.326660	1100.274780	25572.841797	2493.227539	5.691895
510.677124	1095.147827	25699.380859	2496.497070	5.695562
511.027557	1099.903198	25867.898438	2498.503174	5.646803
511.377869	1099.383057	25998.744141	2508.757080	5.660282
511.728180	1104.286987	26056.255859	2508.608398	5.628098
512.078430	1105.773071	25968.802734	2513.140869	5.660484
512.428650	1099.011597	25836.765625	2508.831299	5.699061
512.778931	1096.782593	25676.421875	2496.051025	5.692795
513.129028	1092.918823	25547.357422	2476.732666	5.658743
513.479126	1095.519287	25386.937500	2470.639893	5.660932
513.829285	1097.525513	25246.205078	2475.246582	5.705161
514.179382	1096.708130	25164.697266	2480.224854	5.748369
514.529297	1098.491333	25138.914063	2477.698486	5.737034
514.879272	1098.714355	25286.404297	2480.967773	5.714698
515.229187	1093.587402	25407.814453	2480.819336	5.705433
515.579163	1090.763916	25851.625000	2507.493896	5.721651
515.928955	1084.373901	26409.935547	2528.595947	5.702626
516.278748	1090.466797	27239.599609	2573.251709	5.670494
516.628540	1097.896973	28127.443359	2616.496094	5.618293
516.978333	1101.314941	29119.906250	2672.891846	5.609050
517.327942	1106.887695	30089.703125	2730.402100	5.601645
517.677612	1103.766968	30824.927734	2771.937256	5.612736
518.027222	1106.070313	31257.369141	2798.760498	5.613987
518.376831	1092.695801	31336.353516	2802.550049	5.653596
518.726379	1096.633911	31067.453125	2787.838135	5.642836
519.075867	1096.188110	30554.244141	2761.832031	5.654290
519.425293	1103.395386	29845.396484	2729.510498	5.657627
519.774658	1101.909424	29125.773438	2685.003174	5.649092
520.124084	1096.708252	28405.853516	2648.223389	5.681303
520.473389	1096.113770	27829.265625	2617.907959	5.692535
520.822693	1095.593628	27409.380859	2606.465088	5.741748
521.171997	1100.497681	27148.056641	2588.855469	5.714001
521.521240	1099.160156	27108.455078	2571.542969	5.660987
521.870361	1093.884644	27228.828125	2565.004150	5.628937
522.219482	1101.314941	27559.771484	2575.555420	5.571907
522.568604	1106.218872	27933.587891	2595.691406	5.552063
522.917664	1103.172363	28476.888672	2625.635010	5.561768
523.266724	1097.896851	29115.744141	2666.130127	5.597265
523.615662	1097.971313	30087.625000	2730.030518	5.629799
523.964600	1098.194214	31281.220703	2804.853516	5.654367
524.313538	1096.485229	32691.712891	2883.540039	5.656091
524.662354	1084.151001	34115.648438	2958.436768	5.674238
525.011169	1091.655518	35530.003906	3029.470703	5.626911
525.359985	1088.014648	36925.925781	3104.516357	5.626728
525.708740	1100.497681	38434.496094	3182.979736	5.577977
526.057434	1103.098267	40234.105469	3272.737549	5.544552
526.406067	1104.807251	42496.105469	3401.949951	5.549820
526.754700	1102.132324	45463.089844	3581.762695	5.589668
527.103333	1106.293335	48861.917969	3796.869141	5.634050
527.451782	1106.739136	52316.699219	4035.752686	5.719617
527.800293	1106.070313	54722.171875	4244.097168	5.852769
528.148743	1094.701904	55936.421875	4370.485840	5.973161
528.497131	1091.655640	55761.218750	4383.043457	6.020512
528.845642	1093.067383	54516.871094	4265.199219	5.937675
529.193909	1098.788696	52086.875000	4087.987305	5.862544
529.542175	1105.921753	48711.082031	3848.509766	5.761115
529.890503	1099.977417	44999.878906	3627.458984	5.757374
530.238770	1100.943359	41742.894531	3427.064453	5.723448
530.586914	1096.708130	39461.953125	3298.000732	5.737725
530.934998	1100.943481	38289.382813	3215.450195	5.685925
531.283142	1097.302612	38263.972656	3205.344971	5.671863
531.631226	1097.079712	39093.261719	3234.100342	5.624303
531.979248	1096.931152	40498.625000	3309.517578	5.615460
532.327148	1098.417114	41926.199219	3382.408447	5.594209
532.675110	1098.937256	42876.234375	3441.553711	5.607391
533.023071	1093.884644	42967.035156	3442.519531	5.608928
533.370850	1086.825928	42122.210938	3402.767578	5.643767
533.718689	1078.355347	40713.433594	3321.480469	5.659444
534.066467	1078.875488	39018.734375	3240.267334	5.696889
534.414246	1077.463745	37389.503906	3153.704834	5.717776
534.761963	1085.116943	36089.800781	3081.036377	5.701864
535.109619	1084.745483	35383.105469	3044.033936	5.712484
535.457153	1085.265503	35128.992188	3028.578857	5.708286
535.804749	1076.572144	35165.843750	3031.328125	5.734226
536.152344	1078.578247	35064.496094	3011.489258	5.687388
536.499817	1085.116943	34697.441406	2991.501953	5.671685
536.847229	1089.872314	33948.019531	2943.279297	5.640631
537.194641	1096.113770	32998.359375	2902.190186	5.661283
537.542114	1094.033325	32005.822266	2841.187500	5.652064
537.889404	1100.423218	31272.009766	2810.649170	5.668333
538.236694	1095.296387	30906.884766	2777.287109	5.642070
538.583984	1096.856689	31179.576172	2788.209717	5.622341
538.931213	1094.107544	32103.603516	2824.321045	5.579625
539.278381	1091.878418	33799.785156	2912.592529	5.566587
539.625488	1088.757813	35972.699219	3034.968750	5.579103
539.972595	1084.745483	38663.574219	3179.859375	5.575251
540.319641	1090.466797	41258.964844	3322.668945	5.557096
540.666687	1096.411011	43299.019531	3427.435547	5.523413
541.013611	1106.293213	44414.750000	3500.475342	5.528209
541.360596	1099.977539	44526.652344	3520.240234	5.573216
541.707458	1098.788696	43710.207031	3483.014404	5.595274
542.054260	1092.844360	42126.074219	3400.538330	5.623963
542.401062	1098.045532	40193.984375	3294.062500	5.616996
542.747864	1102.132202	38107.410156	3179.339111	5.613273
543.094666	1101.686401	36044.769531	3066.696289	5.623459
543.441284	1101.760620	34066.980469	2954.350586	5.619832
543.787903	1098.268433	32483.070313	2882.797119	5.685964
544.134460	1093.884644	31206.546875	2798.983398	5.662398
544.481079	1090.912598	30274.046875	2755.293701	5.703229
544.827637	1092.547241	29620.705078	2710.414795	5.671125
545.174072	1100.274780	29216.421875	2703.430420	5.701904
545.520508	1102.355103	29100.287109	2691.541748	5.676086
545.866943	1099.531616	29059.345703	2686.489014	5.675851
546.213318	1094.850464	28973.007813	2680.247803	5.686880
546.559631	1091.135376	28657.593750	2658.328613	5.685145
546.905823	1091.135376	28162.367188	2625.263916	5.667006
547.252136	1091.135376	27387.912109	2584.322998	5.678215
547.598389	1089.426392	26424.351563	2522.354492	5.655940
547.944458	1091.804077	25337.226563	2463.878174	5.659106
548.290588	1092.175659	24282.873047	2395.148193	5.618514
548.636658	1099.160156	23331.724609	2344.102295	5.599634
548.982727	1094.850586	22545.898438	2304.647217	5.639802
549.328735	1096.782471	21954.968750	2279.681396	5.671150
549.674622	1088.906372	21492.730469	2271.805420	5.797438
550.020569	1086.305786	21197.005859	2254.716064	5.809894
550.366455	1083.928101	21033.541016	2242.307617	5.806526
550.712280	1086.380249	21021.205078	2225.440674	5.713923
551.058044	1091.358398	21109.179688	2235.917725	5.717702
551.403748	1098.194214	21242.330078	2245.205322	5.694020
551.749512	1096.633789	21450.228516	2262.295166	5.727054
552.095154	1100.943359	21585.533203	2261.180664	5.663952
552.440735	1096.113770	21657.236328	2267.273193	5.695990
552.786316	1103.766968	21591.775391	2262.072021	5.653576
553.131897	1102.057983	21400.669922	2254.270264	5.676311
553.477417	1097.896973	21070.617188	2228.784424	5.662160
553.822815	1097.005371	20650.955078	2210.580078	5.694884
554.168213	1089.797974	20296.234375	2181.007568	5.681479
554.513672	1097.154053	19977.177734	2157.973877	5.618742
554.859009	1096.782593	19713.107422	2138.432373	5.595357
555.204285	1102.875366	19445.394531	2136.797852	5.636753
555.549500	1098.119995	19243.216797	2133.602783	5.706681
555.894714	1089.872437	19078.931641	2124.240479	5.749984
556.239990	1088.460571	18981.818359	2111.683350	5.718451
556.585022	1091.878418	18875.935547	2115.175537	5.754014
556.930115	1099.828979	18747.914063	2114.060791	5.746979
557.275146	1100.720459	18567.505859	2108.116699	5.767497
557.620178	1097.599731	18494.837891	2092.958984	5.721364
557.965149	1097.005371	18404.337891	2085.900146	5.713733
558.310059	1094.107544	18354.775391	2081.813721	5.722294
558.654968	1099.308716	18227.646484	2075.052002	5.696661
558.999756	1098.119995	18222.148438	2077.504150	5.719356
559.344604	1099.382935	18247.187500	2064.872559	5.630398
559.689331	1099.605957	18349.947266	2069.182129	5.620620
560.033997	1096.485229	18430.271484	2064.723877	5.585846
560.378723	1095.593628	18575.607422	2091.250000	5.695970
560.723389	1091.581177	18654.740234	2098.828857	5.735003
561.067932	1094.479126	18695.009766	2117.107422	5.810213
561.412476	1090.689697	18653.400391	2111.757568	5.813840
561.757019	1089.872314	18604.658203	2109.082764	5.819143
562.101501	1087.420288	18569.068359	2083.968506	5.700539
562.445862	1090.986816	18477.228516	2068.810791	5.624125
562.790222	1097.525513	18422.988281	2060.117432	5.555938
563.134644	1098.640015	18391.037109	2060.860596	5.564415
563.478943	1095.147827	18512.746094	2074.680664	5.623811
563.823181	1089.426392	18622.935547	2078.544434	5.641301
564.167358	1092.844360	18837.001953	2096.228271	5.654728
564.511536	1094.850586	19102.708984	2109.231445	5.632990
564.855774	1091.729858	19474.000000	2134.419922	5.672260
565.199768	1093.438843	19908.894531	2161.837891	5.678306
565.543823	1100.051758	20231.666016	2179.373047	5.641559
565.887817	1102.355225	20454.275391	2194.531006	5.643759
566.231812	1102.280884	20408.134766	2195.496826	5.662614
566.575745	1095.073486	20241.841797	2187.026367	5.703066
566.919617	1095.816528	20016.408203	2176.401123	5.711156
567.263428	1088.014771	19770.021484	2158.939697	5.732387
567.607239	1092.324219	19580.404297	2145.193604	5.694855
567.950989	1094.107422	19346.941406	2128.847412	5.668928
568.294678	1092.918701	19235.933594	2122.011475	5.672115
568.638367	1094.181763	19148.923828	2114.729736	5.652520
568.981995	1093.884644	19139.935547	2114.506836	5.655654
569.325623	1099.828979	19181.619141	2111.757568	5.596396
569.669128	1101.240601	19251.687500	2117.776123	5.600609
570.012573	1101.760620	19433.728516	2124.537842	5.579200
570.356140	1103.989868	19699.583984	2141.404297	5.578818
570.699524	1101.612183	20001.996094	2158.568359	5.592247
571.042908	1095.296509	20385.544922	2177.515625	5.610188
571.386230	1094.776245	20591.810547	2195.422607	5.645199
571.729492	1093.513062	20748.513672	2207.162354	5.665985
572.072815	1098.714355	20695.982422	2202.629883	5.633008
572.416016	1091.729858	20591.216797	2196.908447	5.667732
572.759094	1090.318115	20412.666016	2188.140869	5.681622
573.102234	1089.054932	20212.048828	2183.831299	5.724921
573.445374	1097.005371	20041.896484	2167.261719	5.649314
573.788391	1100.943481	19890.318359	2154.035889	5.604723
574.131409	1100.943481	19802.121094	2145.342529	5.584670
574.474365	1099.085815	19683.384766	2137.614990	5.588207
574.817261	1099.680298	19566.283203	2131.299316	5.586404
575.160156	1103.024048	19374.880859	2121.788330	5.575593
575.502930	1101.686523	19101.150391	2124.909180	5.684739
575.845703	1099.085815	18770.947266	2116.958740	5.759851
576.188477	1102.800903	18408.275391	2093.850830	5.726800
576.531250	1103.692627	18068.193359	2059.225586	5.632544
576.873901	1103.766968	17702.548828	2036.414673	5.618772
577.216431	1097.376831	17353.697266	2018.284790	5.664923
577.559082	1097.005371	17020.896484	1991.610229	5.618004
577.901611	1099.605835	16699.759766	1967.536133	5.563601
578.244080	1104.881348	16332.778320	1957.356567	5.598115
578.586487	1105.773071	16094.637695	1958.471191	5.688878
578.928955	1130.144409	15854.046875	1982.322388	5.787718
579.271301	1124.869019	15694.442383	1961.220337	5.740397
579.613647	1125.166138	15434.086914	1937.517700	5.677238
579.955872	1095.742310	15248.106445	1892.639038	5.630838
580.298157	1097.228394	15108.492188	1890.930054	5.664740
580.640320	1098.491333	15042.585938	1894.125000	5.705883
580.982483	1103.246948	15014.276367	1891.970215	5.669769
581.324524	1100.274780	14965.309570	1888.998047	5.688578
581.666626	1091.655640	14913.522461	1881.493530	5.714408
582.008728	1087.494629	14830.453125	1876.886719	5.743975
582.350647	1089.129272	14745.895508	1872.205566	5.733980
582.692566	1095.816528	14633.995117	1866.187134	5.690356
583.034424	1097.228394	14553.004883	1863.512085	5.694831
583.376343	1091.581299	14489.179688	1860.317261	5.737864
583.718201	1093.735962	14456.782227	1857.790894	5.717670
584.059937	1093.661743	14384.932617	1854.818848	5.726745
584.401611	1102.132202	14312.041992	1853.184204	5.685519
584.743347	1104.435669	14292.426758	1855.859009	5.697784
585.085022	1112.311768	14294.655273	1850.137817	5.597078
585.426514	1109.859741	14270.135742	1844.639282	5.583314
585.768127	1110.751343	14238.333008	1847.537231	5.612503
586.109619	1103.023926	14206.382813	1850.583618	5.705100
586.451172	1102.726563	14244.649414	1856.453491	5.735287
586.792542	1090.838257	14297.551758	1843.747681	5.700960
587.133850	1089.797974	14370.071289	1836.837524	5.625182
587.475220	1093.438843	14419.409180	1836.465942	5.575782
587.816589	1099.680298	14482.492188	1859.351196	5.676467
588.157776	1098.268555	14610.218750	1871.685547	5.723948
588.498962	1093.438843	14747.456055	1877.481079	5.742209
588.840210	1095.667969	14847.020508	1873.097290	5.653475
589.181335	1093.884644	14908.766602	1878.595581	5.680186
589.522400	1092.175659	14924.147461	1877.629761	5.678540
589.863403	1094.850708	14928.902344	1878.372681	5.663720
590.204407	1092.473022	14825.993164	1880.973267	5.741428
590.545410	1097.748413	14750.129883	1885.654297	5.771197
590.886353	1092.918579	14579.754883	1884.762695	5.871237
591.227112	1099.457275	14452.176758	1875.549194	5.812239
591.567932	1095.890747	14297.999023	1860.763062	5.793562
591.908752	1096.782593	14231.719727	1852.589722	5.754174
592.249512	1096.411011	14240.635742	1850.806519	5.739368
592.590149	1097.897095	14273.031250	1855.190430	5.747899
592.930786	1096.262329	14354.541992	1855.784790	5.728665
593.271423	1096.113770	14479.817383	1858.534058	5.696632
593.612000	1096.336548	14699.828125	1869.010620	5.679969
593.952576	1097.673950	14926.153320	1877.778320	5.641288
594.292969	1090.243774	15122.833008	1883.871094	5.655602
594.633484	1089.500854	15282.583008	1884.762695	5.603165
594.973877	1094.256226	15493.083008	1899.177612	5.590187
595.314209	1097.153931	15791.557617	1924.812012	5.632472
595.654480	1096.336548	16147.541992	1954.235840	5.699871
595.994812	1092.844360	16537.185547	1973.628906	5.702960
596.335022	1103.692627	16819.164063	1987.151978	5.621590
596.675171	1107.927856	16944.068359	1986.037476	5.544972
597.015320	1107.704956	16854.310547	1984.774414	5.569895
597.355408	1101.686523	16523.812500	1971.994141	5.643240
597.695496	1107.853516	16058.825195	1959.585571	5.696834
598.035461	1108.447998	15468.416992	1923.548828	5.676202
598.375366	1107.333496	14925.633789	1887.809204	5.648131
598.715271	1099.531738	14487.620117	1861.654663	5.692545
599.055176	1098.268555	14133.120117	1846.274048	5.738504
599.395081	1100.497681	13910.583008	1839.215454	5.766689
599.734802	1101.389160	13730.324219	1818.930664	5.681726
600.074524	1100.348999	13664.417969	1813.952515	5.679717
600.414246	1103.915405	13627.489258	1806.001953	5.606120
600.753906	1107.407837	13641.309570	1807.413696	5.584900
601.093506	1110.379883	13690.648438	1805.036133	5.521792
601.433044	1111.345825	13843.191406	1812.094727	5.503907
601.772583	1105.327271	14056.588867	1828.292603	5.582200
602.112122	1102.875366	14370.071289	1851.549438	5.643047
602.451538	1103.321167	14752.507813	1867.970337	5.602160
602.790894	1103.915527	15182.573242	1890.186890	5.584846
603.130310	1105.475952	15654.394531	1905.047485	5.495745
603.469604	1101.389160	16085.721680	1927.264038	5.511590
603.808838	1093.438843	16479.523438	1955.276001	5.601407
604.148010	1088.312012	16760.537109	1977.789917	5.675505
604.487305	1091.358398	16810.767578	1988.266479	5.705737
604.826416	1100.051758	16683.412109	1976.898071	5.626812
605.165527	1104.807129	16319.700195	1969.022095	5.680059
605.504456	1100.348999	15865.488281	1943.387695	5.709656
605.843445	1096.856812	15312.082031	1916.118652	5.763270
606.182434	1089.055054	14847.317383	1885.431641	5.788352
606.521423	1093.438843	14474.094727	1873.617554	5.830646
606.860229	1101.909302	14179.633789	1857.196411	5.775371
607.199036	1109.859741	13963.262695	1840.552856	5.684822
607.537903	1110.305542	13871.128906	1823.091675	5.585738
607.876648	1106.516235	13961.333008	1825.097656	5.589978
608.215271	1105.475952	14159.870117	1832.082031	5.565989
608.553955	1095.593628	14439.471680	1849.543335	5.650155
608.892578	1097.822632	14644.992188	1856.824829	5.602663
609.231140	1097.896973	14788.768555	1857.939453	5.551455
609.569641	1102.800903	14782.600586	1845.679688	5.430480
609.908081	1095.593628	14712.011719	1844.713745	5.501595
610.246521	1091.506958	14475.729492	1841.815796	5.605920
610.584961	1083.779541	14127.398438	1841.592896	5.809840
610.923340	1085.562866	13695.773438	1817.890259	5.807416
611.261597	1092.918823	13281.165039	1792.999023	5.743896
611.599854	1102.132324	12930.531250	1776.280762	5.699406
611.938110	1111.568726	12644.688477	1757.185059	5.597933
612.276245	1115.878296	12417.471680	1740.615601	5.527869
612.614319	1110.454224	12226.512695	1718.622070	5.471075
612.952393	1102.875366	12045.882813	1710.671509	5.554196
613.290466	1095.667969	11893.264648	1711.117554	5.699876
613.628479	1095.816528	11720.809570	1704.876099	5.732329
613.966370	1099.457397	11625.627930	1704.578735	5.748732
614.304260	1094.330444	11538.024414	1689.718140	5.700930
614.642151	1090.689697	11502.953125	1681.619141	5.675322
614.979980	1089.277954	11460.749023	1671.142578	5.610242
615.317749	1088.832153	11409.331055	1676.492310	5.694106
615.655396	1099.680298	11372.403320	1683.551147	5.683701
615.993164	1092.547241	11329.604492	1689.198120	5.828343
616.330811	1096.410889	11322.917969	1686.077271	5.766058
616.668396	1094.479004	11305.752930	1677.978394	5.714267
617.005859	1106.739136	11305.159180	1677.829712	5.599795
617.343445	1109.190918	11301.592773	1674.560547	5.546971
617.680908	1108.596558	11319.871094	1676.417969	5.560730
618.018311	1100.125977	11303.375000	1677.383789	5.657588
618.355652	1096.856689	11287.622070	1679.984375	5.722118
618.692993	1104.361450	11223.351563	1679.092773	5.679730
619.030273	1106.887695	11143.179688	1670.696655	5.617702
619.367554	1109.636841	11068.282227	1669.805054	5.624944
619.704712	1100.720581	10991.825195	1665.421021	5.709175
620.041870	1097.376831	10984.691406	1664.306641	5.733911
620.379028	1104.212769	10947.911133	1659.254028	5.638544
620.716064	1099.903198	10946.872070	1659.328491	5.681193
621.053040	1102.355103	10937.508789	1648.851685	5.556564
621.389954	1089.426514	10930.301758	1653.161255	5.728502
621.726929	1087.643188	10936.468750	1654.275757	5.753301
622.063843	1083.408081	10931.862305	1661.334595	5.868195
622.400635	1081.996216	10914.698242	1660.665649	5.885152
622.737427	1080.881714	10909.793945	1662.746216	5.919928
623.074219	1088.237671	10922.425781	1659.476929	5.808708
623.410889	1093.958984	10971.911133	1657.173462	5.701733
623.747559	1097.748413	11029.049805	1649.891968	5.559629
624.084167	1097.376831	11099.786133	1657.768066	5.602562
624.420715	1098.417114	11204.182617	1664.529663	5.601877
624.757324	1105.550171	11355.387695	1680.801758	5.612299
625.093750	1104.732788	11539.508789	1694.770874	5.654535
625.430176	1103.692505	11734.925781	1704.132813	5.647890
625.766602	1093.290161	11926.776367	1712.454956	5.715287
626.102905	1087.048828	12134.898438	1721.519897	5.742937
626.439209	1084.225220	12282.090820	1726.126587	5.732355
626.775452	1094.627808	12395.551758	1732.813843	5.647202
627.111694	1099.531616	12341.831055	1723.377319	5.549093
627.447876	1101.909302	12233.719727	1711.340332	5.474680
627.783997	1101.240601	12034.440430	1705.247437	5.524520
628.120056	1097.971313	11903.593750	1695.959595	5.534048
628.456055	1095.222046	11724.077148	1699.005981	5.680611
628.792053	1093.735962	11539.434570	1684.071289	5.651468
629.128052	1096.708130	11351.301758	1676.789429	5.656795
629.463928	1106.367554	11234.348633	1663.340698	5.499350
629.799744	1101.612061	11136.863281	1653.607056	5.500560
630.135559	1103.469727	11043.835938	1647.365601	5.471588
630.471375	1094.627808	10900.432617	1634.139648	5.501964
630.807068	1099.085938	10781.696289	1638.820801	5.574270
631.142700	1095.445068	10692.681641	1632.356445	5.594438
631.478333	1097.377075	10639.183594	1631.390625	5.596567
631.813965	1100.423462	10608.274414	1616.009888	5.422744
632.149475	1100.126221	10542.515625	1622.251343	5.529587
632.484924	1100.126099	10538.875000	1623.142944	5.541167
632.820435	1093.141724	10548.534180	1634.362671	5.723939
633.155884	1090.392456	10615.778320	1637.706421	5.745846
633.491150	1097.079712	10657.908203	1657.470703	5.861323
633.826477	1106.144653	10668.458984	1655.167480	5.741527
634.161804	1105.995972	10616.001953	1648.257202	5.702007
634.497009	1100.423218	10550.689453	1632.059204	5.625619
634.832153	1099.531616	10472.002930	1628.790039	5.646946
635.167297	1100.423218	10370.579102	1621.805542	5.624310
635.502380	1099.531616	10241.145508	1615.861328	5.648124
635.837463	1081.550415	10104.948242	1603.378540	5.783056
636.172424	1078.949707	9990.818359	1590.449707	5.739537
636.507324	1081.847656	9894.522461	1584.431274	5.702963
636.842224	1089.426514	9790.350586	1583.836792	5.682273
637.177124	1087.643188	9679.638672	1590.524048	5.852900
637.511963	1088.832031	9582.599609	1586.883301	5.863726
637.846741	1098.937256	9494.921875	1576.480835	5.687762
638.181396	1106.664795	9418.910156	1565.186890	5.516224
638.516113	1104.212769	9349.363281	1558.127930	5.505238
638.850769	1100.943481	9280.112305	1561.768921	5.634135
639.185303	1104.584351	9184.930664	1555.898926	5.585337
639.519836	1102.057983	9102.975586	1552.926758	5.635213
639.854370	1099.680176	9025.032227	1548.394165	5.661755
640.188843	1096.559448	8976.958008	1556.121704	5.831714
640.523254	1093.661743	8927.991211	1556.716309	5.910583
640.857605	1095.890747	8906.147461	1555.081543	5.879330
641.191895	1098.491333	8874.344727	1542.152954	5.705632
641.526184	1097.599731	8844.996094	1541.930054	5.735221
641.860413	1094.181763	8773.739258	1534.351196	5.731703
642.194580	1084.448242	8730.346680	1536.803101	5.916307
642.528748	1086.231567	8676.106445	1526.995117	5.807257
642.862793	1088.237671	8655.227539	1533.162476	5.879812
643.196838	1094.256226	8628.254883	1528.778442	5.767485
643.530823	1097.005371	8605.592773	1522.982910	5.673205
643.864746	1102.726685	8575.871094	1514.661011	5.512196
644.198669	1106.738892	8566.137695	1517.781616	5.510400
644.532532	1108.670898	8537.010742	1520.976563	5.550442
644.866333	1107.482056	8539.686523	1512.060425	5.443585
645.200073	1106.070435	8537.903320	1504.481567	5.360873
645.533813	1105.550171	8554.250000	1507.973633	5.402600
645.867554	1096.633911	8579.438477	1513.992310	5.577566
646.201172	1096.856812	8585.680664	1516.072754	5.597888
646.534729	1095.147827	8609.977539	1513.620728	5.568628
646.868225	1096.336548	8588.131836	1511.837402	5.546079
647.201782	1096.782349	8586.793945	1514.512329	5.577160
647.535217	1096.039429	8592.886719	1518.598999	5.636497
647.868591	1098.714233	8600.391602	1529.892944	5.747764
648.201965	1092.993042	8567.327148	1537.026001	5.940770
648.535278	1097.748413	8524.528320	1535.019897	5.887767
648.868591	1095.222168	8519.625000	1533.088013	5.897657
649.201782	1099.011475	8510.930664	1525.509155	5.754214
649.534912	1097.599731	8508.182617	1524.394653	5.759263
649.868103	1099.382935	8486.262695	1520.382446	5.699287
650.201172	1098.640015	8522.149414	1517.187378	5.638134
650.534180	1097.599731	8541.097656	1518.227539	5.650943
650.867188	1098.714355	8558.039063	1514.809570	5.578189
651.200134	1104.435669	8522.745117	1518.301758	5.578981
651.533020	1101.240601	8479.352539	1517.855957	5.646639
651.865845	1106.144653	8444.800781	1513.397827	5.549424
652.198608	1103.023926	8456.467773	1511.540161	5.555441
652.531433	1094.330444	8452.900391	1509.088257	5.636392
652.864136	1090.689575	8441.085938	1507.379395	5.668943
653.196777	1143.890503	8430.015625	1618.387573	6.512338
653.529358	1156.447632	8383.352539	1620.245117	6.417650
653.861938	1161.054321	8309.718750	1624.480469	6.482696
654.194519	1107.110596	8189.645996	1514.958130	5.758496
654.526978	1112.385986	8173.967285	1509.608398	5.625120
654.859375	1106.144531	8164.531250	1504.704468	5.646615
655.191833	1103.766968	8179.614746	1493.930542	5.514019
655.524170	1098.045532	8143.355469	1488.506470	5.542140
655.856445	1098.714355	8106.353027	1491.107056	5.599500
656.188660	1108.447998	8083.170410	1500.320679	5.618470
656.520874	1110.454102	8118.463379	1502.475220	5.593901
656.853088	1105.550171	8228.208984	1506.636230	5.631128
657.185181	1095.742188	8346.350586	1503.144043	5.618865
657.517212	1093.958862	8485.371094	1509.682617	5.624416
657.849243	1091.209839	8654.112305	1516.741577	5.626566
658.181274	1086.974487	8875.906250	1533.608276	5.734211
658.513123	1088.683472	9112.856445	1544.902344	5.685556
658.844971	1091.061157	9305.524414	1552.332520	5.615356
659.176819	1095.965210	9440.383789	1551.886719	5.463790
659.508667	1092.547241	9481.175781	1556.864868	5.535084
659.840393	1097.153931	9437.040039	1559.911255	5.548725
660.172058	1100.794800	9325.660156	1554.115723	5.511591
660.503662	1099.680298	9125.192383	1540.443970	5.492032
660.835266	1100.943359	8923.459961	1531.304688	5.501571
661.166931	1097.525513	8694.235352	1522.834351	5.598593
661.498413	1105.401611	8544.739258	1520.976685	5.586184
661.829773	1105.847290	8360.096680	1502.326660	5.465477
662.161194	1101.389282	8206.883789	1494.970703	5.539114
662.492615	1094.999268	8027.220215	1481.893433	5.581100
662.823975	1098.862915	7899.865234	1481.224731	5.622139
663.155212	1097.748413	7767.828613	1481.001831	5.745859
663.486450	1097.079712	7669.080566	1475.949219	5.764904
663.817627	1088.460571	7570.183594	1472.457031	5.924296
664.148743	1088.163208	7497.070313	1459.082642	5.787561
664.479858	1093.067261	7419.275391	1454.178589	5.708180
664.810913	1094.330444	7382.347168	1444.816406	5.573872
665.141907	1101.612061	7347.201660	1450.611938	5.587941
665.472778	1094.850464	7349.207520	1452.692383	5.721482
665.803711	1094.850586	7350.842285	1460.717163	5.848258
666.134583	1088.386230	7354.557129	1456.036133	5.867218
666.465454	1090.392456	7348.167969	1457.893677	5.872714
666.796143	1089.352173	7313.171387	1448.977417	5.778208
667.126831	1096.485229	7332.267090	1446.971069	5.620560
667.457458	1093.141602	7344.229004	1448.457153	5.684060
667.788147	1093.810425	7368.600098	1452.320923	5.713506
668.118774	1090.689575	7371.646973	1449.645996	5.714995
668.449219	1093.067383	7383.089844	1446.302368	5.615798
668.779663	1097.302612	7394.085938	1447.937012	5.568469
669.110107	1094.256226	7381.603516	1448.085815	5.627645
669.440552	1099.828979	7358.123535	1440.655640	5.445999
669.770874	1090.764038	7313.616699	1430.327515	5.456717
670.101135	1096.485229	7279.363281	1434.711304	5.470366
670.431396	1096.188110	7227.276855	1440.283813	5.612310
670.761597	1107.704956	7171.029785	1442.215820	5.516954
671.091797	1109.413818	7112.702637	1432.630737	5.383997
671.421875	1101.389160	7062.250488	1425.794922	5.442263
671.751892	1098.416992	7044.566406	1422.376953	5.448231
672.081909	1098.268555	6991.662598	1424.160278	5.529780
672.411865	1105.327271	6961.792969	1420.816772	5.387029
672.741821	1101.686401	6922.486816	1424.605957	5.547683
673.071716	1098.268555	6935.936035	1420.742188	5.524015
673.401550	1098.491455	6908.221191	1416.135620	5.467452
673.731262	1102.726685	6904.060547	1406.476196	5.235857
674.060974	1101.463501	6857.695801	1409.596802	5.353038
674.390625	1102.206421	6835.181641	1413.088989	5.422709
674.720276	1098.565796	6777.671387	1418.215942	5.628530
675.049927	1094.776245	6748.099121	1416.135376	5.684429
675.379395	1091.061035	6726.179688	1411.157227	5.680381
675.708923	1095.667847	6698.539063	1405.138672	5.523433
676.038330	1099.011353	6678.031250	1404.692993	5.479128
676.367737	1099.457397	6671.046875	1400.606445	5.405083
676.697083	1094.999146	6689.770996	1402.463867	5.495572
677.026428	1099.383179	6699.728027	1398.897339	5.348138
677.355652	1096.113770	6691.332031	1416.506958	5.726196
677.684875	1091.729858	6734.130371	1421.931152	5.852142
678.013977	1089.352173	6804.197266	1431.961914	5.995083
678.343079	1089.946655	6902.500000	1429.955933	5.849568
678.672180	1092.249878	6968.035645	1439.986694	5.918133
679.001221	1085.859985	7058.386719	1440.804077	5.942947
679.330139	1097.228271	7149.333496	1447.565796	5.788688
679.659058	1103.321167	7254.694824	1447.714233	5.598637
679.987976	1104.064087	7332.415527	1455.218750	5.638003
680.316772	1094.776245	7362.285156	1459.082520	5.812617
680.645630	1097.451172	7365.182129	1461.534546	5.808855
680.974304	1105.921753	7315.696777	1454.847290	5.618972
681.302979	1106.441895	7273.493652	1450.017578	5.571150
681.631653	1101.315063	7198.076172	1449.943359	5.718254
681.960266	1100.646362	7151.191406	1455.293091	5.861402
682.288757	1105.104492	7080.009277	1448.605835	5.749068
682.617249	1106.367554	7010.536621	1436.791626	5.596454
682.945679	1101.017700	6899.156250	1420.445190	5.509139
683.274109	1092.993042	6787.404785	1412.568970	5.612097
683.602478	1089.055054	6667.628906	1398.154297	5.540829
683.930725	1092.398682	6558.329590	1394.439087	5.525873
684.259033	1094.850708	6467.234375	1393.844727	5.565388
684.587280	1094.627808	6397.019043	1398.302856	5.727134
684.915344	1093.438843	6339.582520	1400.680542	5.856525
685.243469	1092.695923	6305.328613	1397.411255	5.845709
685.571533	1090.244019	6266.468750	1395.033569	5.888260
685.899536	1085.339844	6246.853027	1390.500977	5.912241
686.227539	1087.420288	6211.410156	1391.244141	5.929439
686.555420	1091.135498	6222.406738	1390.946899	5.842829
686.883301	1102.206543	6249.601563	1389.163696	5.574803
687.211121	1103.023926	6286.826660	1387.826172	5.494080
687.538940	1102.652466	6309.118652	1395.628052	5.627149
687.866638	1101.760864	6304.808594	1398.897461	5.710818
688.194336	1102.949585	6293.292480	1401.349487	5.749137
688.521973	1102.652344	6256.289063	1391.764282	5.609863
688.849609	1094.850586	6207.323730	1388.940796	5.752406
689.177063	1090.986816	6137.479004	1385.819946	5.842338
689.504578	1090.095337	6054.779785	1379.578613	5.830849
689.832031	1084.745483	5982.334473	1374.303101	5.912248
690.159485	1079.544312	5904.911621	1363.083496	5.876013
690.486816	1083.705200	5852.751465	1359.368286	5.780256
690.814087	1086.974487	5790.708496	1356.990601	5.740463
691.141296	1087.271606	5754.597656	1353.275513	5.699278
691.468506	1084.373901	5688.914063	1359.368286	5.972244
691.795715	1083.110840	5639.576660	1355.207275	5.971655
692.122803	1093.438965	5604.208984	1350.897705	5.707645
692.449829	1100.720581	5579.242676	1337.226074	5.280883
692.776855	1105.104370	5543.949219	1336.334473	5.209240
693.103821	1097.525513	5491.119629	1347.702759	5.694136
693.430664	1092.398560	5463.999512	1359.888428	6.118808
693.757568	1096.039429	5454.339844	1360.334106	6.064168
694.084351	1098.862915	5461.695801	1350.229126	5.761537
694.411133	1097.228271	5461.992676	1340.421143	5.571729
694.737854	1102.206665	5455.306152	1340.495361	5.474000
695.064575	1104.584351	5456.643066	1350.303345	5.646040
695.391174	1105.624634	5479.825684	1356.767700	5.741461
695.717773	1098.863037	5515.639160	1360.705688	5.928366
696.044250	1097.376953	5561.335938	1356.693359	5.809113
696.370789	1094.999146	5622.932129	1355.653076	5.756577
696.697205	1093.438843	5721.086426	1361.671631	5.796310
697.023621	1095.816528	5857.208984	1374.451782	5.851970
697.349915	1098.268555	6024.167480	1384.259766	5.805869
697.676208	1097.525513	6213.416504	1383.739624	5.594609
698.002380	1094.404785	6462.255859	1381.733398	5.352768
698.328674	1096.782471	6689.474121	1393.398926	5.303644
698.654724	1094.776245	6881.472168	1409.894165	5.445559
698.980896	1097.897095	6956.145996	1422.302734	5.537587
699.306946	1096.411011	6950.796387	1419.702148	5.522205
699.632935	1100.571899	6856.952637	1405.807617	5.302563
699.958862	1097.971191	6696.012207	1405.510376	5.493693
700.284729	1095.370728	6512.261719	1404.544312	5.707583
700.610596	1090.763916	6306.518066	1402.984009	5.986097
700.936340	1091.135376	6094.309082	1385.894409	5.891441
701.262146	1091.804077	5874.596191	1363.529297	5.681310
701.587830	1094.924805	5696.566406	1356.693359	5.688591
701.913513	1105.104492	5537.855469	1339.826660	5.295181
702.239075	1104.361450	5396.160645	1339.455078	5.477740
702.564697	1103.692627	5275.567871	1331.653320	5.464226
702.890137	1092.993042	5167.531250	1326.600708	5.733353
703.215698	1096.931152	5093.451660	1317.015747	5.506905
703.541016	1106.590454	5015.285156	1312.780518	5.275164
703.866455	1106.739136	4973.006836	1306.687744	5.171618
704.191711	1107.482056	4942.468262	1308.842407	5.250615
704.517029	1103.766846	4918.320313	1297.697144	5.083958
704.842163	1104.509888	4872.549805	1303.789917	5.288692
705.167419	1108.299316	4826.333496	1301.709351	5.201943
705.492493	1098.565796	4800.698730	1302.155151	5.499245
705.817566	1092.770020	4791.262207	1290.489624	5.345952
706.142578	1085.934204	4779.002441	1285.511353	5.404101
706.467590	1092.844360	4771.720215	1294.501953	5.481500
706.792480	1098.045654	4764.884766	1302.526733	5.576494
707.117371	1099.011597	4786.135254	1309.288208	5.702999
707.442200	1094.107544	4804.265137	1299.108765	5.525404
707.766907	1100.125977	4812.587402	1298.588745	5.345854
708.091675	1101.834961	4810.357910	1290.118164	5.077040
708.416321	1111.940308	4811.695801	1303.492554	5.177430
708.741028	1098.714355	4832.723145	1314.117920	5.768694
709.065552	1096.113892	4855.385254	1321.473755	5.994775
709.390137	1083.853882	4857.912109	1315.455444	6.136672
709.714600	1093.661865	4903.756348	1318.278931	5.895315
710.039063	1095.667969	4932.585938	1324.891724	5.974164
710.363403	1099.531738	4993.142578	1336.260132	6.079919
710.687744	1095.965210	5036.535645	1332.693604	6.007465
711.012085	1091.506958	5096.646973	1326.303589	5.862382
711.336304	1095.370728	5122.875488	1319.319092	5.560474
711.660461	1094.404663	5129.562500	1319.913452	5.588599
711.984619	1099.085693	5097.612793	1322.811401	5.595203
712.308716	1092.770020	5048.572754	1321.771118	5.788992
712.632751	1093.067261	4992.846191	1313.300659	5.647330
712.956726	1089.872314	4939.496582	1306.464722	5.626326
713.280701	1094.330444	4913.861816	1298.068481	5.334111
713.604553	1103.098145	4866.605957	1303.121094	5.314801
713.928467	1109.636841	4842.308594	1304.532837	5.221354
714.252258	1109.042480	4806.345703	1306.241821	5.333600
714.575989	1101.315063	4806.048340	1295.319336	5.236660
714.899719	1095.444946	4810.654785	1297.251221	5.431894
715.223267	1096.039551	4829.602051	1296.731079	5.375336
715.546936	1093.513184	4823.583984	1303.344116	5.625387
715.870422	1087.717529	4814.444824	1298.737305	5.662335
716.193970	1082.070679	4813.107422	1297.474243	5.773290
716.517395	1077.463745	4796.166016	1293.907593	5.820414
716.840820	1083.185059	4750.841309	1296.953979	5.828488
717.164124	1086.974487	4680.402344	1301.783569	5.977832
717.487488	1093.884644	4616.501953	1305.870239	6.017844
717.810730	1097.525513	4549.555664	1301.040649	5.895520
718.133972	1098.714233	4455.785645	1290.786743	5.721431
718.457092	1100.274780	4377.841797	1279.344116	5.463484
718.780212	1099.977539	4306.734375	1281.053101	5.646688
719.103210	1102.726807	4268.245605	1283.208008	5.701473
719.426208	1101.760742	4221.509277	1281.573364	5.763690
719.749207	1100.274780	4182.203125	1266.489868	5.393218
720.072083	1099.605957	4137.026855	1258.539429	5.232514
720.394958	1100.051758	4094.674561	1256.830566	5.235344
720.717773	1092.695801	4035.529297	1260.099731	5.688529
721.040527	1092.324341	4008.928955	1263.146240	5.856876
721.363281	1102.800903	3983.963623	1261.957397	5.524037
721.685913	1107.259155	3994.291260	1270.279297	5.646634
722.008545	1099.457397	3970.365967	1259.356689	5.569641
722.331055	1082.739258	3963.752930	1256.904785	6.045286
722.653503	1078.949829	3948.520752	1243.753174	5.743135
722.976013	1081.104614	3952.533203	1253.635620	6.008542
723.298401	1086.825806	3942.205078	1259.579712	6.050121
723.620789	1095.593628	3938.489990	1265.301147	5.969529
723.943115	1100.571899	3916.422119	1261.808716	5.726044
724.265381	1097.674194	3901.635986	1260.917114	5.821867
724.587585	1094.107666	3896.137451	1253.486938	5.687994
724.909790	1092.473022	3915.456055	1252.743774	5.677355
725.231873	1099.977539	3924.744141	1251.555054	5.366019
725.553894	1099.828735	3936.409424	1257.127808	5.545376
725.875916	1134.751099	3979.579346	1298.514404	5.756527
726.197937	1135.048462	3999.417969	1301.412231	5.808041
726.519775	1133.116455	4009.077393	1299.851807	5.797553
726.841675	1098.937256	3989.759033	1258.093628	5.505575
727.163513	1084.671021	4006.699951	1254.675659	5.818034
727.485291	1088.460571	4014.650391	1260.025513	5.863083
727.806946	1090.540894	4029.065186	1263.294800	5.878934
728.128662	1100.200317	4061.089111	1262.180298	5.470654
728.450256	1101.314941	4105.299316	1257.573486	5.201710
728.771790	1107.184814	4126.921875	1257.276245	4.970348
729.093323	1104.212769	4120.011719	1257.722168	5.090174
729.414795	1106.144531	4096.085938	1254.452759	4.960238
729.736145	1097.599731	4078.550781	1255.270142	5.289265
730.057495	1102.726685	4058.042969	1262.700562	5.413088
730.378845	1098.714355	4060.049561	1266.564209	5.668046
730.700134	1093.067383	4066.587891	1269.090454	5.919686
731.021301	1086.974487	4102.030762	1259.431030	5.719845
731.342468	1088.460571	4113.473145	1258.539429	5.622418
731.663574	1089.426514	4134.574707	1255.938843	5.468119
731.984680	1094.181763	4137.472656	1266.712769	5.669225
732.305664	1093.736084	4141.559570	1274.514648	5.931399
732.626648	1098.417114	4160.506836	1279.121460	5.901340
732.947571	1097.674194	4167.342285	1272.582886	5.697968
733.268433	1098.045532	4169.497070	1270.130859	5.602736
733.589233	1100.051758	4144.085449	1264.780884	5.411541
733.909973	1096.931152	4108.048828	1262.700562	5.505245
734.230713	1095.147827	4055.293945	1265.152466	5.743117
734.551331	1091.878540	3985.746826	1258.911011	5.771945
734.871948	1100.943359	3938.044189	1251.629272	5.311264
735.192505	1103.841309	3899.704102	1232.459351	4.600299
735.513062	1104.732788	3855.419678	1237.214722	4.816322
735.833435	1094.033203	3798.726563	1245.908081	5.615235
736.153931	1093.290405	3738.467529	1260.545776	6.323031
736.474304	1093.215942	3703.024658	1254.378540	6.175265
736.794617	1102.875366	3679.173828	1249.920410	5.707609
737.114807	1101.537842	3682.740234	1241.004028	5.403148
737.434998	1104.286987	3690.838867	1245.016479	5.440815
737.755188	1099.308716	3701.761719	1245.090698	5.601714
738.075256	1102.875122	3729.253662	1246.205200	5.457328
738.395325	1101.909424	3747.754883	1242.118530	5.299218
738.715271	1106.664795	3766.033203	1246.874023	5.272275
739.035278	1097.302612	3786.020752	1256.979126	5.938760
739.355164	1094.404907	3783.717529	1261.511597	6.213733
739.675049	1090.986938	3767.891357	1264.929565	6.497902
739.994873	1097.599731	3728.213623	1261.511597	6.230936
740.314636	1096.559570	3699.829834	1255.344360	6.099435
740.634277	1094.033203	3674.120850	1245.908081	5.886423
740.953979	1094.479126	3638.009766	1243.604614	5.862932
741.273499	1099.457397	3598.703857	1238.329102	5.556543
741.593140	1097.302612	3565.936279	1234.985474	5.577290
741.912598	1092.993042	3537.924072	1227.183716	5.488526
742.232117	1097.154053	3505.676758	1222.799805	5.216714
742.551453	1101.166382	3478.036133	1221.016479	5.042350
742.870850	1103.023804	3450.098389	1221.016479	5.027223
743.190063	1093.215820	3434.569092	1226.812256	5.705949
743.509338	1089.277832	3404.327393	1221.833984	5.725845
743.828552	1079.618530	3387.238037	1212.248901	5.747497
744.147705	1088.386230	3366.878906	1206.081787	5.165501
744.466797	1088.534790	3351.126953	1211.728760	5.444815
744.785828	1104.658569	3338.867188	1214.552368	4.918690
745.104858	1093.736084	3316.576172	1219.530640	5.659182
745.423706	1096.782593	3283.363037	1215.146606	5.413202
745.742615	1093.884766	3237.592529	1213.363403	5.573457
746.061401	1099.977539	3222.955078	1211.877319	5.270888
746.380249	1101.983765	3226.595703	1216.632690	5.396229
746.698975	1104.287109	3232.317139	1212.026001	5.062846
747.017639	1097.005493	3223.623779	1207.865112	5.212954
747.336304	1093.587524	3227.858643	1201.623657	5.061969
747.654907	1087.866211	3233.208740	1211.951660	5.783946
747.973389	1104.955811	3238.632813	1216.335449	5.220079
748.291931	1109.933960	3225.406982	1219.381958	5.173689
748.610352	1102.652344	3226.075439	1220.422241	5.546228
748.928711	1098.714233	3244.799805	1213.512085	5.349174
749.247070	1095.444946	3260.477783	1210.985718	5.336676
749.565308	1102.206543	3269.096924	1213.734985	5.146935
749.883545	1101.612183	3249.035156	1219.381958	5.484238
750.201782	1099.977417	3245.617188	1214.180786	5.322579
750.519836	1096.485229	3232.837158	1207.716431	5.206595
750.837952	1089.500854	3226.149658	1212.694702	5.765750
751.155884	1084.819702	3209.505859	1214.106445	6.084981
751.473877	1098.342773	3200.515625	1215.518188	5.574014
751.791809	1092.695801	3201.406982	1207.716309	5.454541
752.109619	1102.429565	3192.193359	1209.351074	5.116440
752.427490	1093.141724	3176.887451	1207.047729	5.466406
752.745300	1102.503784	3179.041992	1215.295288	5.431709
753.062988	1090.838257	3194.571289	1214.700806	5.887751
753.380615	1088.683472	3216.787842	1214.032104	5.890154
753.698303	1087.791748	3218.645264	1204.001221	5.453659
754.015808	1094.553345	3195.908936	1210.317017	5.509000
754.333374	1102.132202	3175.549561	1209.276855	5.167539
754.650757	1107.779297	3151.698486	1219.307617	5.456592
754.968262	1120.262085	3145.531250	1215.295410	4.692380
755.285583	1114.763794	3143.451172	1216.855835	5.032419
755.602905	1109.711304	3143.525391	1210.614258	4.961267
755.920105	1101.835083	3140.776123	1204.595703	5.039902
756.237305	1106.516113	3139.289795	1208.385132	5.011331
756.554443	1105.624390	3128.887695	1209.871094	5.152404
756.871582	1101.909302	3139.141357	1206.601929	5.138964
757.188599	1094.924927	3142.485107	1196.719604	4.971511
757.505615	1096.485229	3180.082031	1197.685547	4.857001
757.822510	1099.977539	3211.958008	1205.041626	4.974671
758.139465	1101.389160	3238.558594	1208.905273	5.030772
758.456238	1097.525513	3245.245850	1209.722534	5.224006
758.773010	1091.655640	3260.106201	1216.929932	5.777133
759.089783	1095.147827	3287.524170	1213.734985	5.409069
759.406433	1091.506958	3314.718750	1211.654419	5.404229
759.723145	1092.621582	3328.910889	1204.744263	5.013783
760.039673	1087.346069	3334.037842	1209.276733	5.427120
760.356201	1087.866089	3334.037354	1204.372681	5.186897
760.672668	1091.135376	3324.229248	1209.276733	5.290479
760.989136	1094.255981	3318.433594	1215.889771	5.468708
761.305481	1109.785400	3320.217041	1225.548950	5.237147
761.621826	1108.819458	3326.978516	1226.589355	5.309353
761.938049	1113.426147	3346.891602	1228.818481	5.166515
762.254333	1106.664673	3387.832764	1233.202271	5.547053
762.570496	1115.209595	3457.677002	1238.849243	5.278181
762.886597	1108.670898	3578.864990	1241.746948	5.387271
763.202637	1101.835083	3775.024170	1253.561157	5.675846
763.518677	1091.729980	4025.052734	1264.335083	5.884286
763.834656	1097.154053	4269.434082	1279.789917	5.757243
764.150574	1101.537842	4401.173340	1278.898315	5.375154
764.466370	1106.441772	4405.631348	1281.127563	5.294809
764.782288	1098.491455	4302.944824	1280.533081	5.680895
765.097961	1098.714355	4172.097656	1276.000610	5.768439
765.413696	1092.770142	4012.272705	1257.944946	5.657635
765.729309	1093.884644	3838.850342	1235.579956	5.162006
766.044861	1087.420288	3674.195313	1226.663696	5.382896
766.360474	1082.442017	3563.929932	1222.131226	5.629252
766.675903	1081.401855	3481.899658	1219.307617	5.744882
766.991394	1083.259277	3409.009033	1213.586304	5.603656
767.306763	1090.986938	3334.112061	1214.255005	5.495372
767.622131	1089.129517	3273.109375	1211.505981	5.603369
767.937378	1100.051880	3214.187256	1210.539917	5.226158
768.252625	1095.073608	3161.209229	1212.546143	5.685616
768.567810	1093.958984	3107.636963	1215.443970	6.032990
768.882996	1088.609253	3077.544189	1212.026001	6.205168
769.197998	1087.197388	3058.300049	1206.304565	6.042667
769.513062	1094.479004	3034.597412	1198.502808	5.361724
769.828064	1093.067261	2995.142578	1203.704102	5.816638
770.142944	1098.194214	2967.873779	1205.635864	5.746528
770.457825	1100.869019	2942.239258	1203.406860	5.568562
770.772705	1100.051758	2919.279541	1195.530884	5.248333
771.087402	1100.943481	2892.233643	1190.775391	5.014928
771.402100	1098.194214	2888.444092	1185.574219	4.880883
771.716736	1096.113770	2883.317139	1186.465942	5.055506
772.031372	1100.348999	2865.187256	1189.883789	5.073257
772.345947	1093.958984	2841.261719	1193.450317	5.693995
772.660461	1091.952759	2828.184326	1190.626831	5.683232
772.974854	1087.048828	2821.125732	1188.546265	5.853110
773.289246	1086.231445	2811.540283	1182.082031	5.555561
773.603638	1088.832031	2796.679932	1180.224487	5.351323
773.917908	1090.169556	2776.395264	1169.747681	4.719305
774.232178	1097.153931	2758.860107	1176.583496	4.780001
774.546265	1097.748413	2744.668213	1178.515503	4.904130
774.860474	1090.615356	2733.820313	1180.001465	5.439742
775.174561	1090.466797	2724.011963	1176.583618	5.271775
775.488586	1096.633789	2712.718018	1172.051147	4.666673
775.802551	1110.305542	2705.659180	1177.252319	4.196360
776.116516	1111.791504	2692.135986	1179.852905	4.306745
776.430359	1108.076538	2690.724609	1187.505981	5.018768
776.744202	1100.794800	2686.786377	1189.586548	5.598501
777.057922	1107.110474	2690.352783	1193.152954	5.434574
777.371704	1100.348999	2681.733643	1182.825073	5.215434
777.685303	1099.828979	2669.473633	1184.385376	5.386977
777.998962	1091.061157	2658.105469	1185.871460	6.050263
778.312500	1096.633789	2648.223389	1183.716675	5.612495
778.626038	1099.457397	2636.112061	1178.664063	5.154487
778.939453	1103.098145	2632.619629	1170.267822	4.391549
779.252869	1106.516113	2640.050049	1175.914917	4.525417
779.566223	1106.813354	2647.554688	1168.336060	3.993059
779.879578	1103.321045	2649.040527	1174.874634	4.629145
780.192749	1094.479004	2641.684570	1172.125488	5.018498
780.505920	1090.838257	2643.616455	1181.710571	5.852241
780.819031	1090.541016	2631.505127	1175.171875	5.492072
781.132141	1103.989868	2620.211182	1186.168579	5.419968
781.445190	1102.726685	2615.307129	1179.927246	5.103898
781.758118	1101.017700	2614.935791	1187.283203	5.698162
782.071045	1090.392456	2606.539551	1175.394775	5.606469
782.383911	1091.581177	2582.242432	1181.636230	6.041282
782.696838	1090.838257	2571.171631	1172.496948	5.516237
783.009583	1096.782471	2549.697754	1181.190308	5.809550
783.322266	1094.256226	2531.864990	1165.809692	4.977256
783.634888	1095.965210	2501.772461	1173.685669	5.528529
783.947510	1094.553345	2492.410400	1168.410278	5.283583
784.260132	1096.411011	2481.785156	1177.252319	5.835341
784.572571	1092.844360	2486.169189	1168.558960	5.434095
784.885010	1089.426514	2473.388916	1169.450562	5.782241
785.197449	1097.674194	2473.834961	1175.394897	5.647647
785.509766	1106.813232	2464.992920	1180.744507	5.443409
785.822083	1106.813232	2470.268311	1179.630005	5.340607
786.134277	1102.800903	2463.506592	1169.970581	4.936386
786.446533	1099.011475	2461.129150	1160.682739	4.527602
786.758606	1099.234375	2456.596436	1157.562012	4.297132
787.070740	1095.742065	2467.296143	1157.562134	4.507301
787.382690	1090.912476	2478.144287	1163.060547	5.200866
787.694641	1088.757690	2501.401123	1163.952148	5.322961
788.006653	1086.008545	2534.540283	1162.911865	5.309053
788.318481	1095.816528	2584.991699	1165.883911	4.705113
788.630310	1100.794800	2642.724854	1164.397827	4.124897
788.942017	1105.698730	2679.504639	1168.781738	4.008309
789.253784	1090.466675	2691.244629	1165.140991	4.664876
789.565430	1085.042603	2673.114746	1169.822021	5.338512
789.877014	1087.717529	2635.368896	1178.366821	5.857216
790.188538	1091.655640	2589.969971	1181.784790	6.015370
790.500061	1098.194214	2546.874268	1179.481567	5.611132
790.811462	1099.085815	2507.345459	1170.267944	5.054617
791.122925	1106.516113	2487.060547	1176.286499	5.053831
791.434204	1096.485229	2463.209717	1175.692017	5.795373
791.745483	1087.494629	2456.150879	1176.063477	6.471227
792.056702	1086.305786	2429.253174	1173.091431	6.462327
792.367920	1098.045532	2402.504150	1176.955200	6.049227
792.678955	1091.655640	2386.900635	1180.596069	6.866688
792.990112	1096.411011	2367.284912	1176.955078	6.337691
793.301086	1087.866089	2353.538818	1173.537109	6.768813
793.612122	1094.181885	2341.055908	1169.376099	6.030618
793.922974	1082.813477	2343.953857	1163.877808	6.427859
794.233826	1091.061157	2370.108154	1156.893311	5.146969
794.544556	1092.101318	2377.389648	1156.150269	4.983236
794.855286	1100.646118	2379.916260	1157.487793	4.443289
795.166016	1094.033325	2377.687256	1172.274048	6.095157
795.476624	1095.519409	2389.501221	1169.747803	5.736433
795.787292	1091.135376	2413.426758	1173.685913	6.242991
796.097778	1093.067383	2449.314941	1162.466064	5.116963
796.408264	1094.182007	2472.423096	1169.450562	5.461204
796.718689	1090.243896	2487.357910	1166.701294	5.472524
797.029053	1087.197388	2487.209229	1172.348267	6.082154
797.339355	1088.088989	2483.270996	1169.227661	5.815633
797.649658	1097.153931	2469.599365	1174.800293	5.657519
797.959839	1099.160156	2441.958740	1168.410156	5.157140
798.270020	1093.661743	2414.987061	1167.221313	5.567105
798.580078	1088.980835	2392.101807	1165.586792	5.878653
798.890137	1088.014771	2361.266357	1165.958374	6.121618
799.200195	1093.141602	2343.804932	1162.466064	5.543015
799.510071	1091.506958	2332.585205	1157.933716	5.352343
799.820007	1091.135376	2337.340576	1163.283447	5.789422
800.129883	1085.414185	2321.291260	1168.633179	6.733598
800.439575	1087.866089	2310.517334	1167.890259	6.545135
800.749329	1083.779419	2290.232666	1159.271118	6.257325
801.058960	1097.674072	2294.839600	1155.258789	4.810088
801.368591	1098.788574	2289.935547	1153.698364	4.609825
801.678162	1107.927856	2289.043945	1161.500122	4.535732
801.987671	1104.361450	2281.093506	1164.472168	5.108276
802.297119	1101.240601	2271.508545	1170.490723	5.917459
802.606506	1097.971313	2256.573486	1163.952148	5.694865
802.915894	1092.844360	2258.654053	1158.973755	5.672400
803.225159	1095.073608	2253.304443	1151.394897	4.862700
803.534424	1095.816528	2264.375488	1150.503418	4.679857
803.843628	1097.897095	2248.177490	1149.537354	4.489363
804.152771	1101.240601	2246.320068	1147.382568	4.029586
804.461792	1093.438965	2220.759766	1146.490967	4.706025
804.770874	1089.798096	2211.769043	1152.732300	5.609254
805.079773	1082.144897	2214.072266	1162.986206	7.141917
805.388733	1087.420410	2242.381836	1165.289551	6.742142
805.697571	1090.244019	2270.914063	1167.072876	6.507225
806.006470	1102.429565	2278.344482	1163.209106	5.168702
806.315125	1107.482056	2280.053467	1170.639282	5.386216
806.623901	1108.968140	2267.867920	1164.323608	4.776554
806.932495	1098.045654	2272.028564	1168.113159	5.968358
807.241150	1090.764038	2265.935791	1161.574341	6.025528
807.549622	1086.900269	2261.329102	1164.917969	6.643034
807.858154	1092.472900	2250.555420	1165.066650	6.268444
808.166565	1090.838257	2229.676270	1163.209106	6.354797
808.474915	1090.095215	2207.310791	1169.153320	7.076352
808.783264	1091.358276	2187.026611	1165.883911	6.801843
809.091492	1097.153931	2184.722900	1169.524780	6.654369
809.399719	1098.862915	2189.106689	1155.853149	5.227293
809.707825	1101.983765	2188.363525	1152.955322	4.691873
810.015930	1099.234497	2169.565186	1146.639648	4.429019
810.323975	1100.200439	2150.543701	1153.252563	5.050932
810.632080	1090.243774	2133.751221	1150.577759	5.781845
810.939880	1090.689819	2125.429443	1154.069946	6.125225
811.247864	1085.265625	2116.736084	1146.491089	5.935746
811.555664	1089.723755	2111.683350	1142.181519	5.133057
811.863464	1090.169556	2119.782471	1135.048462	4.358813
812.171143	1093.661743	2128.326904	1135.717163	4.064641
812.478882	1090.838257	2120.450928	1140.323853	4.806234
812.786438	1090.169556	2105.590576	1152.286621	6.117371
813.094055	1093.141602	2094.296387	1154.589966	6.137749
813.401489	1092.324341	2082.333740	1153.178223	6.146799
813.708984	1098.862915	2065.838623	1149.537354	5.240508
814.016357	1092.993042	2053.429932	1147.308350	5.655271
814.323730	1101.017700	2058.631592	1147.679810	4.872748
814.630981	1099.828979	2058.482666	1148.645630	5.092209
814.938232	1103.618408	2067.398682	1144.781982	4.271054
815.245361	1097.079712	2054.544434	1145.822266	5.090794
815.552490	1095.370728	2067.250244	1141.066895	4.701835
815.859619	1093.067383	2071.931396	1149.908936	5.806890
816.166565	1094.256226	2089.838379	1149.685913	5.567565
816.473572	1088.386353	2085.008545	1146.639526	5.845061
816.780457	1097.153931	2085.083008	1145.822144	4.926286
817.087341	1098.714355	2088.872314	1142.998657	4.472448
817.394043	1101.240601	2102.469482	1147.011108	4.571433
817.700806	1095.073608	2111.906250	1140.249634	4.442818
818.007507	1091.506958	2122.903076	1138.912231	4.596224
818.314209	1093.438965	2133.751221	1140.175293	4.492529
818.620667	1099.903198	2141.107178	1143.518921	4.188970
818.927246	1104.732910	2162.357666	1148.794434	4.166083
819.233704	1103.395386	2191.113037	1147.457031	4.050835
819.540161	1098.342896	2240.746826	1152.583862	4.747967
819.846497	1099.828979	2302.195313	1162.391724	5.203301
820.152832	1099.977417	2381.996582	1168.336060	5.332108
820.458984	1101.017700	2469.005127	1176.434937	5.513007
820.765259	1098.119995	2563.666748	1182.676392	5.769614
821.071350	1099.754517	2689.906982	1201.029175	6.368865
821.377502	1099.903198	2882.350830	1203.852661	5.831838
821.683472	1093.958984	3255.573486	1217.004272	5.692286
821.989441	1088.460571	3999.120850	1244.347656	5.355730
822.295349	1084.745361	5196.062988	1315.678223	5.617004
822.601196	1085.488403	6753.746094	1404.321289	5.624883
822.907043	1092.993042	8163.045410	1485.311401	5.549016
823.212769	1095.519409	9016.932617	1534.945679	5.547322
823.518494	1096.708130	8963.359375	1529.818726	5.505654
823.824097	1096.856812	8217.805664	1491.998657	5.549006
824.129700	1095.370728	7075.328125	1423.119995	5.480796
824.435242	1100.274658	5937.976563	1364.494995	5.461691
824.740723	1102.949585	4992.399902	1314.935181	5.450272
825.046082	1104.138306	4293.954590	1277.635254	5.439089
825.351501	1101.091919	3825.252686	1245.685181	5.307810
825.656799	1093.587402	3510.729492	1225.846313	5.471706
825.962036	1093.290161	3309.369141	1215.295288	5.505450
826.267212	1091.061157	3198.880859	1216.558594	5.953898
826.572449	1091.952759	3203.190186	1215.815430	5.866828
826.877502	1084.448242	3343.548096	1222.428345	6.107747
827.182495	1081.698853	3649.006592	1238.849243	6.121214
827.487488	1082.293335	4039.319092	1254.675781	5.829589
827.792419	1086.974487	4372.641113	1282.464844	5.949793
828.097290	1096.856812	4500.812988	1287.740479	5.607701
828.402100	1094.999146	4379.996582	1282.687866	5.713512
828.706848	1097.971313	4067.256104	1264.632324	5.612833
829.011597	1093.810425	3650.120850	1234.391235	5.499363
829.316223	1096.336792	3254.161865	1214.552368	5.478459
829.620789	1093.587524	2920.394287	1185.648560	5.039451
829.925354	1095.370728	2675.046631	1179.555664	5.329254
830.229797	1093.587524	2484.088623	1166.849976	5.268781
830.534302	1096.411011	2367.433350	1161.500122	5.121005
830.838562	1092.250000	2272.994629	1153.326782	5.172734
831.142944	1091.432739	2200.326416	1144.484741	4.784228
831.447144	1086.157227	2142.964844	1138.763306	4.977829
831.751404	1090.466675	2126.692383	1131.184570	3.929443
832.055542	1087.494507	2125.949463	1130.887451	4.178607
832.359619	1091.209717	2134.568604	1135.940063	4.287148
832.663635	1089.277832	2156.636475	1140.546875	4.803357
832.967651	1092.472778	2202.258545	1152.955322	5.449930
833.271545	1094.181885	2305.018799	1157.562134	5.234416
833.575439	1094.627686	2458.974121	1170.342163	5.549505
833.879211	1095.965210	2698.897705	1174.057251	4.871823
834.183044	1092.175659	2958.957275	1188.769287	5.174340
834.486694	1097.153931	3182.905518	1199.765991	4.919669
834.790344	1103.841187	3293.393555	1213.809204	5.022398
835.093933	1107.184814	3239.078369	1213.734863	4.997907
835.397522	1107.704956	3073.606201	1209.574097	5.181804
835.700928	1104.955688	2827.441406	1199.765991	5.504272
836.004395	1110.602783	2614.638428	1187.060303	5.083491
836.307739	1106.144653	2421.451416	1170.193481	4.869497
836.611023	1098.268433	2284.437256	1160.831543	5.274385
836.914307	1089.723755	2165.924561	1158.973877	6.434684
837.217529	1092.324341	2088.575195	1158.750977	6.667662
837.520691	1095.222168	2026.458130	1146.416626	5.497474
837.823730	1092.398560	1970.656860	1137.797485	5.169200
838.126831	1091.581177	1918.198853	1129.624146	4.602245
838.429749	1086.157104	1876.960938	1132.001831	5.797231
838.732727	1086.008667	1857.122192	1136.534424	6.552311
839.035522	1085.414185	1845.085327	1133.265137	6.298903
839.338379	1094.256226	1833.122437	1134.305298	5.420341
839.641113	1098.862915	1833.939941	1132.299194	4.548677
839.943848	1099.754517	1869.382202	1143.964722	5.744363
840.246460	1094.776245	1921.468384	1147.159668	6.336509
840.549072	1098.862915	1986.854858	1145.079224	5.204587
840.851563	1101.017700	2026.606812	1143.816040	4.623903
841.154053	1104.955688	2041.913086	1143.444458	4.107846
841.456482	1096.262329	2008.105469	1145.004883	5.345498
841.758850	1090.689575	1951.263672	1137.723145	5.465371
842.061157	1088.609253	1893.901978	1136.014282	5.886683
842.363403	1097.674194	1834.385620	1130.367310	4.437710
842.665588	1100.794922	1778.064087	1128.732544	4.125040
842.967712	1101.983765	1735.860229	1124.200195	3.504852
843.269775	1105.475952	1703.761353	1127.840942	3.738181
843.571777	1104.732788	1688.306519	1128.732666	4.112570
843.873840	1105.401489	1663.192017	1127.766724	4.009612
844.175659	1098.417114	1639.638184	1122.565552	4.461843
844.477600	1101.017700	1632.133667	1125.537598	4.616675
844.779297	1101.612183	1618.684692	1127.320923	4.971980
845.081116	1103.915527	1615.638306	1124.943115	4.109176
845.382751	1103.989868	1596.171021	1115.506714	2.339961
845.684387	1101.092163	1585.545776	1110.751343	1.993830
845.985962	1088.832031	1578.264038	1109.191040	4.159721
846.287537	1081.773315	1565.112671	1110.825562	6.010735
846.588989	1081.253296	1559.762695	1103.469604	4.642816
846.890381	1089.352173	1541.707153	1104.509888	3.350845
847.191711	1096.336792	1540.221313	1105.401489	2.042130
847.493042	1097.971313	1528.407104	1116.621216	4.332796
847.794250	1098.491333	1515.924194	1119.890503	5.126374
848.095459	1092.398682	1508.939819	1118.478882	6.261134
848.396606	1096.039551	1507.825195	1112.980591	4.114043
848.697693	1097.971313	1523.428711	1110.602905	2.968944
848.998657	1098.640015	1520.456543	1118.701782	4.756041
849.299622	1096.931030	1518.747681	1124.422974	6.517510
849.600464	1098.862915	1509.682617	1128.509644	7.216482
849.901367	1102.726685	1507.527832	1118.181641	3.817913
850.202087	1097.748413	1502.475220	1115.358154	4.351019
850.502808	1099.160278	1501.138062	1110.082642	2.717156
850.803467	1097.302612	1495.267944	1109.042358	2.949942
851.104065	1096.782471	1491.255737	1104.881470	2.053117
851.404663	1098.788696	1488.654907	1104.881470	1.562786
851.705139	1095.890747	1492.370117	1109.413818	3.410788
852.005615	1106.887695	1497.571289	1115.803833	2.282189
852.306030	1101.686401	1495.490845	1111.494263	2.490541
852.606384	1099.011597	1501.509277	1108.150757	2.270612
852.906616	1091.804199	1492.964478	1104.064087	3.056107
853.206909	1092.026978	1484.345337	1103.989868	3.049281
853.506958	1098.565796	1468.890503	1102.280884	1.003197
853.807129	1100.646118	1471.565430	1101.389282	0.200357
854.107178	1104.435669	1478.549805	1106.144531	0.456776
854.407166	1107.853638	1472.902954	1104.732910	-0.854878
854.707092	1106.218872	1463.392212	1100.720459	-1.539424
855.007019	1104.212769	1454.550171	1101.686523	-0.721089
855.306763	1094.256226	1462.723267	1113.352051	5.182506
855.606567	1100.423340	1462.797729	1120.187988	5.454207
855.906250	1096.782593	1465.695679	1115.729614	5.135904
856.205933	1104.807129	1461.386108	1115.432495	2.979807
856.505493	1103.098145	1459.008301	1111.791626	2.442605
856.805054	1106.144653	1450.463501	1108.448120	0.668992
857.104492	1099.828979	1451.206421	1106.441895	1.881998
857.403931	1098.417236	1451.503540	1103.246826	1.367821
857.703308	1097.674194	1455.961792	1106.887573	2.571504
858.002563	1095.668091	1450.983521	1101.389282	1.610173
858.301819	1086.528687	1454.029907	1107.407837	5.681383
858.601013	1089.797974	1448.308594	1114.243530	6.818642
858.900208	1095.816528	1449.348999	1112.683228	4.770905
859.199219	1102.875244	1435.825806	1115.580933	3.816089
859.498291	1094.033325	1440.284058	1115.209473	6.115842
859.797302	1092.621460	1434.488403	1119.890747	7.976579
860.096191	1092.101440	1436.494629	1123.085693	8.996767
860.395020	1088.609253	1432.705078	1112.608887	6.974695
860.693787	1085.414185	1427.652466	1106.739014	6.230989
860.992554	1082.144897	1421.262329	1094.479126	3.637156
861.291260	1087.717407	1414.872437	1096.633789	2.725430
861.589844	1088.906372	1417.027222	1101.537842	3.849639
861.888428	1088.534790	1428.024048	1103.766968	4.486792
862.186890	1091.358276	1436.940430	1107.927734	4.794651
862.485413	1096.336548	1438.500610	1114.986694	5.450644
862.783813	1106.664673	1438.203491	1114.540894	2.375656
863.082153	1103.989868	1430.327515	1120.708008	5.122958
863.380371	1093.215942	1428.321289	1111.568726	5.476720
863.678589	1084.373901	1426.983765	1116.324097	9.325533
863.976746	1084.002441	1429.138550	1112.831909	8.353072
864.274902	1094.033325	1427.058105	1119.742065	7.719768
864.572937	1090.466675	1423.268555	1108.745239	5.492326
864.870911	1095.147827	1424.160156	1101.092041	1.806684
865.168884	1100.051758	1418.958984	1094.999146	-1.584352
865.466736	1108.076538	1416.358398	1105.178711	-0.939993
865.764587	1109.413940	1415.318237	1110.231323	0.267202
866.062317	1106.070435	1421.485352	1116.175415	3.203710
866.360107	1110.677124	1423.862915	1109.711060	-0.308464
866.657715	1108.076538	1418.215942	1108.225098	0.047901
866.955322	1110.231323	1407.442017	1101.909302	-2.800041
867.252808	1101.686523	1401.572266	1101.463501	-0.074369
867.550293	1101.389160	1400.977905	1099.457397	-0.644805
867.847717	1101.612183	1406.030640	1101.760864	0.048841
868.145081	1102.652466	1405.658813	1098.342896	-1.422271
868.442383	1099.011597	1408.408203	1098.342896	-0.216131
868.739624	1090.392456	1401.943726	1094.776245	1.407084
869.036804	1091.729858	1402.909790	1105.401611	4.393520
869.333984	1092.993042	1399.343262	1111.271484	5.966518
869.631042	1095.222046	1399.788940	1114.243774	6.245501
869.928101	1093.735962	1402.240845	1106.813354	4.238958
870.224976	1095.593506	1398.971680	1107.110596	3.796282
870.521851	1100.571899	1403.801270	1109.413940	2.915958
870.818726	1105.550171	1403.429810	1107.482056	0.648545
871.115479	1104.435669	1415.244019	1106.144653	0.549851
871.412231	1097.674072	1417.770142	1100.497559	0.882075
871.708862	1086.825928	1413.089233	1104.286987	5.351830
872.005493	1086.380249	1398.377319	1101.760864	4.929731
872.302063	1099.754517	1392.804321	1106.516113	2.307320
872.598572	1104.138550	1392.358765	1113.946411	3.402905
872.895020	1106.664673	1402.984009	1116.026855	3.159491
873.191406	1095.444946	1406.550415	1111.865845	5.278242
873.487671	1099.754517	1410.414185	1112.088867	3.970374
873.783997	1105.029907	1414.055176	1112.311768	2.356396
874.080200	1105.475830	1419.702148	1113.500610	2.553822
874.376343	1112.609009	1425.126343	1115.209595	0.832141
874.672424	1106.813477	1420.296509	1107.482056	0.213274
874.968445	1106.664673	1413.683594	1100.423218	-2.032922
875.264465	1089.872314	1418.587524	1096.931030	2.147365
875.560364	1091.655640	1417.993042	1101.686523	3.073777
875.856201	1094.850464	1424.531738	1108.150879	4.034325
876.152039	1105.104370	1416.804199	1101.389282	-1.191880
876.447754	1106.738892	1421.485352	1106.367554	-0.117980
876.743469	1102.429443	1420.073608	1115.283813	4.046783
877.039063	1097.005493	1419.256226	1119.667847	7.032522
877.334595	1095.519409	1413.014771	1119.667725	7.605880
877.630127	1099.605957	1416.432739	1105.773071	1.946526
877.925537	1107.407715	1421.039429	1105.178589	-0.710746
878.221008	1107.036133	1425.869141	1102.652344	-1.374948
878.516296	1104.584229	1427.132324	1107.779297	0.990571
878.811646	1102.429321	1432.630737	1107.482056	1.530198
879.106812	1095.742188	1457.001953	1106.516113	2.982321
879.401978	1091.878418	1484.419800	1105.698853	3.520759
879.697083	1089.500732	1511.391602	1110.602783	5.001780
879.992126	1088.088989	1531.973511	1109.711182	4.871130
880.287109	1086.974487	1564.963867	1111.271484	5.083167
880.582031	1084.522583	1642.238647	1116.175415	5.675438
880.876892	1091.506958	1795.451050	1130.664551	5.562600
881.171753	1101.463501	2068.364990	1145.302124	4.533928
881.466492	1102.800903	2501.178467	1165.363892	4.473969
881.761230	1100.571899	3069.296875	1190.181030	4.551633
882.055786	1092.250000	3627.087158	1225.623413	5.261617
882.350403	1091.729858	3995.182861	1241.375610	5.154061
882.644958	1090.318115	4055.145264	1250.217651	5.393216
882.939453	1100.497681	3833.723389	1238.180542	5.037376
883.233826	1104.732910	3429.887939	1222.577026	5.068226
883.528137	1104.435669	3001.087158	1198.577148	4.963562
883.822449	1097.005371	2623.852295	1179.704346	5.416324
884.116577	1093.661743	2341.501709	1160.014038	5.317372
884.410828	1093.958984	2124.909424	1144.930664	4.944145
884.704956	1094.479126	1962.557983	1137.871826	4.998705
884.999023	1097.005371	1849.097656	1131.258789	4.554417
885.292969	1096.559570	1758.225220	1127.618042	4.693983
885.586914	1094.627808	1695.885254	1115.803955	3.521977
885.880798	1093.141724	1644.170532	1118.330200	4.571172
886.174622	1094.553345	1615.341187	1115.729614	4.066199
886.468384	1095.667969	1595.428101	1121.005249	5.069888
886.762085	1093.661743	1570.165039	1119.370483	5.395291
887.055664	1092.101440	1543.118774	1125.389038	7.380558
887.349304	1089.055054	1514.586548	1127.395142	9.009930
887.642822	1100.943481	1492.816040	1117.215698	4.152426
887.936340	1102.429443	1471.713989	1104.212769	0.482914
888.229736	1104.138428	1452.915405	1093.215942	-3.131653
888.523071	1089.797974	1441.769897	1092.398560	0.738862
888.816284	1093.141602	1424.977539	1104.807007	3.515414
889.109619	1090.764038	1416.655640	1106.887573	4.947515
889.402710	1090.243896	1407.367798	1111.940063	6.841543
889.695862	1090.838379	1401.349243	1103.915527	4.211494
889.988892	1096.931030	1390.872559	1103.023926	2.072826
890.281921	1103.172607	1379.132690	1099.606079	-1.292407
>>>>>End Processed Spectral Data<<<<<
