Jaz Data File
++++++++++++++++++++++++++++++++++++
Date: Fri Jun 04 12:01:51 2021
User: jaz
Dark Spectrum Present: Yes
Reference Spectrum Present: Yes
Processed Spectrum Present: Yes
Spectrometers: JAZA3586
Integration Time (usec): 23600 (JAZA3586)
Spectra Averaged: 10 (JAZA3586)
Boxcar Smoothing: 1 (JAZA3586)
Correct for Electrical Dark: No (JAZA3586)
Strobe/Lamp Enabled: Yes (JAZA3586)
Correct for Detector Non-linearity: No (JAZA3586)
Correct for Stray Light: No (JAZA3586)
Number of Pixels in Processed Spectrum: 2048
>>>>>Begin Processed Spectral Data<<<<<
W	D	R	S	P
191.335022	0.000000	0.000000	0.000000	0.000000
191.713211	332.876190	332.950470	338.968964	8202.464844
192.091385	669.244568	678.309509	676.823486	83.606918
192.469528	1008.436523	1024.337280	1020.547852	76.168251
192.847641	1020.176270	1034.219604	1025.154663	35.450222
193.225739	1031.247437	1039.792236	1027.680908	-41.739166
193.603790	1047.445435	1044.027466	1041.129761	184.778564
193.981842	1053.241089	1053.909668	1044.993530	-1233.595093
194.359863	1060.151245	1059.556763	1058.219360	324.969208
194.737854	1054.578613	1067.209961	1057.179199	20.588348
195.115829	1059.259644	1068.398804	1060.225464	10.567933
195.493774	1058.368042	1066.244019	1059.928345	19.810911
195.871704	1065.798218	1066.169800	1057.847900	-2139.586182
196.249603	1068.398804	1072.708374	1061.191528	-167.238846
196.627457	1071.816772	1069.959106	1067.135742	251.984497
197.005310	1070.330688	1067.209961	1066.169800	133.330719
197.383133	1065.798340	1068.770264	1065.723999	-2.501438
197.760910	1060.671509	1070.182007	1059.779663	-9.377487
198.138687	1054.355713	1072.931274	1060.225586	31.599976
198.516449	1057.996460	1068.993164	1053.835571	-37.837597
198.894180	1062.008789	1072.782715	1052.795288	-85.516655
199.271866	1062.751831	1063.940674	1045.736450	-1431.255737
199.649536	1057.699219	1058.516602	1046.702515	-1345.355469
200.027191	1056.956177	1058.070801	1048.114136	-793.275635
200.404816	1063.494995	1068.324585	1041.426880	-456.935608
200.782410	1061.785889	1072.782715	1041.575562	-183.783279
201.159988	1061.265869	1075.829102	1038.083374	-159.185089
201.537537	1051.086304	1080.807251	1047.891235	-10.750224
201.915070	1049.971802	1089.203613	1054.132690	10.605905
202.292557	1044.324829	1097.153931	1052.646606	15.752260
202.670029	1048.411377	1091.729858	1049.005859	1.372353
203.047485	1048.337036	1088.237549	1043.507324	-12.104385
203.424911	1046.256714	1081.847656	1045.810913	-1.252568
203.802292	1046.330933	1088.088989	1045.810913	-1.245315
204.179688	1045.216431	1085.191162	1043.878906	-3.345925
204.557037	1043.656128	1093.364502	1045.364990	3.437776
204.934357	1039.643677	1090.689575	1048.485718	17.321747
205.311661	1042.318604	1090.912598	1051.532104	18.960163
205.688934	1040.312500	1084.893921	1048.337158	18.000006
206.066177	1036.745850	1083.259277	1050.566284	29.712784
206.443390	1029.167114	1081.550293	1051.457886	42.553299
206.820587	1028.498291	1078.132446	1049.674683	42.664959
207.197769	1038.083374	1074.120117	1044.473267	17.731604
207.574921	1039.495117	1074.120117	1039.569336	0.214350
207.952042	1038.603394	1069.587646	1037.265991	-4.316394
208.329147	1033.922363	1065.723877	1037.786011	12.149257
208.706223	1047.073975	1073.897095	1045.364868	-6.371766
209.083267	1058.516479	1079.321289	1051.383423	-34.285614
209.460297	1060.745605	1083.705200	1048.485718	-53.397667
209.837280	1047.519653	1081.030273	1036.151367	-33.924427
210.214264	1037.191772	1080.956055	1029.761475	-16.977995
210.591217	1033.699463	1083.928101	1030.058716	-7.248349
210.968124	1034.962524	1086.008667	1035.185547	0.436904
211.345016	1036.820190	1089.797974	1037.786133	1.823297
211.721893	1035.259766	1086.231567	1040.758179	10.787167
212.098724	1032.584839	1081.699097	1039.197876	13.464598
212.475555	1038.380493	1079.990112	1038.974976	1.428714
212.852356	1040.758179	1084.151001	1040.163696	-1.370002
213.229126	1043.730225	1084.299683	1043.433105	-0.732372
213.605865	1037.117310	1084.225464	1049.080078	25.394262
213.982590	1034.814087	1081.773315	1052.795288	38.291092
214.359283	1029.092773	1084.671143	1048.559937	35.026508
214.735931	1026.937866	1086.825928	1039.717896	21.339861
215.112579	1023.668640	1087.048828	1035.408447	18.522835
215.489197	1034.219604	1082.144897	1035.111206	1.860399
215.865799	1041.947144	1073.302856	1032.064819	-31.516823
216.242355	1040.535278	1072.485474	1035.854370	-14.650640
216.618896	1030.950195	1077.612305	1032.436401	3.185038
216.995407	1027.532227	1086.157227	1036.597290	15.462795
217.371902	1035.334106	1093.959106	1028.498291	-11.660239
217.748367	1042.169922	1095.593628	1030.132935	-22.531172
218.124802	1033.996704	1095.667969	1028.869751	-8.313358
218.501236	1036.151489	1094.627808	1032.361938	-6.480488
218.877609	1033.030762	1093.290283	1041.575562	14.179999
219.253983	1046.628296	1088.906372	1045.959473	-1.581962
219.630295	1043.433105	1087.494751	1040.832520	-5.902153
220.006592	1043.730347	1089.723755	1034.293945	-20.516855
220.382889	1037.934692	1097.897095	1029.464233	-14.126284
220.759140	1038.900635	1103.023926	1032.807861	-9.501655
221.135391	1035.482788	1107.704956	1037.340332	2.571986
221.511581	1040.089478	1107.036255	1041.649780	2.330662
221.887772	1039.346436	1109.191040	1041.501221	3.085113
222.263931	1051.680786	1100.348999	1044.176147	-15.420000
222.640060	1055.395874	1098.862915	1037.860474	-40.341831
223.016159	1053.018188	1099.754517	1037.265991	-33.704395
223.392212	1047.742676	1101.092163	1039.569336	-15.320372
223.768265	1044.399048	1101.537842	1044.770630	0.650315
224.144302	1051.309204	1101.612061	1050.046021	-2.511157
224.520294	1045.810791	1106.887573	1036.077148	-15.936731
224.896286	1043.655884	1108.893921	1038.529175	-7.858466
225.272217	1040.535278	1103.321167	1041.798462	2.011891
225.648148	1041.278320	1103.469727	1046.256592	8.004758
226.024048	1036.671509	1106.218872	1047.148315	15.064276
226.399902	1034.665405	1110.974243	1040.015259	7.010791
226.775772	1038.231934	1114.243530	1036.597290	-2.150519
227.151581	1044.844849	1113.129028	1034.219604	-15.560330
227.527374	1038.306274	1121.450928	1037.414551	-1.072497
227.903137	1040.089478	1130.664429	1042.467285	2.625237
228.278870	1036.894531	1151.915161	1047.445435	9.173053
228.654572	1044.250366	1160.682861	1048.485718	3.637603
229.030273	1037.934692	1170.713745	1051.234985	10.016861
229.405930	1039.643677	1175.543335	1044.473267	3.553791
229.781555	1034.293823	1182.304932	1044.101929	6.626601
230.157181	1031.618896	1178.664063	1041.501221	6.720604
230.532761	1029.464233	1168.113159	1038.826294	6.752350
230.908325	1035.185425	1159.865356	1034.739624	-0.357556
231.283859	1036.597168	1160.162720	1036.894531	0.240652
231.659332	1038.603394	1159.865479	1033.402222	-4.289199
232.034821	1030.504395	1153.475464	1031.990601	1.208582
232.410263	1031.916138	1146.936890	1027.903809	-3.488352
232.785690	1026.863647	1142.850098	1032.361938	4.740460
233.161087	1033.179321	1145.450684	1032.510498	-0.595720
233.536469	1028.126709	1156.744751	1030.058594	1.502033
233.911804	1029.464233	1166.403931	1032.807861	2.441679
234.287140	1028.275391	1162.688965	1034.888306	4.919827
234.662430	1041.501343	1156.373169	1044.324829	2.457945
235.037704	1047.296997	1154.887085	1040.535278	-6.284704
235.412933	1051.160645	1174.354370	1036.151489	-12.183376
235.788162	1045.885132	1184.682495	1032.584961	-9.582438
236.163345	1046.330933	1188.769165	1038.974976	-5.164314
236.538513	1045.885132	1182.082031	1046.182251	0.218154
236.913635	1047.965698	1184.236694	1051.755005	2.780714
237.288742	1043.284546	1191.890015	1052.052124	5.899903
237.663834	1052.498047	1201.326416	1050.789063	-1.148292
238.038879	1060.076904	1202.218140	1041.427002	-13.120684
238.413910	1062.083130	1205.115845	1036.523071	-17.870079
238.788910	1046.999634	1204.075562	1038.380493	-5.487245
239.163879	1038.603516	1205.115845	1043.804688	3.123596
239.538834	1041.649780	1206.304565	1047.817017	3.745555
239.913757	1041.649780	1222.056763	1048.560059	3.830383
240.288651	1043.433105	1243.901733	1052.646851	4.596103
240.663528	1033.328003	1266.044067	1056.361816	9.897819
241.038361	1046.108032	1284.025269	1062.677612	6.964430
241.413177	1041.129761	1313.820679	1057.030518	5.831055
241.787979	1049.377319	1341.981445	1057.922241	2.920301
242.162735	1029.984375	1374.674683	1052.200928	6.445366
242.537476	1035.854248	1396.742554	1048.857300	3.603068
242.912170	1031.693237	1413.683594	1050.789185	4.999065
243.286865	1038.603394	1415.838379	1049.600220	2.915113
243.661514	1038.083374	1396.816895	1055.841553	4.950243
244.036148	1036.448730	1379.950195	1050.268921	4.023328
244.410751	1043.581787	1369.027710	1048.857178	1.620973
244.785339	1043.135864	1368.136108	1042.541504	-0.182880
245.159882	1045.959351	1387.231812	1046.776733	0.239510
245.534378	1038.677612	1406.624878	1048.634277	2.706003
245.908890	1037.414551	1460.345703	1058.962402	5.094884
246.283356	1037.488892	1513.174927	1048.708618	2.358641
246.657791	1040.609619	1593.050415	1048.411255	1.412212
247.032196	1042.318604	1644.616577	1052.498047	1.690101
247.406586	1040.089478	1684.591187	1063.420532	3.620014
247.780960	1042.392944	1695.588257	1061.711548	2.957554
248.155289	1040.906860	1689.718262	1060.522827	3.023370
248.529602	1040.163696	1656.876465	1054.504272	2.325325
248.903870	1043.358887	1600.926392	1058.516479	2.718522
249.278122	1033.996704	1551.515015	1053.686890	3.804732
249.652344	1038.380493	1511.094360	1056.436035	3.819550
250.026550	1032.956421	1490.438354	1050.120239	3.751802
250.400711	1045.364990	1467.255859	1043.655884	-0.405106
250.774857	1043.953247	1468.890625	1042.541382	-0.332253
251.148987	1049.005737	1479.515747	1054.132690	1.190902
251.523071	1041.947144	1506.859375	1062.083130	4.331137
251.897125	1043.953247	1519.639282	1069.513428	5.373330
252.271164	1042.169922	1524.097290	1065.352417	4.810371
252.645187	1041.426880	1522.388306	1059.333984	3.723189
253.019165	1042.615723	1513.694946	1055.470093	2.728707
253.393112	1039.123657	1494.599243	1054.727173	3.425763
253.767044	1035.557129	1473.497192	1060.374146	5.666761
254.140930	1035.036743	1459.454102	1064.832153	7.020309
254.514801	1036.522949	1451.875122	1059.779663	5.599276
254.888657	1039.717896	1445.559570	1050.269043	2.599819
255.262466	1030.578735	1443.627563	1043.135864	3.040108
255.636276	1034.962524	1466.512695	1050.120239	3.512388
256.010010	1036.077148	1491.404175	1064.237915	6.184734
256.383759	1036.968750	1527.961060	1070.330688	6.794798
256.757446	1029.910034	1558.053711	1068.324585	7.273504
257.131134	1030.801758	1603.229858	1053.984131	4.049831
257.504791	1025.154663	1639.712402	1045.588013	3.324887
257.878418	1029.166992	1687.191895	1051.829468	3.444015
258.252014	1030.652954	1750.720703	1066.021118	4.911783
258.625580	1047.519775	1845.530884	1080.658691	4.152689
258.999115	1048.114136	1967.387329	1081.401733	3.621078
259.372650	1044.844849	2079.658936	1077.017944	3.109070
259.746124	1035.705688	2176.846924	1073.079956	3.275166
260.119598	1032.510620	2233.762695	1076.274902	3.643222
260.493042	1033.476440	2257.316650	1080.213013	3.818846
260.866425	1038.826294	2221.056885	1080.584351	3.532141
261.239838	1034.368164	2145.639648	1067.581421	2.988762
261.613159	1040.981079	2043.324829	1069.141846	2.809492
261.986511	1035.036987	1961.814819	1064.683716	3.198904
262.359802	1045.885132	1899.400391	1067.061401	2.481065
262.733063	1038.752075	1864.849609	1064.609253	3.130039
263.106293	1046.182251	1841.592896	1061.711548	1.952362
263.479523	1036.300049	1828.144165	1063.792114	3.471904
263.852692	1039.197876	1818.782227	1059.036743	2.544801
264.225861	1030.430054	1814.546875	1060.819946	3.875684
264.598969	1028.572510	1811.277344	1063.866333	4.509212
264.972076	1025.600464	1831.487915	1064.312134	4.803607
265.345154	1032.436279	1867.673340	1068.250122	4.287866
265.718201	1041.203979	1914.112305	1064.980957	2.723880
266.091217	1048.560059	1966.272827	1070.553589	2.396559
266.464203	1045.736450	2006.321899	1071.073730	2.637691
266.837158	1038.900635	2048.600342	1073.897095	3.466027
267.210114	1037.637451	2066.804443	1073.154175	3.451017
267.583038	1042.467163	2088.649414	1073.079712	2.926120
267.955902	1049.748901	2101.132568	1075.457520	2.445218
268.328766	1043.953247	2119.633545	1080.138550	3.363946
268.701569	1040.238159	2127.435547	1084.671021	4.086917
269.074371	1041.872803	2149.652100	1085.562744	3.943921
269.447144	1048.039917	2176.921143	1083.408081	3.133028
269.819885	1052.943848	2236.809326	1079.098511	2.209260
270.192596	1049.600220	2309.477295	1078.652588	2.305969
270.565277	1044.993530	2418.330811	1078.429688	2.434665
270.937927	1044.176147	2520.273926	1079.098389	2.365849
271.310577	1037.860352	2609.363037	1077.835327	2.543742
271.683136	1040.386597	2676.086670	1078.206909	2.312179
272.055725	1038.454956	2691.987305	1079.172729	2.462472
272.428284	1044.250488	2677.870117	1081.699097	2.292370
272.800812	1050.491821	2610.105957	1078.504028	1.796099
273.173279	1051.086304	2557.648438	1075.680542	1.632474
273.545776	1051.606445	2520.645752	1075.234619	1.608410
273.918152	1041.352661	2505.116455	1085.339722	3.005065
274.290558	1039.792358	2496.125488	1090.912476	3.510194
274.662964	1034.888306	2479.258545	1094.181885	4.105151
275.035278	1037.340210	2478.961426	1090.169556	3.664579
275.407593	1041.055298	2495.976807	1095.370728	3.733221
275.779907	1046.256470	2541.078857	1101.686401	3.708128
276.152161	1052.275146	2595.468506	1099.977539	3.091148
276.524384	1049.228882	2642.799072	1097.822754	3.049371
276.896606	1049.005737	2662.861084	1090.689575	2.582873
277.268799	1040.609497	2668.062012	1092.398560	3.182216
277.640930	1039.643677	2674.006104	1090.541016	3.114202
278.013031	1041.055420	2686.712158	1086.231445	2.745167
278.385162	1041.501343	2685.746094	1086.677246	2.747517
278.757233	1039.940918	2688.346680	1083.630737	2.650429
279.129272	1030.653076	2707.962646	1086.602905	3.335689
279.501282	1029.166992	2754.401611	1093.958984	3.755547
279.873230	1024.857422	2820.977295	1099.828979	4.174084
280.245178	1031.544678	2899.589600	1105.995972	3.985519
280.617126	1031.098755	3000.195313	1104.138550	3.709305
280.988983	1034.665405	3104.590820	1107.333496	3.510663
281.360870	1033.848022	3212.032227	1112.163208	3.595435
281.732697	1033.848022	3280.316406	1115.729614	3.644903
282.104492	1035.779907	3309.517334	1118.330200	3.630599
282.476288	1035.259888	3317.616211	1114.317871	3.463875
282.848053	1037.043091	3302.235596	1114.912231	3.437639
283.219757	1032.361938	3302.532959	1115.729614	3.672308
283.591461	1034.591064	3273.034912	1118.255981	3.737638
283.963135	1040.535278	3293.171143	1118.478882	3.460107
284.334747	1051.234863	3342.582275	1120.930786	3.041700
284.706360	1043.358887	3414.135986	1119.370483	3.206189
285.077942	1035.185425	3507.237061	1123.011230	3.552749
285.449524	1030.504395	3572.846436	1117.215698	3.410686
285.821014	1039.494995	3608.883545	1117.958618	3.053786
286.192535	1044.473267	3647.223389	1112.757568	2.623544
286.563995	1038.826416	3638.307373	1111.865845	2.809770
286.935425	1037.711792	3633.254639	1113.351929	2.914232
287.306824	1032.510620	3557.019775	1112.386108	3.164001
287.678223	1039.420776	3493.416748	1110.008423	2.876437
288.049561	1039.940918	3447.125977	1108.002075	2.827417
288.420898	1044.844849	3433.825439	1113.649292	2.880076
288.792145	1040.981079	3459.682861	1119.073242	3.228681
289.163452	1035.259766	3535.843750	1119.964966	3.387417
289.534668	1031.990601	3649.823975	1121.822388	3.431532
289.905914	1027.309448	3771.383545	1115.432495	3.211395
290.277039	1035.779907	3861.215088	1125.091797	3.160996
290.648193	1039.123535	3889.301758	1121.525269	2.891108
291.019318	1049.823120	3887.518311	1128.732666	2.780762
291.390381	1045.810791	3833.871826	1124.200195	2.811610
291.761475	1048.931519	3776.138672	1127.692505	2.887972
292.132507	1043.507446	3726.653076	1129.698608	3.212318
292.503510	1043.953125	3729.625000	1130.292969	3.214832
292.874481	1042.318481	3774.726807	1132.076294	3.284934
293.245422	1043.284546	3854.379150	1130.070068	3.087250
293.616364	1032.362183	3959.146240	1137.128906	3.579585
293.987213	1029.687134	4076.841553	1144.707764	3.774690
294.358093	1030.801636	4187.701172	1157.562134	4.015348
294.728943	1046.108032	4299.229004	1153.029663	3.286740
295.099731	1049.154419	4392.256348	1151.915161	3.073814
295.470490	1050.269043	4482.460449	1151.989380	2.963714
295.841248	1039.346313	4557.431641	1154.144165	3.263077
296.211975	1040.906860	4656.551758	1153.698364	3.119540
296.582642	1034.962769	4767.262695	1156.447388	3.254953
296.953308	1040.832520	4819.571777	1161.425781	3.191362
297.323883	1036.077271	4811.621582	1159.196777	3.260974
297.694519	1039.718018	4707.003418	1156.150391	3.174893
298.065063	1040.535278	4593.543457	1156.818970	3.272824
298.435608	1037.563232	4461.878906	1159.419556	3.558560
298.806122	1036.745972	4307.403320	1152.583862	3.541731
299.176575	1038.380493	4158.352051	1143.667480	3.374614
299.547028	1043.061523	4058.489014	1135.568481	3.067789
299.917450	1043.135864	4026.687500	1137.128784	3.150370
300.287872	1038.529175	4027.356201	1140.323853	3.405840
300.658234	1032.807739	4006.179932	1142.552856	3.690931
301.028564	1031.916138	3978.985107	1136.311523	3.542346
301.398865	1032.733521	3939.381592	1126.280640	3.218385
301.769135	1035.928589	3901.487061	1120.856567	2.963749
302.139374	1032.213379	3858.911865	1123.234131	3.220037
302.509583	1028.126831	3827.035889	1130.590088	3.660828
302.879791	1024.708862	3779.333740	1128.361084	3.762843
303.249939	1030.578735	3754.145264	1121.896851	3.352887
303.620087	1030.504395	3714.541748	1113.054810	3.075606
303.990173	1036.745850	3713.650146	1116.695557	2.986648
304.360260	1036.448608	3702.207275	1118.850464	3.091122
304.730286	1043.581665	3699.160889	1116.323975	2.739226
305.100281	1044.622070	3683.780273	1110.602661	2.500062
305.470276	1050.789185	3688.832764	1108.299316	2.180030
305.840179	1045.736572	3707.780273	1112.906128	2.523233
306.210144	1037.860474	3729.847900	1116.472534	2.920224
306.579987	1026.789429	3758.677490	1124.720337	3.584733
306.949890	1034.516724	3786.243408	1134.231079	3.623702
307.319702	1038.603394	3849.772461	1140.992554	3.642227
307.689484	1046.628052	3937.152588	1133.933716	3.020409
308.059265	1039.792358	4054.105469	1130.441528	3.007291
308.429016	1047.074097	4150.252930	1134.156738	2.806240
308.798737	1047.891235	4218.908691	1141.512817	2.952415
309.168396	1053.984009	4255.019531	1148.348633	2.947940
309.538055	1050.789063	4263.415527	1139.283569	2.754584
309.907684	1041.203979	4255.019531	1149.834595	3.380114
310.277313	1037.117432	4277.161621	1151.989380	3.545382
310.646851	1033.402344	4276.566895	1156.224731	3.787116
311.016388	1038.826416	4261.706543	1149.611694	3.437462
311.385895	1033.996704	4211.329590	1141.438354	3.381504
311.755371	1040.386719	4171.577637	1142.552856	3.262852
312.124817	1037.191772	4123.280762	1139.506470	3.315352
312.494232	1040.906860	4063.318359	1140.546753	3.296702
312.863617	1035.928589	4037.015625	1133.785156	3.260704
313.232971	1039.866577	4060.346436	1125.611938	2.838799
313.602295	1039.272217	4130.190918	1121.673828	2.665926
313.971619	1034.293945	4208.654785	1123.828613	2.820557
314.340820	1031.693359	4238.152344	1127.766602	2.996241
314.710083	1023.519958	4234.660156	1125.760620	3.183936
315.079285	1030.578735	4169.720215	1127.692383	3.093637
315.448486	1035.111206	4113.175781	1129.549927	3.068120
315.817596	1048.114258	4015.913330	1127.915283	2.688896
316.186707	1042.541626	3934.700439	1126.726440	2.910795
316.555786	1044.473511	3848.583740	1123.457153	2.816710
316.924866	1041.278320	3794.491455	1122.937012	2.965941
317.293884	1050.714844	3779.556396	1118.553223	2.485977
317.662872	1048.782837	3791.370361	1119.519043	2.579178
318.031830	1048.485596	3829.933594	1119.964966	2.569862
318.400757	1042.690063	3850.812744	1125.686401	2.955581
318.769684	1039.792114	3885.438232	1127.023804	3.065444
319.138550	1042.615723	3881.574219	1125.537598	2.920856
319.507416	1055.172852	3854.528076	1124.348755	2.471137
319.876190	1060.002563	3818.342529	1123.085571	2.286992
320.244995	1058.442261	3764.027344	1129.327026	2.619942
320.613770	1046.851074	3738.615967	1124.051636	2.868028
320.982483	1047.222534	3720.485596	1122.714233	2.823953
321.351166	1043.656128	3756.374023	1119.816284	2.807522
321.719818	1043.656006	3813.289795	1119.742065	2.747152
322.088440	1037.340210	3912.855469	1122.565552	2.963829
322.457062	1043.358765	4059.603516	1128.138184	2.810761
322.825623	1044.101807	4206.054199	1144.558960	3.177061
323.194183	1046.776733	4325.904785	1150.800415	3.172297
323.562653	1042.392944	4377.395996	1156.596191	3.424382
323.931183	1040.535278	4400.949707	1150.057495	3.259188
324.299591	1033.848145	4369.148926	1150.354614	3.493132
324.668060	1038.454956	4327.984863	1154.738647	3.534964
325.036407	1038.974976	4261.112793	1153.995605	3.569699
325.404755	1046.925415	4197.212402	1153.698364	3.389308
325.773102	1039.197876	4136.507324	1146.342285	3.459274
326.141388	1039.792358	4058.042969	1143.593140	3.439104
326.509674	1033.030762	3998.155029	1134.751099	3.430559
326.877899	1034.516724	3927.121826	1137.797607	3.570515
327.246124	1035.334106	3899.183838	1142.181396	3.730897
327.614288	1035.705566	3859.580811	1150.206177	4.054733
327.982422	1033.922363	3845.166016	1146.936890	4.020090
328.350525	1029.835693	3859.580811	1149.983276	4.245880
328.718628	1028.646851	3886.180908	1151.618042	4.303402
329.086700	1031.470337	3941.982422	1158.899658	4.378244
329.454712	1030.504395	3972.074951	1156.001831	4.266341
329.822693	1035.928589	4011.009521	1146.713867	3.723773
330.190674	1038.900635	4054.030518	1148.422852	3.632421
330.558563	1039.346313	4091.181641	1157.413452	3.868726
330.926483	1042.095703	4153.447754	1171.679565	4.164873
331.294312	1038.454834	4217.793457	1164.472290	3.963637
331.662231	1045.810913	4315.798828	1169.822144	3.792407
332.029999	1037.563354	4419.080078	1175.840454	4.089204
332.397766	1039.866577	4477.259277	1179.109863	4.050840
332.765503	1038.008911	4521.023438	1180.744507	4.098048
333.133240	1050.046021	4516.490723	1184.831177	3.888282
333.500916	1056.807617	4523.697754	1199.023071	4.102105
333.868561	1059.185425	4501.927246	1202.663818	4.167562
334.236176	1052.498047	4483.129395	1198.205688	4.247254
334.603790	1046.108032	4454.968262	1196.868164	4.422596
334.971344	1037.637451	4432.603027	1195.604980	4.652994
335.338867	1035.036987	4421.086426	1198.874390	4.838601
335.706360	1028.349731	4408.529297	1192.558716	4.857996
336.073853	1035.705688	4428.070801	1190.329590	4.557997
336.441284	1033.476563	4444.714355	1187.877563	4.526246
336.808655	1032.139160	4477.927734	1204.670044	5.007007
337.176086	1029.984375	4515.673340	1203.704102	4.983799
337.543396	1027.383667	4534.843750	1212.546143	5.279104
337.910706	1040.386597	4550.596191	1208.013550	4.775412
338.277954	1044.324829	4539.970215	1219.901978	5.022739
338.645264	1047.519775	4523.326660	1224.508789	5.092027
339.012421	1042.690063	4476.812988	1223.914429	5.277166
339.379669	1041.352539	4394.783203	1217.375854	5.249052
339.746796	1043.953247	4311.415527	1212.917603	5.171119
340.113953	1037.043091	4252.196289	1217.301514	5.606526
340.481018	1033.848022	4224.778320	1219.456177	5.816741
340.848114	1035.854248	4239.119141	1217.152710	5.659802
341.215118	1040.981079	4283.700684	1216.186890	5.403051
341.582153	1044.101807	4399.093262	1231.567627	5.587669
341.949066	1042.095703	4558.769043	1253.932739	6.023790
342.316010	1041.724121	4764.958984	1263.666382	5.961006
342.682922	1035.185547	4975.161133	1269.313354	5.942367
343.049835	1030.207153	5239.382324	1283.579468	6.019524
343.416656	1030.132935	5514.970215	1307.802124	6.191288
343.783478	1031.916260	5748.875488	1321.473877	6.138650
344.150269	1034.070923	5870.955078	1328.309692	6.083230
344.516998	1036.299927	5871.921387	1334.402466	6.164720
344.883728	1032.436157	5791.525391	1342.501587	6.515226
345.250427	1040.163696	5676.431152	1340.941162	6.487492
345.617065	1037.340210	5548.332520	1332.990723	6.554002
345.983704	1034.516724	5445.200684	1322.216797	6.522799
346.350281	1026.343628	5330.774414	1314.415161	6.692442
346.716827	1027.978149	5216.497070	1309.734009	6.726861
347.083405	1032.361938	5098.949707	1305.424561	6.714785
347.449860	1037.711792	5033.786621	1297.697144	6.506018
347.816376	1040.163696	5014.021484	1290.489624	6.299317
348.182770	1041.724121	5046.046387	1295.393677	6.334894
348.549194	1040.238159	5086.764160	1312.111694	6.718690
348.915558	1028.943970	5149.996094	1320.507935	7.074988
349.281921	1028.646851	5210.032715	1321.919556	7.013768
349.648193	1029.464233	5262.712891	1322.439819	6.920822
350.014526	1042.838745	5294.588867	1326.452271	6.670513
350.380737	1044.101929	5319.777832	1332.693604	6.749616
350.746948	1041.278320	5361.238770	1338.340576	6.876504
351.113159	1035.408325	5432.940918	1349.857544	7.150583
351.479309	1036.151367	5490.599609	1361.745972	7.309426
351.845428	1037.860352	5589.421875	1370.290649	7.303654
352.211517	1043.284546	5660.678223	1379.727173	7.286419
352.577576	1037.563110	5800.739746	1387.826172	7.353560
352.943604	1042.318481	5911.673340	1395.850952	7.260355
353.309601	1036.002808	6061.393066	1404.098633	7.324721
353.675537	1043.804565	6195.212402	1417.324341	7.250829
354.041473	1034.516724	6322.715332	1433.745239	7.549424
354.407379	1031.247437	6450.292969	1436.791626	7.483683
354.773254	1027.903809	6572.520996	1438.277710	7.401303
355.139038	1029.166992	6717.857422	1443.924805	7.290919
355.504913	1039.866577	6918.400391	1477.360962	7.442236
355.870636	1038.603394	7145.470215	1508.047974	7.687160
356.236389	1042.912964	7414.519531	1537.026001	7.754921
356.602081	1035.482544	7658.604004	1547.874390	7.736410
356.967804	1035.334106	7848.744629	1559.242676	7.689373
357.333405	1035.036987	7952.025879	1575.366211	7.811625
357.699036	1041.649780	7952.917480	1587.403320	7.896576
358.064606	1038.008911	7895.035156	1592.381714	8.084741
358.430176	1028.052368	7830.837402	1585.620117	8.196169
358.795654	1025.005981	7852.683105	1588.369263	8.251170
359.161163	1035.928589	8027.294434	1608.431030	8.188706
359.526581	1043.358765	8363.291016	1639.860962	8.149013
359.892029	1044.473389	8861.342773	1682.882324	8.167067
360.257416	1042.912964	9358.724609	1721.594116	8.161334
360.622772	1039.792236	9785.296875	1759.265503	8.226778
360.988098	1038.306274	10053.455078	1785.940063	8.293083
361.353394	1031.619019	10151.311523	1794.410645	8.364225
361.718658	1038.009155	10008.576172	1787.946289	8.359974
362.083893	1035.259888	9605.038086	1766.918579	8.537662
362.449097	1036.597168	9077.266602	1729.990234	8.623574
362.814209	1037.711670	8498.225586	1690.461304	8.749393
363.179382	1034.962524	7971.121094	1648.554321	8.846277
363.544434	1029.464111	7564.610840	1627.229492	9.146932
363.909546	1026.566284	7309.232422	1611.700317	9.313467
364.274536	1033.476440	7183.066895	1606.870728	9.324105
364.639587	1039.643677	7059.501465	1599.068970	9.292998
365.004517	1039.643677	6999.093750	1585.322876	9.156536
365.369507	1034.665405	6943.886719	1583.168091	9.282148
365.734344	1038.008911	6946.561035	1573.062866	9.055585
366.099274	1039.272217	6936.158691	1580.567383	9.179338
366.464081	1038.752075	6905.248535	1572.914429	9.105304
366.828918	1035.779907	6833.546875	1581.533325	9.413166
367.193665	1034.219604	6740.817871	1580.121704	9.566156
367.558411	1037.934692	6690.291504	1584.133911	9.663212
367.923126	1031.247437	6649.721191	1580.121582	9.769097
368.287781	1030.355835	6606.552246	1572.096802	9.715242
368.652435	1029.389771	6560.187012	1565.558228	9.694234
369.017059	1036.968628	6569.549316	1568.976196	9.615903
369.381653	1041.278320	6599.122559	1574.920532	9.601604
369.746185	1038.677734	6653.140625	1587.031860	9.766813
370.110687	1038.603516	6725.361816	1599.663452	9.866076
370.475220	1042.690063	6814.303223	1615.786987	9.929580
370.839661	1047.296875	6864.531250	1628.641235	9.993484
371.204041	1044.770630	6892.246094	1629.830200	10.005336
371.568451	1038.974976	6887.192871	1636.591675	10.218783
371.932770	1036.820190	6884.740723	1631.836426	10.174834
372.297150	1036.894531	6851.899902	1638.598022	10.347428
372.661377	1037.637573	6856.580566	1640.232544	10.355746
373.025696	1042.170044	6889.274902	1649.371704	10.384655
373.389862	1045.290649	6954.512207	1654.052856	10.301902
373.754059	1041.278320	7044.864746	1661.929077	10.338000
374.118225	1035.705566	7167.910156	1670.919800	10.358660
374.482361	1038.306152	7307.300781	1685.928711	10.330564
374.846436	1034.293823	7468.389160	1707.625122	10.465051
375.210510	1029.687012	7707.792480	1733.333862	10.536624
375.574524	1021.216553	8023.430176	1767.513062	10.658008
375.938538	1025.303223	8340.554688	1795.673828	10.531020
376.302460	1029.910034	8571.709961	1818.856323	10.460981
376.666412	1042.838745	8714.891602	1840.998535	10.403471
377.030304	1042.615845	8734.730469	1846.273926	10.447817
377.394196	1047.371094	8628.105469	1834.831421	10.387652
377.757996	1034.665405	8408.244141	1803.178345	10.422523
378.121796	1043.210205	8146.550781	1779.847534	10.370294
378.485565	1039.197876	7887.679688	1768.033203	10.642290
378.849304	1045.216431	7684.238281	1752.875610	10.659088
379.212982	1034.219604	7537.862793	1736.380249	10.796420
379.576630	1039.866577	7466.383301	1728.727173	10.719035
379.940277	1038.974976	7448.402344	1725.309204	10.708200
380.303864	1037.860352	7454.271973	1735.637207	10.874877
380.667450	1029.984253	7478.123535	1743.216187	11.061050
381.030945	1034.442383	7480.054688	1746.188110	11.042329
381.394501	1042.764526	7527.236816	1752.578247	10.946361
381.757935	1051.160645	7580.289063	1754.658813	10.774764
382.121399	1046.033691	7652.957520	1771.897095	10.986405
382.484741	1048.114136	7784.250000	1784.677124	10.934504
382.848145	1045.587891	7929.957520	1811.277466	11.122145
383.211487	1046.405273	8068.681152	1829.778931	11.155552
383.574768	1039.569336	8134.364746	1849.914917	11.421691
383.938019	1043.061646	8164.605469	1852.069702	11.360009
384.301270	1051.680664	8175.082520	1859.276978	11.337228
384.664459	1058.070679	8204.060547	1858.385254	11.199492
385.027649	1049.823120	8215.354492	1856.973633	11.264350
385.390778	1037.340210	8317.891602	1864.775391	11.365007
385.753876	1031.544800	8376.740234	1877.852539	11.521923
386.116943	1035.928467	8468.726563	1900.440552	11.631045
386.479980	1040.015137	8503.500977	1912.626343	11.691738
386.842987	1040.683960	8549.866211	1918.570435	11.690840
387.205994	1038.900757	8574.534180	1924.143188	11.747419
387.568909	1037.563354	8558.261719	1920.205444	11.736172
387.931793	1039.346558	8501.494141	1915.449829	11.740632
388.294678	1040.832520	8450.225586	1908.168091	11.705893
388.657471	1046.033569	8456.763672	1921.468384	11.813071
389.020294	1050.788940	8512.788086	1935.734497	11.859363
389.383057	1048.931396	8696.463867	1951.932617	11.807747
389.745819	1044.399048	8866.766602	1969.468140	11.825948
390.108521	1045.067749	9122.219727	1991.238647	11.714165
390.471191	1045.439331	9359.690430	2026.235229	11.796563
390.833801	1043.953247	9584.159180	2048.451416	11.761990
391.196442	1043.061646	9737.519531	2072.748535	11.843025
391.558960	1046.405273	9751.786133	2085.900146	11.940831
391.921509	1052.200806	9703.711914	2084.934326	11.937031
392.284027	1042.615845	9644.270508	2065.244141	11.888740
392.646484	1039.346436	9623.317383	2049.491943	11.767812
393.008911	1034.219482	9638.623047	2052.612549	11.835720
393.371307	1033.476440	9630.375000	2073.343018	12.095834
393.733673	1032.584839	9590.772461	2071.411133	12.138391
394.096008	1034.293823	9503.467773	2059.151367	12.101033
394.458344	1037.563110	9393.796875	2037.603516	11.967598
394.820587	1036.671631	9189.612305	2023.932007	12.109256
395.182831	1032.659302	8961.131836	2004.167358	12.253407
395.545013	1033.922363	8728.265625	1981.727905	12.318213
395.907196	1034.293945	8580.625977	1952.155396	12.163014
396.269287	1038.900635	8509.444336	1940.118286	12.063615
396.631409	1039.717896	8461.000000	1938.855103	12.115659
396.993469	1039.792236	8423.921875	1940.341187	12.195736
397.355530	1034.739624	8430.386719	1940.266968	12.244059
397.717499	1037.711792	8494.287109	1935.065796	12.034399
398.079468	1036.077148	8550.682617	1934.248535	11.952343
398.441376	1034.739746	8550.163086	1938.335083	12.023212
398.803284	1035.408325	8493.246094	1936.031860	12.076201
399.165131	1036.671509	8471.030273	1939.449829	12.143325
399.526978	1043.804688	8443.910156	1929.344604	11.966585
399.888763	1041.872681	8431.650391	1932.836914	12.056712
400.250519	1043.878906	8426.747070	1936.700562	12.093155
400.612244	1044.176147	8482.770508	1952.081055	12.205329
400.973938	1047.148315	8580.106445	1960.402954	12.123453
401.335602	1046.553833	8665.555664	1964.415405	12.047006
401.697205	1048.485718	8786.222656	1970.433960	11.914960
402.058807	1042.392944	8935.422852	1979.647461	11.874458
402.420349	1037.191772	9167.395508	2005.802124	11.913728
402.781860	1031.841919	9383.320313	2035.671509	12.019783
403.143341	1040.015259	9583.788086	2055.956299	11.891012
403.504822	1049.525879	9764.864258	2074.606201	11.761797
403.866241	1048.188354	9900.541016	2091.324463	11.783716
404.227631	1040.981079	9987.251953	2111.385986	11.964817
404.588959	1034.665405	10003.523438	2116.216064	12.058956
404.950287	1036.522949	9973.952148	2109.305664	12.003258
405.311554	1034.516724	9879.586914	2092.290283	11.958905
405.672821	1040.089478	9780.616211	2080.624756	11.904721
406.034027	1032.361938	9621.310547	2059.448242	11.958231
406.395203	1033.996704	9473.225586	2043.101929	11.957316
406.756348	1028.869751	9356.942383	2017.467407	11.870667
407.117493	1038.603394	9332.571289	2005.356079	11.656094
407.478516	1038.529175	9359.393555	2007.510864	11.645205
407.839600	1035.631226	9398.179688	2016.278687	11.726658
408.200592	1036.894409	9518.252930	2034.482910	11.762131
408.561554	1039.866455	9651.328125	2040.129883	11.615489
408.922485	1047.593872	9789.753906	2057.665283	11.554026
409.283417	1042.838623	9857.444336	2062.940674	11.572861
409.644257	1046.033813	9963.920898	2078.544189	11.577971
410.005096	1047.445435	10029.159180	2084.860107	11.550298
410.365906	1062.083130	10023.065430	2083.820068	11.402064
410.726715	1057.996460	9961.320313	2078.247070	11.459209
411.087433	1056.287476	9863.983398	2063.238037	11.432621
411.448120	1050.937622	9818.361328	2057.665283	11.482594
411.808807	1053.463989	9780.987305	2048.897461	11.405681
412.169434	1048.559937	9788.492188	2053.429932	11.497457
412.530029	1038.900757	9847.710938	2060.117188	11.593125
412.890564	1037.340332	9958.050781	2065.392578	11.524331
413.251099	1036.745972	10108.290039	2073.491455	11.428545
413.611572	1037.786133	10253.999023	2081.218994	11.321710
413.972076	1043.953369	10367.310547	2106.036133	11.391634
414.332489	1048.337158	10471.631836	2108.562500	11.251111
414.692871	1045.587891	10665.338867	2127.509766	11.246881
415.053223	1033.922363	10846.117188	2133.305420	11.204251
415.413574	1032.139160	11113.754883	2159.460205	11.181949
415.773834	1036.522949	11340.156250	2175.732422	11.056387
416.134094	1036.225708	11598.133789	2204.784424	11.063898
416.494263	1035.036987	11843.184570	2242.902100	11.175506
416.854462	1039.494995	12150.797852	2274.629150	11.116015
417.214630	1045.736450	12566.225586	2313.415283	11.003689
417.574738	1044.473267	12969.243164	2347.594482	10.927853
417.934784	1035.705688	13400.125000	2387.123291	10.929892
418.294861	1033.922485	13876.627930	2423.754883	10.821959
418.654846	1035.111206	14445.860352	2474.949463	10.736449
419.014832	1039.940918	15045.409180	2539.221191	10.704963
419.374756	1042.170044	15692.065430	2604.310547	10.663151
419.734680	1042.764404	16339.911133	2655.876221	10.545181
420.094543	1046.330933	16862.779297	2696.965820	10.436192
420.454376	1047.371094	17171.435547	2721.857422	10.385014
420.814148	1048.337036	17331.630859	2737.758057	10.375180
421.173920	1045.810913	17449.029297	2752.693115	10.405776
421.533691	1043.804688	17542.203125	2763.392578	10.422756
421.893341	1039.197876	17542.500000	2764.061279	10.451626
422.253021	1036.151489	17495.912109	2742.810547	10.368675
422.612640	1027.606567	17437.361328	2726.389893	10.352278
422.972260	1034.442505	17490.638672	2730.625244	10.307260
423.331757	1043.210327	17601.423828	2741.621826	10.257215
423.691315	1050.269043	17741.632813	2763.838623	10.266205
424.050781	1051.977905	17733.830078	2746.526123	10.158034
424.410248	1044.027466	17560.705078	2713.461182	10.107564
424.769653	1041.575562	17247.593750	2666.650391	10.027600
425.128998	1042.912964	16888.117188	2636.854980	10.059461
425.488373	1038.380493	16481.978516	2596.211426	10.087228
425.847656	1036.597290	16090.996094	2551.927002	10.065694
426.206940	1027.829590	15691.842773	2504.893555	10.072713
426.566193	1028.349609	15322.632813	2466.999023	10.064509
426.925385	1033.179321	14944.284180	2424.720703	10.003098
427.284576	1039.420776	14571.506836	2377.687012	9.889578
427.643677	1041.352661	14274.295898	2342.393311	9.831831
428.002777	1040.163940	14065.950195	2321.737061	9.838739
428.361847	1043.804565	13909.989258	2311.557617	9.853373
428.720856	1044.399048	13727.426758	2299.223389	9.893729
429.079865	1040.312378	13582.239258	2269.651123	9.801833
429.438812	1033.105103	13515.144531	2257.614014	9.810167
429.797760	1033.476563	13506.674805	2245.799805	9.719426
430.156616	1033.922363	13421.968750	2243.347900	9.762843
430.515503	1032.882080	13336.520508	2232.053711	9.746480
430.874268	1030.058594	13318.762695	2232.573730	9.785533
431.233093	1028.423950	13426.577148	2227.223877	9.669181
431.591827	1029.612915	13595.614258	2233.168213	9.577870
431.950562	1037.563110	13743.921875	2234.357178	9.418859
432.309204	1042.764404	13872.614258	2245.874023	9.377426
432.667877	1043.061646	14041.801758	2256.350830	9.333899
433.026459	1038.380493	14130.742188	2263.483887	9.357390
433.385010	1043.210083	14191.225586	2270.022461	9.330780
433.743561	1045.067871	14165.963867	2266.901611	9.312120
434.102051	1051.680786	14172.500977	2271.880127	9.299719
434.460510	1045.067871	14220.278320	2267.867920	9.281066
434.818939	1051.383545	14207.348633	2263.558105	9.213878
435.177338	1040.758301	14189.813477	2251.372314	9.206852
435.535675	1043.507446	14132.750000	2252.263916	9.234733
435.894012	1039.792236	14139.808594	2236.511963	9.135254
436.252289	1043.878906	14298.148438	2240.226807	9.026133
436.610535	1044.399048	14387.161133	2247.954346	9.020287
436.968719	1043.433105	14664.905273	2279.384521	9.073552
437.326935	1043.730347	14928.605469	2297.440186	9.029321
437.685028	1049.228760	15248.329102	2307.470947	8.861422
438.043152	1044.176147	15443.820313	2313.117920	8.812313
438.401215	1041.575562	15696.301758	2330.058838	8.792271
438.759277	1036.671509	16031.257813	2355.470459	8.795168
439.117249	1039.866577	16562.671875	2396.708740	8.740959
439.475250	1048.782959	16915.980469	2425.909668	8.679080
439.833130	1040.981201	17284.966797	2454.887695	8.704185
440.191071	1042.764282	17360.310547	2458.528564	8.676331
440.548889	1039.866577	17477.115234	2455.482178	8.612242
440.906708	1046.925415	17437.064453	2436.237549	8.476512
441.264496	1038.752075	17308.298828	2417.959229	8.477232
441.622223	1034.368164	17058.271484	2395.445557	8.494044
441.979950	1038.306152	16753.705078	2377.835693	8.523675
442.337616	1041.352661	16506.720703	2348.709229	8.453446
442.695251	1042.987305	16287.528320	2326.864014	8.421879
443.052887	1039.123535	16227.863281	2311.408936	8.376504
443.410461	1039.643677	16313.682617	2327.904053	8.434314
443.768005	1040.163818	16520.912109	2349.674561	8.458963
444.125458	1038.157715	16745.232422	2370.330811	8.481358
444.482941	1037.265991	17081.750000	2390.615479	8.434982
444.840393	1035.111206	17566.947266	2420.782715	8.381837
445.197754	1038.157593	18046.421875	2449.166260	8.296019
445.555084	1046.330933	18420.314453	2468.187744	8.183827
445.912415	1042.244263	18651.990234	2483.568604	8.184811
446.269714	1042.912964	18753.857422	2493.748291	8.191744
446.626953	1038.974976	18763.591797	2494.045166	8.209318
446.984161	1048.708618	18590.912109	2485.128906	8.188369
447.341309	1038.974976	18385.466797	2467.296143	8.234063
447.698456	1043.135986	18100.662109	2445.154053	8.219352
448.055542	1038.677734	17912.974609	2419.073975	8.180467
448.412598	1043.730347	17577.720703	2380.584961	8.085493
448.769653	1040.461060	17199.966797	2340.684326	8.046182
449.126617	1040.015137	16741.220703	2299.520508	8.021711
449.483582	1039.718018	16456.714844	2280.424561	8.047654
449.840515	1045.736572	16219.690430	2253.155518	7.957181
450.197388	1053.166626	16081.041992	2234.208740	7.859009
450.554230	1052.572266	15944.324219	2218.530762	7.829559
450.911041	1045.216187	15918.020508	2215.855713	7.871007
451.267822	1039.940918	15943.655273	2217.713379	7.902543
451.624573	1038.232056	16013.424805	2207.310791	7.806769
451.981262	1036.820313	15955.395508	2200.029297	7.797051
452.337921	1035.408447	15804.485352	2172.908691	7.701905
452.694580	1042.615845	15497.541992	2158.939697	7.722792
453.051147	1044.473389	15309.778320	2151.435303	7.759820
453.407715	1046.033691	14998.078125	2143.336182	7.864815
453.764221	1044.919067	14879.863281	2126.841064	7.820212
454.120728	1044.993408	14568.608398	2102.246826	7.817831
454.477142	1039.792114	14513.476563	2089.912354	7.793861
454.833557	1040.906860	14430.627930	2087.089111	7.813324
455.189911	1045.513550	14429.885742	2073.937744	7.683769
455.546265	1051.755127	14458.268555	2071.114014	7.603460
455.902557	1052.646729	14497.129883	2060.340088	7.495218
456.258820	1042.764404	14765.585938	2077.132568	7.537577
456.615051	1042.021362	15039.242188	2095.114014	7.523584
456.971252	1037.117432	15385.567383	2127.658447	7.600410
457.327393	1041.278442	15886.218750	2165.255615	7.571450
457.683502	1039.643677	16527.673828	2207.310791	7.539158
458.039612	1046.182251	17378.662109	2257.242432	7.415042
458.395630	1050.343262	18231.212891	2307.842529	7.319183
458.751648	1049.228638	18951.652344	2358.591064	7.313883
459.107605	1047.148315	19606.927734	2414.392578	7.366705
459.463562	1044.250488	19848.189453	2432.745361	7.384064
459.819458	1047.594116	19786.964844	2418.999268	7.318309
460.175323	1044.844849	19273.607422	2363.495361	7.233901
460.531158	1035.408325	18571.445313	2306.059326	7.245942
460.886932	1034.516724	17821.134766	2255.682129	7.274637
461.242676	1035.482666	17114.814453	2211.992188	7.316905
461.598419	1047.445435	16613.791016	2180.487549	7.278793
461.954102	1045.587891	16108.829102	2143.113281	7.286117
462.309723	1047.519775	15706.851563	2112.500488	7.264865
462.665344	1046.330933	15365.356445	2086.494629	7.264207
463.020905	1053.686890	15202.559570	2078.321533	7.241811
463.376373	1049.526001	15220.096680	2073.937744	7.229150
463.731873	1042.021362	15234.511719	2080.253418	7.315362
464.087341	1035.854248	15262.299805	2077.058350	7.318793
464.442749	1033.625122	15343.958008	2085.677490	7.351697
464.798126	1038.826416	15478.891602	2072.525879	7.158551
465.153503	1041.649902	15656.178711	2069.999512	7.036488
465.508820	1048.039917	15805.081055	2068.810791	6.917179
465.864105	1046.108032	15876.335938	2076.835205	6.950178
466.219330	1045.364868	16097.386719	2082.705078	6.891700
466.574524	1041.352661	16118.117188	2090.803955	6.960720
466.929657	1041.649902	16039.875977	2089.318115	6.985281
467.284790	1039.643677	15833.242188	2093.330811	7.122588
467.639893	1037.488892	15606.915039	2066.804443	7.064901
467.994934	1042.467041	15429.183594	2048.377441	6.991939
468.349945	1037.117310	15211.625000	2039.312500	7.070405
468.704926	1038.900513	15096.381836	2039.386719	7.117108
469.059875	1033.625122	14967.168945	2028.835815	7.142552
469.414764	1041.798462	14951.789063	2001.938110	6.902518
469.769653	1044.027466	14928.977539	1990.198364	6.814363
470.124451	1043.730347	15029.434570	1992.947632	6.787054
470.479248	1035.334106	15034.785156	2009.219727	6.956599
470.834015	1033.402222	15056.555664	2014.792358	6.998355
471.188721	1026.789185	15185.174805	2026.829590	7.063238
471.543365	1031.173096	15440.700195	2031.436401	6.941680
471.898010	1038.603394	15705.067383	2046.965698	6.875293
472.252625	1042.095581	15985.561523	2067.770264	6.863700
472.607178	1046.256592	16237.151367	2088.352295	6.860002
472.961700	1044.844849	16357.743164	2086.123291	6.800009
473.316193	1055.172852	16412.060547	2087.237793	6.720534
473.670654	1054.058350	16316.579102	2085.157471	6.755759
474.025055	1046.108032	16361.383789	2090.952881	6.822240
474.379456	1042.244141	16385.236328	2087.386230	6.811853
474.733795	1039.792358	16537.779297	2082.927979	6.730781
475.088104	1042.838745	16797.318359	2094.667969	6.676382
475.442383	1043.433105	17105.228516	2120.079346	6.703150
475.796570	1040.758179	17385.349609	2147.274170	6.769921
476.150787	1037.340332	17748.541016	2186.431885	6.876176
476.504944	1033.030884	18150.595703	2191.261475	6.766328
476.859070	1028.126831	18500.189453	2205.453369	6.738338
477.213135	1027.606567	18744.642578	2211.769287	6.683752
477.567200	1034.739624	18969.410156	2230.641846	6.668103
477.921173	1046.553833	19233.037109	2248.771729	6.610503
478.275146	1049.005737	19462.705078	2246.988525	6.505932
478.629089	1049.526001	19731.533203	2262.740479	6.494026
478.983002	1050.491821	20151.939453	2284.437256	6.459958
479.336823	1048.857178	20675.103516	2328.201416	6.518538
479.690643	1046.999634	21295.009766	2380.510498	6.585886
480.044403	1040.906860	22064.044922	2444.856689	6.678117
480.398163	1043.581665	23130.068359	2514.329834	6.659041
480.751862	1041.352661	24670.289063	2595.988281	6.579372
481.105499	1042.690063	26757.228516	2717.696289	6.513849
481.459137	1044.399048	29772.802734	2901.744141	6.465187
481.812744	1043.210083	33706.167969	3163.587158	6.491687
482.166290	1041.055542	38574.925781	3473.949463	6.481863
482.519806	1039.866577	43548.972656	3803.779297	6.501931
482.873291	1036.225708	47876.363281	4126.996094	6.598551
483.226715	1035.408447	50716.511719	4347.526367	6.666756
483.580139	1033.625122	51804.078125	4441.965332	6.713236
483.933502	1037.043091	51193.234375	4360.157715	6.625533
484.286804	1032.807739	49064.167969	4198.104004	6.590062
484.640106	1038.752075	45994.277344	3973.635498	6.528415
484.993347	1034.739624	42920.519531	3770.417236	6.531280
485.346558	1036.300171	40714.996094	3607.322998	6.479606
485.699738	1029.538452	39857.316406	3541.787842	6.470238
486.052887	1033.402222	40126.957031	3560.140625	6.463312
486.405975	1035.036743	41175.667969	3623.966797	6.449650
486.759064	1036.077026	42253.730469	3698.566650	6.459586
487.112061	1041.129517	42804.312500	3731.780029	6.442637
487.464996	1044.176147	42516.312500	3728.882080	6.473517
487.817963	1042.021362	41406.082031	3652.052979	6.466227
488.170868	1037.265991	39661.300781	3530.865234	6.456081
488.523743	1040.758179	37625.261719	3394.817139	6.434580
488.876587	1041.426880	35739.535156	3271.771729	6.427856
489.229401	1044.993530	34548.761719	3198.137451	6.426572
489.582153	1041.872681	34256.750000	3161.803467	6.382473
489.934845	1045.587891	34858.601563	3190.633057	6.343844
490.287537	1040.981201	35990.828125	3246.806396	6.311401
490.640198	1041.798584	37249.886719	3323.560791	6.301802
490.992798	1038.380615	37949.003906	3370.148682	6.317336
491.345337	1037.488892	37822.683594	3377.801758	6.362106
491.697876	1033.996704	36619.054688	3319.473877	6.422575
492.050354	1039.866577	34732.433594	3189.890381	6.381300
492.402832	1044.547607	32272.570313	3025.904297	6.344803
492.755219	1048.485718	29708.755859	2854.041992	6.299858
493.107605	1041.501343	27349.494141	2719.182373	6.377078
493.459930	1037.043091	25530.562500	2612.706787	6.432982
493.812225	1035.779907	24250.994141	2542.267822	6.489227
494.164490	1041.129639	23516.587891	2496.200195	6.474041
494.516724	1039.940796	23226.289063	2472.943115	6.458938
494.868896	1043.135864	23259.427734	2463.506592	6.393375
495.221039	1045.513672	23466.580078	2478.887451	6.392978
495.573120	1048.039917	23635.025391	2489.364258	6.381216
495.925201	1048.411499	23849.835938	2502.292725	6.376274
496.277222	1050.640625	24016.125000	2511.654785	6.361783
496.629211	1053.984253	24120.000000	2515.741455	6.337276
496.981140	1048.634277	24036.187500	2511.357666	6.363111
497.333069	1043.581665	23821.750000	2493.376221	6.364843
497.684967	1040.683960	23430.990234	2467.667725	6.373221
498.036804	1042.541382	22989.335938	2440.027100	6.367607
498.388580	1042.764404	22525.759766	2412.386475	6.375377
498.740326	1040.238159	22115.164063	2385.562988	6.383533
499.092072	1033.699585	21631.380859	2351.458252	6.397607
499.443756	1036.894531	21190.466797	2331.990723	6.426137
499.795410	1041.575562	20804.242188	2327.532471	6.507001
500.147003	1047.891235	20545.964844	2316.684570	6.507275
500.498566	1037.563110	20280.630859	2293.947754	6.529025
500.850098	1034.516724	20113.226563	2270.914307	6.480510
501.201599	1033.104980	20005.708984	2264.969971	6.492862
501.553009	1043.284546	19971.900391	2262.072021	6.438862
501.904449	1038.677734	19961.724609	2260.288818	6.455678
502.255859	1041.129761	20024.285156	2271.731201	6.482596
502.607178	1036.745972	20122.216797	2277.303955	6.500012
502.958405	1039.420776	20182.847656	2281.539307	6.488485
503.309692	1038.083374	20192.656250	2276.115234	6.463375
503.660919	1040.832520	20205.361328	2280.499023	6.468546
504.012115	1045.885132	20202.611328	2281.093750	6.447911
504.363251	1048.560059	20192.208984	2279.904541	6.432131
504.714294	1046.033813	20140.867188	2281.242188	6.468809
505.065369	1041.204102	20110.033203	2278.047119	6.486204
505.416443	1041.426880	20015.519531	2263.929688	6.443011
505.767395	1042.095703	19976.287109	2263.186523	6.449131
506.118317	1038.529175	19904.361328	2251.595459	6.429965
506.469238	1031.470337	20017.152344	2261.477783	6.478606
506.820160	1035.482788	20142.798828	2265.118408	6.435418
507.170929	1039.123657	20416.234375	2290.530029	6.458168
507.521729	1040.461060	20603.773438	2313.341064	6.506464
507.872498	1034.516724	20871.412109	2332.585205	6.543708
508.223236	1033.625122	21098.853516	2336.300537	6.492203
508.573883	1036.225708	21327.779297	2353.464600	6.491563
508.924500	1034.591187	21498.228516	2368.473633	6.518306
509.275116	1035.185669	21651.515625	2387.494873	6.559408
509.625702	1030.950317	21831.849609	2399.606201	6.579792
509.976196	1031.619019	22013.962891	2399.829346	6.520770
510.326660	1035.705688	22231.820313	2410.157471	6.484451
510.677124	1040.683960	22425.453125	2410.305908	6.404661
511.027557	1041.798462	22580.150391	2426.058105	6.426952
511.377869	1042.615845	22685.734375	2442.553223	6.468279
511.728180	1044.324707	22677.859375	2449.537842	6.495532
512.078430	1045.959473	22638.107422	2447.382813	6.490430
512.428650	1036.671509	22535.943359	2438.318115	6.519507
512.778931	1035.259888	22452.720703	2432.151123	6.522207
513.129028	1037.488892	22303.744141	2425.166748	6.525257
513.479126	1040.163818	22130.841797	2411.271973	6.501015
513.829285	1043.507446	22008.166016	2400.423828	6.472399
514.179382	1040.461060	21940.849609	2379.173096	6.405201
514.529297	1044.176147	21919.896484	2380.362061	6.400670
514.879272	1045.067871	21994.197266	2387.346436	6.407324
515.229187	1048.931519	22089.974609	2404.956055	6.444664
515.579163	1045.439331	22454.357422	2429.996094	6.467196
515.928955	1042.392944	22938.289063	2462.243408	6.484550
516.278748	1040.683960	23720.994141	2512.546387	6.489604
516.628540	1043.953247	24509.494141	2566.415771	6.488078
516.978333	1042.392944	25374.677734	2610.997559	6.446598
517.327942	1039.494995	26187.546875	2667.319092	6.472963
517.677612	1038.752075	26846.539063	2697.782959	6.428412
518.027222	1037.191772	27290.125000	2734.637451	6.465737
518.376831	1035.928589	27356.703125	2730.178955	6.436932
518.726379	1031.916138	27185.507813	2709.968750	6.416146
519.075867	1029.241333	26637.822266	2667.987549	6.399208
519.425293	1029.464233	26017.693359	2634.031494	6.421293
519.774658	1035.408447	25323.630859	2606.167969	6.467165
520.124084	1038.974976	24772.525391	2585.140381	6.514682
520.473389	1037.191650	24276.482422	2548.880859	6.504885
520.822693	1035.259766	23965.896484	2521.091553	6.479680
521.171997	1035.854126	23787.197266	2504.299072	6.454322
521.521240	1044.176147	23740.982422	2505.487793	6.438402
521.870361	1044.547729	23769.068359	2511.580566	6.455726
522.219482	1044.101929	23957.875000	2519.605225	6.439373
522.568604	1040.683960	24341.275391	2536.917969	6.421442
522.917664	1038.826294	24831.226563	2564.261230	6.411438
523.266724	1043.358765	25444.669922	2597.846191	6.370508
523.615662	1036.002808	26258.656250	2642.799316	6.370450
523.964600	1040.089478	27349.271484	2717.770752	6.376790
524.313538	1030.727417	28557.208984	2798.612061	6.422487
524.662354	1036.225708	29827.490234	2889.781250	6.437910
525.011169	1034.739746	31003.037109	2957.991211	6.417620
525.359985	1045.142090	32208.224609	3047.600342	6.425739
525.708740	1041.798462	33392.160156	3121.903076	6.429926
526.057434	1042.690063	34896.941406	3223.177734	6.440810
526.406067	1038.454834	36826.062500	3334.557617	6.415915
526.754700	1044.696289	39531.644531	3502.036133	6.384865
527.103333	1043.284546	42735.355469	3716.547852	6.411922
527.451782	1047.222534	46206.332031	3961.375000	6.453077
527.800293	1045.364868	48911.175781	4176.333008	6.541137
528.148743	1051.309082	50532.019531	4304.208008	6.574075
528.497131	1046.256714	50529.863281	4318.251465	6.612280
528.845642	1046.256714	49179.339844	4205.014160	6.562550
529.193909	1044.176147	46635.511719	4018.142822	6.523097
529.542175	1040.683838	43236.832031	3766.999268	6.461053
529.890503	1043.210205	39785.617188	3533.837646	6.428686
530.238770	1032.287720	36717.656250	3327.275635	6.431173
530.586914	1031.990479	34703.457031	3189.741455	6.408248
530.934998	1019.433289	33575.394531	3107.116943	6.412600
531.283142	1032.807739	33496.261719	3090.547607	6.338635
531.631226	1041.575562	34091.949219	3126.955811	6.309702
531.979248	1053.761230	35300.109375	3206.087891	6.284836
532.327148	1048.708618	36574.847656	3295.919922	6.325515
532.675110	1049.080078	37553.859375	3366.804688	6.349099
533.023071	1041.426880	37777.140625	3377.653076	6.359550
533.370850	1040.683838	37094.742188	3324.229492	6.333672
533.718689	1038.529175	35764.207031	3239.524414	6.338235
534.066467	1052.423706	34082.136719	3143.079346	6.329621
534.414246	1047.445435	32527.203125	3051.018311	6.364639
534.761963	1045.587891	31382.421875	2973.966553	6.356559
535.109619	1032.361938	30783.541016	2934.363037	6.393027
535.457153	1035.779907	30620.892578	2926.858398	6.391994
535.804749	1035.482788	30570.888672	2927.452881	6.405770
536.152344	1036.374268	30472.882813	2925.446533	6.417447
536.499817	1037.117310	30126.484375	2913.781250	6.451374
536.847229	1034.516724	29634.080078	2869.274170	6.415334
537.194641	1036.077026	28914.013672	2808.197021	6.356711
537.542114	1035.928467	28186.812500	2751.281250	6.317852
537.889404	1039.569336	27550.484375	2722.675049	6.348728
538.236694	1039.049316	27120.123047	2711.677979	6.413189
538.583984	1039.049194	27230.388672	2725.052246	6.437254
538.931213	1038.306152	27969.773438	2761.311768	6.397741
539.278381	1041.575562	29426.330078	2840.593018	6.337971
539.625488	1038.603394	31258.783203	2950.041016	6.325037
539.972595	1039.420776	33566.921875	3094.114014	6.316788
540.319641	1038.157593	35846.082031	3241.010498	6.328596
540.666687	1040.386719	37726.238281	3355.956787	6.311889
541.013611	1035.557007	38787.207031	3426.990234	6.334646
541.360596	1034.219604	38926.304688	3428.847656	6.319599
541.707458	1037.934692	38242.871094	3384.489014	6.307104
542.054260	1038.900757	36782.667969	3287.449463	6.290744
542.401062	1040.312378	35048.515625	3188.924561	6.317924
542.747864	1038.454834	33161.898438	3061.272217	6.297013
543.094666	1039.272217	31410.583984	2961.112061	6.327813
543.441284	1042.541504	29675.615234	2860.803467	6.350215
543.787903	1037.191772	28313.794922	2771.119873	6.356833
544.134460	1040.832520	27131.564453	2687.975098	6.313133
544.481079	1034.516724	26410.677734	2628.235596	6.280378
544.827637	1040.535278	25851.552734	2605.870361	6.309032
545.174072	1038.529175	25592.751953	2599.926514	6.358977
545.520508	1046.108032	25506.562500	2596.954346	6.340219
545.866943	1044.250488	25454.552734	2593.685059	6.347462
546.213318	1040.461060	25386.343750	2573.251953	6.295894
546.559631	1036.077271	25102.654297	2552.744385	6.301965
546.905823	1042.318604	24590.556641	2514.998779	6.253887
547.252136	1046.405273	23819.521484	2483.940186	6.312420
547.598389	1047.742676	22931.750000	2425.463867	6.295562
547.944458	1043.730347	22069.244141	2384.671631	6.377686
548.290588	1041.798462	21199.162109	2318.913818	6.335726
548.636658	1035.854248	20333.460938	2274.777832	6.420089
548.982727	1030.281616	19597.492188	2216.970215	6.391313
549.328735	1034.516846	19080.642578	2201.738281	6.467989
549.674622	1041.798462	18697.314453	2174.171875	6.413709
550.020569	1049.674561	18492.310547	2160.500244	6.368451
550.366455	1043.581665	18342.962891	2131.373779	6.288041
550.712280	1041.501221	18351.433594	2130.259033	6.289787
551.058044	1034.293823	18417.861328	2141.478760	6.369146
551.403748	1039.123535	18592.623047	2152.178467	6.340929
551.749512	1034.739624	18766.638672	2159.311523	6.342084
552.095154	1039.494995	18908.705078	2154.110352	6.237630
552.440735	1026.863525	18950.166016	2157.379639	6.307521
552.786316	1028.423950	18902.462891	2146.977295	6.257977
553.131897	1024.783081	18732.087891	2131.596436	6.250603
553.477417	1028.275269	18475.222656	2106.259277	6.178640
553.822815	1033.625122	18115.523438	2093.330322	6.203673
554.168213	1036.968750	17732.267578	2075.052246	6.217819
554.513672	1043.804688	17361.052734	2058.333984	6.217527
554.859009	1048.039917	17054.851563	2036.711914	6.176570
555.204285	1052.423828	16883.955078	2024.303345	6.138885
555.549500	1049.674561	16781.935547	2012.935059	6.122836
555.894714	1040.683960	16719.226563	2016.204224	6.222008
556.239990	1029.166992	16586.818359	2017.987671	6.355848
556.585022	1037.860474	16474.919922	2008.030884	6.284684
556.930115	1044.621948	16396.158203	1992.353027	6.173526
557.275146	1047.891235	16301.941406	1971.622681	6.055647
557.620178	1039.346313	16190.933594	1968.501953	6.132398
557.965149	1038.454712	16067.666992	1946.359741	6.040936
558.310059	1048.039917	16014.614258	1952.081055	6.040401
558.654968	1053.984131	15952.497070	1954.830444	6.046552
558.999756	1044.993530	15981.252930	1968.947876	6.185982
559.344604	1037.786133	16034.675781	1971.325562	6.224887
559.689331	1037.711914	16106.450195	1978.681641	6.244516
560.033997	1050.194702	16150.734375	1992.947632	6.243174
560.378723	1050.120361	16198.437500	1995.399780	6.240161
560.723389	1047.371094	16243.317383	1985.145874	6.171217
561.067932	1042.095581	16297.708008	1965.158325	6.050644
561.412476	1041.798462	16295.627930	1954.235962	5.981695
561.757019	1047.371216	16254.612305	1946.731323	5.914025
562.101501	1042.318481	16194.574219	1948.886108	5.983054
562.445862	1045.290649	16106.229492	1939.449585	5.936940
562.790222	1036.300171	16049.015625	1937.889160	6.005502
563.134644	1042.021362	16032.000000	1939.226685	5.985368
563.478943	1041.055420	16102.069336	1945.170898	6.003019
563.823181	1047.371094	16263.156250	1951.189453	5.940005
564.167358	1045.290649	16446.240234	1950.074829	5.874860
564.511536	1044.770508	16708.750000	1973.554565	5.929426
564.855774	1037.488770	17031.818359	1989.603882	5.952829
565.199768	1035.779907	17398.279297	2018.953491	6.008701
565.543823	1038.603394	17721.572266	2031.510742	5.951622
565.887817	1041.352661	17959.191406	2048.748779	5.954638
566.231812	1033.253662	17992.107422	2043.250488	5.955573
566.575745	1032.956421	17879.611328	2034.334351	5.944076
566.919617	1035.334106	17639.837891	2014.346680	5.896066
567.263428	1039.420776	17328.359375	1998.966187	5.890779
567.607239	1035.036987	17089.998047	1975.709351	5.859076
567.950989	1036.671509	16870.580078	1964.118164	5.857345
568.294678	1042.467163	16769.976563	1956.910767	5.814294
568.638367	1040.683960	16645.220703	1952.972656	5.846304
568.981995	1036.002808	16579.166016	1947.920044	5.866999
569.325623	1033.253540	16629.023438	1944.056274	5.840063
569.669128	1035.334106	16756.080078	1950.817749	5.823411
570.012573	1041.649780	17006.851563	1953.492798	5.711441
570.356140	1038.083374	17264.533203	1963.003540	5.700077
570.699524	1038.083374	17529.052734	1979.498901	5.708673
571.042908	1035.482666	17823.291016	1994.136353	5.710416
571.386230	1048.114136	18026.953125	2006.990845	5.647481
571.729492	1052.275024	18180.761719	2012.712036	5.607250
572.072815	1056.064575	18149.406250	2018.582031	5.630949
572.416016	1043.804565	18069.976563	2005.950562	5.650982
572.759094	1041.872681	17881.765625	1989.083862	5.624805
573.102234	1037.265991	17669.261719	1980.538940	5.671436
573.445374	1044.250488	17487.591797	1974.891968	5.659686
573.788391	1046.182373	17375.468750	1960.997437	5.602297
574.131409	1047.073975	17301.611328	1954.458862	5.582348
574.474365	1035.854248	17220.322266	1945.914063	5.623044
574.817261	1034.368164	17131.382813	1948.663086	5.679904
575.160156	1036.225708	16973.416016	1938.260742	5.659937
575.502930	1039.123657	16752.291016	1925.406250	5.640382
575.845703	1039.940918	16483.835938	1908.836914	5.626146
576.188477	1037.711792	16213.226563	1888.626465	5.607155
576.531250	1042.987305	15918.690430	1874.137695	5.587302
576.873901	1041.427002	15561.664063	1844.119263	5.528093
577.216431	1039.123657	15240.304688	1823.537476	5.523582
577.559082	1040.758179	14915.973633	1796.491211	5.446640
577.901611	1038.157593	14655.468750	1785.345703	5.487046
578.244080	1037.340332	14346.518555	1765.581177	5.471719
578.586487	1042.838745	14123.536133	1749.903320	5.405404
578.928955	1061.785767	13929.234375	1745.965210	5.317134
579.271301	1069.884888	13784.641602	1729.098511	5.184634
579.613647	1059.482544	13579.120117	1724.789063	5.314104
579.955872	1040.386719	13441.362305	1715.204102	5.441648
580.298157	1035.259888	13337.487305	1721.073853	5.574714
580.640320	1038.529175	13304.942383	1724.863281	5.595231
580.982483	1040.015137	13219.567383	1708.442383	5.488110
581.324524	1042.689941	13137.092773	1689.420898	5.347358
581.666626	1039.940796	13034.778320	1676.417969	5.306259
582.008728	1038.603394	12960.921875	1680.579102	5.384655
582.350647	1030.207397	12930.160156	1681.842163	5.475944
582.692566	1032.956421	12874.656250	1671.068237	5.388684
583.034424	1035.111206	12803.993164	1661.185913	5.319747
583.376343	1039.420776	12700.340820	1657.396484	5.299545
583.718201	1042.021362	12680.874023	1663.935181	5.343429
584.059937	1041.947144	12673.518555	1658.585449	5.301419
584.401611	1036.745850	12627.598633	1660.591431	5.382224
584.743347	1038.974976	12580.043945	1651.377930	5.306293
585.085022	1042.690063	12495.786133	1652.195313	5.321751
585.426514	1046.628052	12467.773438	1648.182983	5.267028
585.768127	1042.244263	12484.195313	1649.891968	5.310700
586.109619	1041.278320	12524.987305	1646.473999	5.270037
586.451172	1039.792236	12578.039063	1649.668945	5.285697
586.792542	1038.009155	12578.411133	1650.486328	5.307243
587.133850	1029.835571	12600.627930	1649.148804	5.352384
587.475220	1031.619019	12683.176758	1647.588501	5.286585
587.816589	1029.538452	12755.547852	1646.994141	5.265693
588.157776	1037.265991	12829.554688	1650.337524	5.198919
588.498962	1042.244263	12868.637695	1652.863892	5.163194
588.840210	1039.940918	12960.475586	1651.452271	5.129899
589.181335	1037.191772	13063.458008	1653.309937	5.123104
589.522400	1033.327881	13113.910156	1654.721558	5.143740
589.863403	1041.723999	13093.328125	1654.275757	5.082740
590.204407	1038.826294	13000.375000	1653.532715	5.139020
590.545410	1035.259766	12904.450195	1644.096313	5.129554
590.886353	1032.584839	12762.086914	1640.307007	5.181142
591.227112	1034.293823	12687.635742	1628.789917	5.101507
591.567932	1036.448608	12609.915039	1626.635132	5.099479
591.908752	1033.105103	12580.268555	1614.895386	5.038383
592.249512	1033.253662	12590.967773	1615.638306	5.038926
592.590149	1033.402222	12616.230469	1604.864380	4.933702
592.930786	1038.083374	12678.793945	1615.341187	4.958957
593.271423	1038.009033	12749.159180	1619.576294	4.965928
593.612000	1040.981079	12902.519531	1625.149292	4.924894
593.952576	1044.473267	13051.421875	1622.622681	4.815124
594.292969	1044.770508	13197.054688	1627.675415	4.796669
594.633484	1044.473267	13357.846680	1640.158203	4.837707
594.973877	1042.912964	13591.528320	1653.532837	4.866034
595.314209	1038.529053	13852.850586	1656.207642	4.820221
595.654480	1037.934570	14163.362305	1666.312866	4.787488
595.994812	1038.009033	14491.928711	1673.000000	4.719747
596.335022	1040.981201	14748.792969	1681.619141	4.673524
596.675171	1033.179321	14817.894531	1689.049438	4.757952
597.015320	1026.863647	14714.242188	1687.860718	4.829245
597.355408	1034.070923	14428.846680	1682.139282	4.838217
597.695496	1045.216431	14053.393555	1654.350098	4.682698
598.035461	1054.355591	13546.872070	1632.282227	4.626183
598.375366	1045.439331	13107.742188	1600.555054	4.602071
598.715271	1042.838745	12713.864258	1584.505493	4.641124
599.055176	1038.900635	12388.343750	1562.957642	4.617469
599.395081	1046.925293	12140.172852	1556.567749	4.594168
599.734802	1040.832520	11946.464844	1547.057007	4.641862
600.074524	1035.408325	11862.950195	1543.639038	4.693870
600.414246	1025.228882	11822.454102	1543.267578	4.797887
600.753906	1030.727295	11840.137695	1540.146851	4.712741
601.093506	1033.179321	11935.617188	1536.431641	4.615962
601.433044	1043.953369	12110.674805	1535.391479	4.440684
601.772583	1046.182495	12336.554688	1541.112671	4.383648
602.112122	1049.600220	12603.301758	1555.007324	4.374417
602.451538	1044.844849	12911.879883	1576.257935	4.478061
602.790894	1042.541504	13257.536133	1592.901733	4.505612
603.130310	1045.587891	13692.952148	1610.883179	4.469669
603.469604	1040.683960	14090.395508	1621.211304	4.448584
603.808838	1038.603394	14461.984375	1642.090210	4.495789
604.148010	1035.482788	14639.046875	1652.195313	4.533463
604.487305	1041.947144	14699.901367	1659.179688	4.519217
604.826416	1042.392822	14588.670898	1650.040405	4.485716
605.165527	1043.061523	14329.206055	1637.483276	4.473997
605.504456	1040.906738	13954.570313	1614.226563	4.439637
605.843445	1043.284546	13515.664063	1596.765503	4.437653
606.182434	1044.176147	13075.049805	1581.310547	4.464633
606.521423	1041.352661	12677.010742	1562.363281	4.477706
606.860229	1038.752075	12336.778320	1543.713379	4.469465
607.199036	1042.912964	12158.823242	1534.276855	4.420366
607.537903	1047.594116	12120.854492	1542.821655	4.472283
607.876648	1054.875732	12236.023438	1542.970215	4.365335
608.215271	1046.553833	12423.340820	1539.329468	4.331413
608.553955	1051.457886	12673.221680	1534.128296	4.153160
608.892578	1053.835449	12836.686523	1549.657593	4.207998
609.231140	1056.584595	12939.819336	1556.864868	4.209967
609.569641	1051.903564	12911.657227	1556.716309	4.256519
609.908081	1042.912964	12817.961914	1538.809570	4.211419
610.246521	1043.433105	12603.895508	1526.846680	4.181611
610.584961	1035.259888	12308.914063	1520.084961	4.300514
610.923340	1033.104980	12033.622070	1510.871460	4.343127
611.261597	1035.185425	11684.252930	1502.772461	4.390873
611.599854	1042.912964	11389.121094	1479.515747	4.219931
611.938110	1047.891235	11089.979492	1465.175415	4.155353
612.276245	1039.792358	10909.050781	1454.624390	4.203274
612.614319	1041.501099	10721.288086	1456.927734	4.291692
612.952393	1040.758179	10538.726563	1444.890747	4.254937
613.290466	1047.296875	10410.331055	1436.271484	4.154365
613.628479	1049.451782	10266.926758	1432.853638	4.159511
613.966370	1045.439331	10197.676758	1425.349121	4.151005
614.304260	1040.238159	10080.650391	1418.141602	4.180157
614.642151	1044.993530	10044.018555	1409.076782	4.045807
614.979980	1047.891357	9968.527344	1415.541016	4.121339
615.317749	1055.692993	9929.444336	1413.460571	4.031751
615.655396	1047.073975	9863.686523	1406.476196	4.076421
615.993164	1047.891235	9864.354492	1401.349243	4.009068
616.330811	1041.278320	9870.669922	1401.052124	4.074729
616.668396	1040.015137	9870.819336	1403.652710	4.117831
617.005859	1040.238037	9878.545898	1402.538086	4.099202
617.343445	1039.494995	9868.664063	1408.853882	4.183393
617.680908	1036.597290	9876.020508	1407.813599	4.199553
618.018311	1033.773804	9866.732422	1405.881836	4.212722
618.355652	1036.002930	9863.166016	1394.736328	4.063972
618.692993	1047.594116	9855.067383	1395.999512	3.955793
619.030273	1051.160645	9823.414063	1393.175903	3.898830
619.367554	1051.532104	9773.111328	1384.482544	3.817548
619.704712	1043.135864	9741.680664	1376.234985	3.829366
620.041870	1041.872681	9720.801758	1375.566284	3.844871
620.379028	1038.603516	9721.321289	1383.739624	3.974978
620.716064	1041.203979	9688.406250	1381.807739	3.938890
621.053040	1038.231812	9651.403320	1379.504395	3.962217
621.389954	1041.649780	9618.041992	1377.646851	3.917697
621.726929	1038.306274	9579.850586	1376.680786	3.961515
622.063843	1045.364990	9558.227539	1384.557007	3.984465
622.400635	1047.668335	9553.695313	1382.253540	3.933507
622.737427	1052.720947	9604.518555	1378.909790	3.814272
623.074219	1053.166748	9610.090820	1378.389771	3.800700
623.410889	1056.510376	9636.691406	1380.916138	3.780873
623.747559	1056.213257	9673.249023	1383.590942	3.799191
624.084167	1051.011963	9763.229492	1378.241211	3.755981
624.420715	1044.993530	9880.924805	1375.863403	3.744595
624.757324	1042.615723	10027.671875	1375.194702	3.701468
625.093750	1044.696289	10204.067383	1382.179199	3.684564
625.430176	1042.838745	10357.501953	1395.850952	3.789855
625.766602	1041.427002	10503.729492	1408.110840	3.875207
626.102905	1037.414673	10698.774414	1408.408081	3.839971
626.439209	1034.070923	10833.188477	1411.677368	3.853474
626.775452	1032.139160	10918.635742	1415.838257	3.881042
627.111694	1032.956421	10878.735352	1420.370728	3.934826
627.447876	1035.557007	10780.582031	1416.581421	3.909938
627.783997	1035.185547	10609.387695	1407.516602	3.888899
628.120056	1037.563232	10408.028320	1400.086304	3.868784
628.456055	1041.055542	10255.039063	1389.386597	3.780461
628.792053	1043.730347	10093.875977	1380.841797	3.724929
629.128052	1042.467163	9939.624023	1377.498047	3.765595
629.463928	1039.940796	9847.191406	1382.030640	3.884184
629.799744	1035.482788	9776.752930	1375.491821	3.889698
630.135559	1036.820190	9721.619141	1369.399048	3.829437
630.471375	1037.786133	9613.880859	1354.612915	3.694301
630.807068	1044.027466	9518.921875	1359.739746	3.725265
631.142700	1040.089478	9420.248047	1358.996704	3.805504
631.478333	1040.981079	9307.902344	1358.179443	3.836959
631.813965	1036.225708	9221.859375	1348.743042	3.817876
632.149475	1033.402222	9172.670898	1346.439575	3.846013
632.484924	1036.448608	9165.388672	1342.872925	3.769548
632.820435	1033.476563	9177.054688	1348.371460	3.866788
633.155884	1044.027466	9204.174805	1345.993896	3.700502
633.491150	1050.789185	9244.967773	1351.269409	3.666996
633.826477	1052.349487	9268.818359	1356.842041	3.705881
634.161804	1049.154419	9286.874023	1347.405640	3.620556
634.497009	1040.609619	9234.490234	1340.495239	3.659873
634.832153	1043.358765	9176.756836	1327.120972	3.488852
635.167297	1048.039917	9076.968750	1335.739990	3.583293
635.502380	1039.495117	8988.176758	1337.597534	3.750338
635.837463	1038.603394	8862.754883	1334.551147	3.782490
636.172424	1039.866577	8758.507813	1331.802002	3.782213
636.507324	1045.662231	8673.875977	1325.263306	3.665354
636.842224	1044.250366	8615.177734	1317.833008	3.613595
637.177124	1032.882202	8509.295898	1303.864136	3.624491
637.511963	1034.962524	8417.235352	1298.068604	3.564025
637.846741	1035.036865	8335.799805	1302.229492	3.659791
638.181396	1035.557007	8283.043945	1301.189087	3.665161
638.516113	1035.705566	8247.602539	1304.755737	3.730644
638.850769	1035.854126	8216.469727	1303.641235	3.729306
639.185303	1035.631348	8177.906250	1305.870361	3.783655
639.519836	1035.036865	8105.312500	1299.183105	3.736011
639.854370	1037.637573	8015.554688	1296.359497	3.707724
640.188843	1042.838745	7955.963379	1291.009766	3.589853
640.523254	1043.284546	7906.403809	1293.610352	3.647406
640.857605	1043.656128	7861.896973	1289.969604	3.612566
641.191895	1044.919067	7791.457520	1288.111938	3.604706
641.526184	1046.330933	7741.972168	1285.734253	3.575510
641.860413	1045.959351	7711.730469	1288.334839	3.636121
642.194580	1044.547729	7711.433594	1290.861206	3.694581
642.528748	1034.516724	7683.570313	1297.176880	3.950339
642.862793	1040.461060	7676.065918	1293.090332	3.807178
643.196838	1044.547607	7636.313965	1292.347290	3.759230
643.530823	1051.755005	7627.396973	1284.768433	3.543584
643.864746	1043.656128	7587.422363	1284.396851	3.678932
644.198669	1037.117310	7562.457031	1281.350464	3.742842
644.532532	1037.265991	7545.218750	1276.817871	3.680910
644.866333	1041.278320	7541.875000	1280.755981	3.683933
645.200073	1043.210205	7563.125000	1281.276001	3.651363
645.533813	1040.906738	7572.338379	1283.802368	3.718873
645.867554	1048.634155	7600.573730	1277.709595	3.496300
646.201172	1050.120239	7613.428223	1275.554810	3.434771
646.534729	1053.389648	7642.926270	1273.622925	3.342166
646.868225	1042.838745	7628.511719	1274.737427	3.521260
647.201782	1036.300049	7623.384766	1273.697266	3.603980
647.535217	1034.739746	7627.471191	1273.622925	3.623433
647.868591	1037.711792	7633.639160	1267.827271	3.488751
648.201965	1032.733521	7614.097168	1274.143066	3.668078
648.535278	1026.566406	7566.766113	1277.858276	3.842266
648.868591	1025.600464	7535.039063	1288.557739	4.039631
649.201782	1032.807861	7525.007813	1290.638184	3.971386
649.534912	1035.557007	7524.041504	1278.898438	3.750359
649.868103	1034.665405	7511.931152	1280.755981	3.799297
650.201172	1036.968750	7535.410156	1279.790039	3.736608
650.534180	1039.940796	7531.992188	1292.792969	3.894796
650.867188	1045.810791	7554.506348	1290.563843	3.760401
651.200134	1047.148315	7552.128906	1282.910767	3.624338
651.533020	1043.061646	7543.732422	1279.046997	3.630169
651.865845	1038.974976	7520.029785	1272.582642	3.604470
652.198608	1036.968872	7484.290527	1278.898438	3.752404
652.531433	1041.501221	7453.974609	1278.304077	3.692847
652.864136	1039.940796	7412.885254	1278.378296	3.741403
653.196777	1098.491333	7429.900391	1335.665771	3.745998
653.529358	1101.909302	7387.845215	1345.473755	3.874752
653.861938	1096.856689	7332.563965	1354.835815	4.137127
654.194519	1034.442505	7231.066406	1292.718750	4.168015
654.526978	1037.043091	7215.388184	1281.350464	3.954252
654.859375	1039.123535	7213.233887	1276.000732	3.836621
655.191833	1044.919312	7186.931152	1286.997437	3.941349
655.524170	1034.368286	7158.918457	1293.684692	4.234048
655.856445	1036.151489	7130.089355	1293.610229	4.224833
656.188660	1038.529175	7141.978027	1286.997314	4.070947
656.520874	1042.467285	7162.336426	1284.916870	3.961679
656.853088	1049.971802	7237.902344	1285.511353	3.806435
657.185181	1042.244263	7300.910645	1292.198608	3.993732
657.517212	1044.027466	7432.203613	1288.260620	3.823206
657.849243	1038.008911	7591.731934	1297.176880	3.954515
658.181274	1040.535278	7798.516113	1307.950806	3.957033
658.513123	1040.683960	7975.431152	1319.913452	4.026527
658.844971	1038.974976	8160.890625	1331.058960	4.101200
659.176819	1043.507446	8300.208008	1332.619263	3.984067
659.508667	1039.940918	8378.894531	1342.427246	4.121655
659.840393	1048.411499	8345.756836	1335.814331	3.938457
660.172058	1042.615845	8230.140625	1330.316040	4.002771
660.503662	1044.919067	8040.148438	1322.885742	3.973660
660.835266	1044.844971	7839.829590	1322.811401	4.090759
661.166931	1044.919312	7663.062500	1317.833130	4.123722
661.498413	1043.358765	7507.695801	1308.991089	4.109197
661.829773	1032.287720	7347.053223	1303.492676	4.294775
662.161194	1035.779907	7180.688965	1300.669067	4.310709
662.492615	1033.253784	7037.062500	1306.762085	4.555580
662.823975	1037.860474	6950.201660	1300.297607	4.438802
663.155212	1034.070923	6855.020020	1298.588623	4.544237
663.486450	1037.488892	6785.695801	1290.563965	4.402678
663.817627	1040.312378	6696.384277	1285.437134	4.333834
664.148743	1045.587891	6647.715332	1278.155396	4.151414
664.479858	1048.857300	6583.740723	1270.576538	4.005852
664.810913	1046.033813	6550.156250	1278.749756	4.228030
665.141907	1045.439331	6512.039063	1277.560913	4.246179
665.472778	1041.649902	6498.292969	1286.774536	4.492224
665.803711	1041.278320	6485.066895	1285.362793	4.483724
666.134583	1040.015259	6481.648926	1294.799316	4.682124
666.465454	1039.420776	6480.162598	1294.056152	4.680159
666.796143	1039.643677	6467.457031	1282.019043	4.465433
667.126831	1039.197876	6473.253418	1282.613525	4.479447
667.457458	1040.758301	6463.742188	1279.492920	4.402274
667.788147	1038.752075	6474.218750	1295.839478	4.729813
668.118774	1039.272217	6466.416504	1289.449341	4.609738
668.449219	1041.649902	6485.958984	1294.947876	4.652527
668.779663	1051.383423	6501.414063	1296.359619	4.494951
669.110107	1048.114136	6525.191406	1298.811523	4.577211
669.440552	1047.668457	6534.998535	1296.879761	4.541577
669.770874	1029.092773	6492.571777	1294.724976	4.861961
670.101135	1031.098755	6426.962402	1300.372070	4.990366
670.431396	1027.383667	6346.343750	1294.204834	5.016416
670.761597	1036.299927	6284.672363	1291.084106	4.854537
671.091797	1036.002808	6232.957520	1285.882813	4.808201
671.421875	1039.569336	6186.221191	1293.610352	4.936044
671.751892	1045.216431	6161.850098	1290.935425	4.802356
672.081909	1041.501221	6126.333496	1292.347290	4.933222
672.411865	1036.225708	6124.178223	1289.820923	4.984229
672.741821	1028.349731	6111.027344	1291.307007	5.173597
673.071716	1030.281616	6111.473145	1289.820923	5.107843
673.401550	1028.423950	6069.046875	1292.793091	5.244771
673.731262	1034.145386	6043.709473	1296.136719	5.229823
674.060974	1036.151489	6026.395996	1296.879761	5.224759
674.390625	1045.216431	6020.229004	1300.817749	5.137702
674.720276	1040.386597	6001.133301	1295.319336	5.138999
675.049927	1036.671509	5957.220703	1297.251221	5.295744
675.379395	1022.033875	5942.657715	1291.232788	5.470829
675.708923	1020.324890	5919.028809	1289.598022	5.496824
676.038330	1023.891418	5927.202637	1286.997437	5.365885
676.367737	1037.563110	5924.230469	1287.666260	5.118072
676.697083	1037.934692	5940.725098	1292.867554	5.199750
677.026428	1040.535278	5957.740234	1296.359497	5.202635
677.355652	1038.603394	5976.167969	1301.783691	5.330164
677.684875	1042.244263	6013.616699	1310.179810	5.389569
678.013977	1042.541504	6035.089844	1313.003418	5.417312
678.343079	1043.581665	6093.863281	1309.808228	5.271519
678.672180	1048.411499	6137.999512	1313.894897	5.216206
679.001221	1038.826416	6219.212402	1314.786621	5.327020
679.330139	1036.522949	6286.901855	1318.353149	5.367807
679.659058	1035.111206	6365.291504	1319.542114	5.336235
679.987976	1041.352661	6446.281250	1330.241577	5.344916
680.316772	1039.643677	6465.005371	1334.254028	5.430243
680.645630	1032.064819	6463.890625	1329.424316	5.474393
680.974304	1029.761353	6433.798340	1319.393433	5.359550
681.302979	1031.841797	6428.299316	1326.229370	5.455200
681.631653	1040.312378	6398.652832	1326.303589	5.337309
681.960266	1039.866577	6349.019043	1330.167236	5.467928
682.288757	1037.117310	6271.149902	1327.789551	5.553504
682.617249	1035.928589	6213.416016	1328.161133	5.644293
682.945679	1034.962524	6117.416504	1328.681152	5.779071
683.274109	1038.826294	6031.597656	1323.554321	5.702805
683.602478	1042.244263	5904.540527	1322.959961	5.773315
683.930725	1051.680786	5827.265625	1318.798950	5.593412
684.259033	1054.207153	5738.177246	1316.495605	5.599704
684.587280	1051.309204	5683.044434	1308.322388	5.548961
684.915344	1051.978027	5630.363281	1311.591675	5.670419
685.243469	1048.782837	5592.171387	1314.192261	5.841662
685.571533	1045.142090	5589.942871	1319.839233	6.044207
685.899536	1041.649780	5559.849609	1319.839233	6.157086
686.227539	1045.959351	5559.923828	1317.312988	6.011426
686.555420	1050.343262	5546.400879	1316.049805	5.909767
686.883301	1044.473511	5566.462891	1312.854736	5.935026
687.211121	1040.015259	5582.810059	1321.845337	6.203892
687.538940	1039.643799	5582.958496	1333.807983	6.474660
687.866638	1045.216431	5578.053223	1344.804810	6.609291
688.194336	1051.086304	5570.400391	1347.554199	6.560020
688.521973	1051.977905	5520.915527	1339.826660	6.441101
688.849609	1048.782837	5476.854004	1330.687378	6.366305
689.177063	1046.702393	5405.002930	1317.684448	6.217608
689.504578	1046.182251	5370.823730	1323.554321	6.413759
689.832031	1049.451660	5325.424805	1324.371704	6.429415
690.159485	1045.067749	5287.084473	1328.384033	6.678811
690.486816	1043.656006	5237.599121	1317.833130	6.537454
690.814087	1042.838623	5176.373535	1304.681519	6.334599
691.141296	1047.296753	5118.343262	1293.090210	6.037599
691.468506	1043.804565	5067.445313	1293.610352	6.208452
691.795715	1033.922363	5031.705566	1303.715454	6.748567
692.122803	1024.560181	4990.245605	1310.031250	7.198530
692.449829	1030.504517	4953.613770	1309.882690	7.121346
692.776855	1037.043091	4921.886719	1305.275879	6.904596
693.103821	1038.083374	4904.351563	1299.851685	6.770568
693.430664	1031.841797	4884.141113	1294.279053	6.812483
693.757568	1031.767578	4875.298828	1296.731079	6.893752
694.084351	1033.699341	4876.338867	1303.418335	7.019107
694.411133	1034.739746	4881.911621	1311.517334	7.194313
694.737854	1040.386719	4859.398438	1312.186035	7.117007
695.064575	1042.392944	4842.977051	1315.306763	7.180839
695.391174	1049.451660	4842.977051	1319.393433	7.115855
695.717773	1048.634399	4876.116211	1324.371704	7.204144
696.044250	1048.931519	4928.201660	1327.789673	7.188418
696.370789	1045.959351	4988.535645	1327.715332	7.146494
696.697205	1039.717896	5069.376953	1326.377930	7.113754
697.023621	1041.426880	5186.775391	1330.836060	6.981540
697.349915	1041.426880	5325.572754	1340.718384	6.986025
697.676208	1046.033691	5516.753906	1359.442505	7.010253
698.002380	1046.182373	5721.384277	1377.275269	7.081895
698.328674	1042.021362	5930.620605	1394.662109	7.213534
698.654724	1042.764404	6085.541504	1412.346069	7.328931
698.980896	1043.210205	6170.543457	1418.364624	7.316755
699.306946	1041.204102	6173.441406	1426.463501	7.506656
699.632935	1034.368164	6095.498047	1427.057983	7.758936
699.958862	1036.671509	5942.806152	1424.160156	7.898043
700.284729	1038.454712	5752.516113	1407.219238	7.822650
700.610596	1045.959473	5570.771973	1392.135742	7.650621
700.936340	1040.683960	5387.615723	1373.857422	7.664567
701.262146	1042.021362	5199.779297	1365.684082	7.784550
701.587830	1041.129761	5039.582520	1345.696533	7.617116
701.913513	1048.411377	4912.747559	1335.294189	7.423858
702.239075	1045.216309	4794.977051	1330.984741	7.620978
702.564697	1038.974976	4682.631836	1331.133301	8.018272
702.890137	1040.015259	4592.577148	1333.139526	8.251067
703.215698	1046.851074	4548.812988	1321.473999	7.841973
703.541016	1050.046021	4515.005371	1321.028076	7.820642
703.866455	1039.792236	4462.398926	1317.461548	8.112803
704.191711	1032.584839	4412.467285	1318.353149	8.454978
704.517029	1033.327881	4353.173340	1313.597778	8.442257
704.842163	1041.203979	4327.167480	1318.873413	8.450169
705.167419	1043.061646	4294.028320	1316.272827	8.403998
705.492493	1041.129761	4281.471191	1314.415161	8.433846
705.817566	1032.659302	4255.539551	1305.276001	8.458791
706.142578	1028.201050	4273.149414	1301.486572	8.421876
706.467590	1033.996582	4268.765625	1307.207886	8.446084
706.792480	1030.801636	4303.910645	1303.195435	8.322173
707.117371	1040.238159	4317.879883	1313.449219	8.335599
707.442200	1030.430176	4346.114746	1315.752563	8.605233
707.766907	1036.448730	4333.558105	1325.411987	8.764139
708.091675	1033.922485	4327.613770	1320.582153	8.703295
708.416321	1035.557007	4330.214355	1321.473877	8.678198
708.741028	1037.265991	4341.730957	1332.990845	8.949251
709.065552	1033.476440	4363.501465	1339.380737	9.186247
709.390137	1038.083374	4363.872559	1346.439575	9.271670
709.714600	1031.841919	4371.006348	1337.003174	9.138850
710.039063	1030.875854	4384.083496	1335.071289	9.071774
710.363403	1028.275391	4416.553711	1332.916504	8.991030
710.687744	1030.727295	4477.110352	1340.718262	8.994676
711.012085	1031.767578	4537.666992	1354.538574	9.206511
711.336304	1028.721069	4584.997559	1361.968872	9.370695
711.660461	1031.619019	4587.227051	1366.129883	9.407980
711.984619	1038.008911	4565.902344	1363.083374	9.214407
712.308716	1045.439331	4517.531250	1362.637695	9.135656
712.632751	1050.268921	4484.392578	1364.718018	9.156604
712.956726	1044.473511	4409.198242	1369.399048	9.656824
713.280701	1046.405273	4374.870117	1372.222656	9.788818
713.604553	1040.015137	4317.434082	1360.854370	9.789388
713.928467	1044.993408	4319.737305	1354.464233	9.450230
714.252258	1036.745850	4304.653809	1345.845215	9.458632
714.575989	1037.043091	4307.849121	1349.931763	9.566103
714.899719	1039.420776	4284.145996	1350.823364	9.597195
715.223267	1045.067749	4293.210938	1351.492188	9.433834
715.546936	1051.011963	4290.610840	1356.173218	9.419724
715.870422	1049.526001	4291.576660	1357.807861	9.508854
716.193970	1045.885132	4265.199219	1358.476563	9.709877
716.517395	1038.083374	4252.790527	1357.807983	9.945684
716.840820	1037.191772	4227.527832	1361.597290	10.168381
717.164124	1039.866577	4182.797363	1356.619019	10.078251
717.487488	1042.467163	4122.463379	1351.640625	10.038112
717.810730	1033.996704	4070.971680	1342.947388	10.172974
718.133972	1035.111328	4009.820557	1346.662476	10.473331
718.457092	1038.231934	3930.762695	1342.130005	10.506304
718.780212	1047.668457	3864.930420	1328.904175	9.982591
719.103210	1045.290649	3819.903076	1319.021851	9.865565
719.426208	1044.919189	3776.584717	1321.622437	10.129470
719.749207	1034.888306	3745.674561	1330.835938	10.917410
720.072083	1034.591187	3703.916016	1331.727661	11.131522
720.394958	1029.092651	3690.764648	1325.263428	11.127246
720.717773	1032.807861	3649.155273	1307.579346	10.502103
721.040527	1038.454834	3633.105713	1301.114990	10.123140
721.363281	1040.015137	3599.743896	1292.867310	9.878084
721.685913	1040.609619	3595.360107	1306.910522	10.423754
722.008545	1038.974854	3579.013672	1309.511108	10.650871
722.331055	1039.049194	3563.558594	1311.740356	10.801749
722.653503	1038.529175	3537.775391	1308.768188	10.812821
722.976013	1031.990356	3536.140625	1309.436890	11.079468
723.298401	1037.340210	3539.558594	1307.059204	10.779196
723.620789	1042.690063	3534.803467	1310.997314	10.766254
723.943115	1047.668335	3513.107178	1314.712280	10.831497
724.265381	1044.101929	3499.361084	1323.331421	11.372709
724.587585	1039.643677	3487.769531	1314.712280	11.235885
724.909790	1036.745972	3494.679688	1307.653564	11.021762
725.231873	1036.820190	3517.416260	1314.786743	11.205635
725.553894	1041.798462	3534.580078	1325.486206	11.380368
725.875916	1067.730103	3545.948486	1363.157715	11.920968
726.197937	1062.380249	3546.766357	1359.516846	11.960161
726.519775	1054.281250	3561.775391	1354.241333	11.962543
726.841675	1023.520020	3571.286133	1331.281860	12.079674
727.163513	1025.228882	3606.282471	1331.504761	11.866312
727.485291	1033.253540	3637.861084	1332.396362	11.485141
727.806946	1039.717896	3672.337891	1327.120972	10.916998
728.128662	1037.191772	3680.882568	1332.099243	11.155142
728.450256	1028.721191	3692.399414	1337.077515	11.576335
728.771790	1029.612915	3689.055664	1351.640747	12.108846
729.093323	1032.733521	3677.835938	1354.835815	12.177308
729.414795	1039.049316	3668.176758	1363.454956	12.338909
729.736145	1033.773804	3655.842529	1355.058716	12.253107
730.057495	1035.334106	3650.715576	1351.714966	12.096931
730.378845	1031.990601	3643.210938	1347.776978	12.093441
730.700134	1037.637573	3651.607178	1346.439575	11.813526
731.021301	1036.820190	3688.238281	1356.470581	12.055828
731.342468	1040.460938	3714.764404	1370.290894	12.333303
731.663574	1039.792358	3724.423828	1376.309204	12.534937
731.984680	1043.507446	3713.501221	1368.061646	12.155617
732.305664	1044.101929	3712.535400	1364.272339	11.998440
732.626648	1045.216431	3713.204102	1368.061890	12.100710
732.947571	1045.290649	3712.684326	1371.776855	12.239897
733.268433	1039.569458	3700.275635	1375.046265	12.608563
733.589233	1037.934692	3691.582031	1382.179199	12.972504
733.909973	1033.699341	3663.050049	1390.055298	13.553002
734.230713	1040.906860	3626.492920	1377.423828	13.015115
734.551331	1045.662231	3580.499756	1365.981079	12.636662
734.871948	1046.479492	3526.852783	1358.030884	12.560665
735.192505	1044.993408	3480.042236	1361.894531	13.014159
735.513062	1036.894409	3439.101563	1352.532349	13.139498
735.833435	1041.501343	3413.541260	1344.284790	12.764686
736.153931	1037.563354	3376.538330	1337.300415	12.814889
736.474304	1046.999634	3361.752197	1331.950562	12.310212
736.794617	1046.851074	3355.288086	1334.551147	12.462981
737.114807	1049.897461	3361.009521	1339.678101	12.538580
737.434998	1043.953247	3351.201172	1352.978149	13.393658
737.755188	1043.061523	3344.885498	1351.640869	13.405862
738.075256	1041.724121	3351.126953	1352.903931	13.474471
738.395325	1041.352661	3370.000000	1347.108398	13.130186
738.715271	1041.426880	3396.154541	1362.488892	13.634784
739.035278	1046.330933	3416.587891	1363.826538	13.394987
739.355164	1049.080078	3430.184814	1374.526001	13.667854
739.675049	1040.089478	3409.529053	1371.554077	13.989157
739.994873	1039.643677	3384.191650	1360.334351	13.678145
740.314636	1040.535278	3347.114502	1348.000000	13.329902
740.634277	1047.073853	3319.548584	1333.213745	12.591555
740.953979	1040.015137	3290.942139	1332.842163	13.009174
741.273499	1036.002808	3258.174561	1332.024780	13.321291
741.593140	1040.535278	3216.193115	1319.913452	12.841090
741.912598	1036.820190	3186.026367	1317.758667	13.071733
742.232117	1033.996582	3144.416748	1319.690674	13.537309
742.551453	1029.612793	3117.518799	1322.662842	14.035596
742.870850	1035.185425	3078.807373	1324.297485	14.147042
743.190063	1041.798462	3054.658936	1327.863892	14.211885
743.509338	1037.711792	3048.566406	1329.721558	14.521675
743.828552	1042.021484	3035.489014	1331.950562	14.543958
744.147705	1041.724243	3030.287842	1326.154907	14.303323
744.466797	1051.086304	3007.328369	1331.727661	14.345942
744.785828	1047.296875	3000.418213	1323.703003	14.152020
745.104858	1042.169922	2992.764893	1316.495605	14.063693
745.423706	1041.947144	2983.699951	1310.922852	13.852212
745.742615	1043.581787	2977.012451	1312.483276	13.907997
746.061401	1045.587891	2963.192383	1309.585571	13.767056
746.380249	1034.962524	2965.867188	1310.997192	14.295613
746.698975	1029.612793	2963.638428	1314.935181	14.752771
747.017639	1031.990479	2949.074951	1318.204590	14.929656
747.336304	1036.597290	2939.118164	1323.925903	15.102521
747.654907	1041.203979	2930.796143	1329.052856	15.233386
747.973389	1039.643677	2941.942139	1331.876343	15.362082
748.291931	1041.575562	2943.130859	1325.783447	14.946075
748.610352	1042.541504	2942.685303	1321.250977	14.667809
748.928711	1043.284546	2941.644531	1325.634888	14.873383
749.247070	1041.352661	2939.044189	1327.566772	15.082225
749.565308	1047.965576	2937.557861	1332.396362	15.052495
749.883545	1055.098633	2931.390869	1331.430542	14.727551
750.201782	1052.721069	2917.273438	1331.950562	14.975685
750.519836	1050.046021	2900.406982	1323.703003	14.789384
750.837952	1038.008911	2887.032471	1314.563843	14.956809
751.155884	1040.981079	2869.422607	1313.820801	14.921983
751.473877	1031.172974	2868.976563	1314.712402	15.428168
751.791809	1033.922363	2871.428711	1310.477173	15.050550
752.109619	1030.207153	2889.632813	1309.362549	15.012990
752.427490	1039.049316	2879.750732	1308.990967	14.665152
752.745300	1044.250488	2887.032227	1315.975464	14.745370
753.062988	1054.281372	2877.001221	1317.387207	14.434793
753.380615	1049.897583	2888.741211	1316.644165	14.506213
753.698303	1046.330933	2881.533936	1319.244751	14.871042
754.015808	1044.027588	2872.246094	1318.278931	15.001016
754.333374	1037.637573	2866.227539	1315.604004	15.201135
754.650757	1037.711792	2860.580811	1315.678345	15.248850
754.968262	1037.860474	2868.307861	1315.158203	15.149178
755.285583	1042.541382	2858.574219	1313.449097	14.917556
755.602905	1045.067749	2853.298828	1311.220093	14.718934
755.920105	1045.364990	2852.927002	1310.922974	14.691501
756.237305	1044.844849	2858.053955	1316.421265	14.977667
756.554443	1044.473267	2863.180908	1319.318970	15.112144
756.871582	1039.717896	2871.057373	1324.743164	15.563759
757.188599	1043.061523	2864.666992	1327.343872	15.606143
757.505615	1042.541504	2872.246094	1331.801880	15.809130
757.822510	1039.346436	2880.493408	1332.619263	15.928811
758.139465	1038.529175	2903.007080	1340.421021	16.191763
758.456238	1037.563232	2926.858398	1338.935059	15.951548
758.773010	1039.420776	2952.938721	1351.269409	16.297136
759.089783	1038.974976	2989.718750	1351.863647	16.039455
759.406433	1043.953247	2999.303467	1358.699585	16.096674
759.723145	1047.965698	2997.223389	1359.293945	15.971631
760.039673	1049.005737	2986.821045	1369.324829	16.529909
760.356201	1045.959473	2993.507813	1377.646851	17.031021
760.672668	1042.838745	2997.743164	1370.885254	16.780693
760.989136	1043.284668	3001.755615	1359.516968	16.146898
761.305481	1042.764404	2988.158203	1357.213501	16.163776
761.621826	1042.764404	2982.510986	1357.287842	16.214666
761.938049	1042.690063	2988.158203	1362.860474	16.457243
762.254333	1041.055298	3030.213623	1358.179565	15.942636
762.570496	1039.049194	3105.333740	1373.040039	16.163836
762.886597	1032.733398	3237.444092	1393.101685	16.345377
763.202637	1033.105103	3412.649658	1441.621460	17.167839
763.518677	1037.414673	3635.037842	1482.413574	17.131004
763.834656	1043.061646	3847.469482	1525.360352	17.197882
764.150574	1044.399048	3981.363037	1545.347778	17.056686
764.466370	1037.340210	4001.499023	1548.988770	17.261173
764.782288	1034.962524	3898.441162	1535.985840	17.497017
765.097961	1033.773804	3755.333984	1513.397827	17.623129
765.413696	1034.739624	3593.725586	1486.351563	17.648083
765.729309	1039.643677	3438.209717	1456.110352	17.363153
766.044861	1035.928589	3303.127686	1436.791626	17.680981
766.360474	1040.089478	3198.955078	1424.606079	17.811049
766.675903	1034.516846	3122.274414	1413.906372	18.172106
766.991394	1033.550903	3062.015381	1394.810669	17.809519
767.306763	1037.340454	2999.897705	1383.962524	17.661757
767.622131	1040.981323	2953.607422	1379.355591	17.691607
767.937378	1045.513550	2905.458984	1373.783081	17.649418
768.252625	1048.931519	2870.313721	1370.662231	17.664097
768.567810	1048.337158	2817.707764	1357.659302	17.482044
768.882996	1046.628174	2791.627686	1354.092896	17.619761
769.197998	1042.764282	2762.129150	1349.560425	17.843575
769.513062	1042.987305	2750.612305	1347.702759	17.844400
769.828064	1047.296875	2713.758545	1343.913208	17.799170
770.142944	1052.795288	2685.523193	1333.659546	17.202147
770.457825	1057.327759	2668.359131	1324.223022	16.566732
770.772705	1056.733276	2654.538818	1315.678223	16.206287
771.087402	1050.789063	2640.792725	1313.003418	16.491430
771.402100	1043.879028	2618.873535	1310.402832	16.922205
771.716736	1042.541504	2595.691406	1311.145874	17.294168
772.031372	1044.027588	2571.988525	1312.111694	17.545219
772.345947	1042.838745	2561.809326	1322.811279	18.431728
772.660461	1038.974976	2550.069336	1326.080688	18.999853
772.974854	1036.002930	2543.604980	1326.303589	19.255789
773.289246	1041.501221	2530.973389	1317.981567	18.562304
773.603638	1041.352539	2529.487549	1309.065308	17.989817
773.917908	1042.838745	2525.995361	1301.040527	17.408936
774.232178	1046.628052	2518.565186	1297.474121	17.041901
774.546265	1047.296875	2510.391602	1298.885864	17.195673
774.860474	1046.479614	2496.571533	1297.474243	17.308878
775.174561	1038.306274	2481.710938	1299.851929	18.120050
775.488586	1037.043091	2461.277344	1296.210938	18.196997
775.802551	1037.711792	2448.274658	1301.263672	18.684164
776.116516	1035.482788	2433.488525	1302.600952	19.107086
776.430359	1036.597290	2426.578369	1305.350098	19.334997
776.744202	1033.922485	2420.782715	1304.384277	19.501734
777.057922	1038.974976	2428.658936	1289.449341	18.023836
777.371704	1042.392944	2423.754639	1294.502075	18.250769
777.685303	1042.318604	2426.875488	1288.780762	17.800797
777.998962	1041.501343	2407.185303	1301.189331	19.015234
778.312500	1035.482788	2398.566162	1294.650757	19.013361
778.626038	1039.197876	2384.151367	1299.034424	19.319370
778.939453	1035.557007	2387.792236	1299.851685	19.545023
779.252869	1040.163696	2399.606445	1293.833374	18.659828
779.566223	1042.764282	2401.984131	1288.409180	18.072493
779.879578	1047.371094	2394.628174	1287.666138	17.835871
780.192749	1042.318481	2381.996582	1293.610352	18.757631
780.505920	1036.448608	2366.467285	1295.022095	19.441343
780.819031	1032.510620	2363.792480	1288.260620	19.210808
781.132141	1044.027710	2353.241455	1293.313232	19.040857
781.445190	1044.770508	2355.990967	1302.749634	19.674732
781.758118	1044.993530	2344.176514	1304.607178	19.982840
782.071045	1033.104980	2345.216797	1291.381348	19.684021
782.383911	1037.637573	2327.086914	1281.944946	18.946644
782.696838	1044.027466	2323.446045	1280.830200	18.508621
783.009583	1048.931519	2307.545410	1281.424683	18.472158
783.322266	1042.913086	2300.412354	1278.824097	18.760330
783.634888	1038.009155	2284.437256	1277.858154	19.242907
783.947510	1039.718018	2273.886475	1287.591797	20.084274
784.260132	1040.683960	2267.718994	1286.997437	20.073875
784.572571	1037.488892	2261.700439	1288.260620	20.484346
784.885010	1032.213379	2260.214355	1280.087280	20.185156
785.197449	1030.430054	2250.332275	1276.297852	20.154713
785.509766	1034.293945	2245.427979	1273.177124	19.723927
785.822083	1040.163696	2245.502441	1266.266968	18.758484
786.134277	1046.776733	2250.406250	1267.975952	18.377684
786.446533	1043.061646	2257.093506	1272.954224	18.936289
786.758606	1036.745850	2247.508545	1278.452637	19.963184
787.070740	1032.510620	2254.641846	1276.074951	19.929474
787.382690	1043.135864	2255.384766	1272.582642	18.927364
787.694641	1040.163696	2275.298096	1282.613525	19.629429
788.006653	1036.745972	2305.390625	1292.347168	20.147579
788.318481	1024.634521	2350.343750	1309.734131	21.505440
788.630310	1031.173218	2378.653076	1313.672241	20.964991
788.942017	1033.699341	2397.228760	1311.220093	20.353119
789.253784	1044.993408	2414.689697	1302.155151	18.775093
789.565430	1045.736450	2428.138672	1303.195435	18.624029
789.877014	1047.371216	2404.213135	1308.322266	19.232237
790.188538	1042.170044	2355.396240	1309.511108	20.357580
790.500061	1040.609619	2319.210938	1304.012695	20.600876
790.811462	1036.820190	2297.811768	1301.783569	21.012304
791.122925	1041.872681	2275.818115	1288.632080	19.997595
791.434204	1045.142090	2238.518066	1283.876831	20.004990
791.745483	1047.296753	2220.759521	1275.480347	19.445320
792.056702	1039.346558	2210.357422	1275.183228	20.139580
792.367920	1034.665405	2191.930176	1274.737427	20.744780
792.678955	1031.173218	2166.667236	1273.251343	21.319189
792.990112	1037.191650	2158.716797	1273.177124	21.041479
793.301086	1044.027588	2164.364014	1262.328979	19.485342
793.612122	1045.810913	2159.088623	1258.836792	19.135017
793.922974	1042.392944	2154.407471	1254.601440	19.083248
794.233826	1041.649902	2154.481689	1261.734497	19.776987
794.544556	1054.429932	2154.259033	1268.050293	19.423050
794.855286	1052.275024	2144.079346	1273.623047	20.273598
795.166016	1050.714844	2141.404541	1269.387695	20.049044
795.476624	1038.900757	2145.788330	1267.232910	20.628305
795.787292	1040.609741	2166.518799	1267.010010	20.108219
796.097778	1040.981079	2190.592773	1276.595093	20.495096
796.408264	1045.885132	2217.118896	1288.186157	20.687674
796.718689	1046.479492	2231.756592	1295.913696	21.044378
797.029053	1048.485596	2240.970215	1300.669067	21.147734
797.339355	1040.535156	2235.249023	1294.130493	21.226450
797.649658	1041.947021	2227.447021	1290.118042	20.933868
797.959839	1041.278320	2205.230713	1279.492920	20.466009
798.270020	1057.996338	2181.676514	1273.251465	19.156263
798.580078	1061.711548	2159.237061	1266.564209	18.664957
798.890137	1061.488647	2148.091797	1265.895386	18.811535
799.200195	1051.011963	2132.488037	1269.907715	20.240461
799.510071	1048.262695	2125.057861	1279.864258	21.508413
799.820007	1043.210205	2113.838135	1279.938721	22.111185
800.129883	1038.231934	2126.172607	1272.136841	21.499784
800.439575	1036.820190	2128.921631	1262.403198	20.655867
800.749329	1046.776733	2119.039307	1257.722168	19.672928
801.058960	1045.364868	2086.494873	1253.412476	19.982866
801.368591	1044.399048	2068.364990	1254.898560	20.557276
801.678162	1031.841919	2071.262451	1255.344604	21.502625
801.987671	1035.036987	2084.785889	1252.669556	20.731869
802.297119	1032.882202	2085.157227	1249.994751	20.632681
802.606506	1034.442505	2063.014893	1245.239380	20.494122
802.915894	1034.219604	2054.172852	1253.115479	21.461363
803.225159	1037.340210	2044.439087	1248.954468	21.012262
803.534424	1038.008911	2053.727295	1252.892578	21.155830
803.843628	1041.501099	2053.058594	1250.589233	20.669922
804.152771	1045.885132	2053.058594	1249.623169	20.228693
804.461792	1050.937622	2053.653076	1254.378540	20.288998
804.770874	1054.652710	2053.355713	1252.000854	19.760445
805.079773	1051.531982	2055.882080	1257.499390	20.507530
805.388733	1049.823120	2053.727051	1253.709717	20.309374
805.697571	1039.717896	2048.971924	1262.774536	22.101139
806.006470	1038.454834	2052.241211	1263.517700	22.200226
806.315125	1031.916138	2058.259766	1268.644653	23.065229
806.623901	1036.374268	2068.067627	1265.523926	22.211023
806.932495	1041.203979	2067.473389	1267.901611	22.089485
807.241150	1041.129639	2054.544678	1258.836670	21.482513
807.549622	1040.609497	2049.343506	1254.378540	21.191814
807.858154	1034.591064	2042.730469	1249.771729	21.344336
808.166565	1042.244263	2039.683960	1251.480591	20.977341
808.474915	1043.507446	2027.721313	1252.966797	21.281895
808.783264	1041.798462	2002.458374	1252.669556	21.950649
809.091492	1042.764404	1987.375000	1247.394165	21.662870
809.399719	1042.690063	1973.777466	1247.542603	22.001431
809.707825	1043.581665	1974.966431	1250.589111	22.225771
810.015930	1039.569336	1965.455688	1255.641724	23.336815
810.323975	1041.278320	1960.625977	1252.223755	22.945122
810.632080	1039.049316	1951.709595	1246.130859	22.689882
810.939880	1042.170044	1948.588867	1244.421997	22.313301
811.247864	1042.467163	1947.994507	1248.508667	22.753757
811.555664	1039.792236	1941.084351	1242.564453	22.497946
811.863464	1038.677734	1936.254517	1241.301270	22.574507
812.171143	1025.972046	1919.090820	1230.453003	22.895159
812.478882	1024.040039	1908.836914	1230.230103	23.303661
812.786438	1025.229004	1904.601685	1240.706909	24.503593
813.094055	1037.934692	1903.709961	1250.886353	24.596643
813.401489	1045.365112	1909.134155	1255.493042	24.326864
813.708984	1039.123535	1910.025757	1242.192993	23.317137
814.016357	1037.043091	1915.078247	1243.010132	23.457722
814.323730	1037.043091	1908.465332	1238.626343	23.132673
814.630981	1040.906860	1901.332397	1241.969849	23.367855
814.938232	1040.832520	1903.635742	1232.905151	22.261465
815.245361	1040.238037	1913.369507	1230.155762	21.751331
815.552490	1042.838745	1902.075562	1225.400391	21.246954
815.859619	1042.838745	1893.827759	1230.898804	22.098999
816.166565	1050.789185	1887.437866	1239.963745	22.610991
816.473572	1051.086304	1899.177612	1245.090698	22.875414
816.780457	1050.789063	1909.431274	1242.118530	22.282793
817.087341	1039.717896	1913.517944	1237.734741	22.661573
817.394043	1041.501099	1930.979126	1237.586182	22.044960
817.700806	1044.473267	1932.167847	1233.425171	21.285688
818.007507	1052.423706	1936.031616	1236.322998	20.812319
818.314209	1043.358887	1933.951172	1236.545776	21.691956
818.620667	1035.036987	1940.489868	1247.319702	23.444921
818.927246	1030.430176	1954.310059	1252.000854	23.982628
819.233704	1032.956421	1975.560669	1253.858398	23.435284
819.540161	1037.414551	2020.365234	1262.477539	22.896671
819.846497	1043.284546	2085.008789	1279.418579	22.667614
820.152832	1043.061646	2165.924316	1305.350220	23.358919
820.458984	1044.547607	2253.601807	1322.068359	22.953541
820.765259	1036.225708	2345.142578	1338.860718	23.121025
821.071350	1040.683960	2449.314697	1355.207397	22.328310
821.377502	1040.386719	2608.471436	1395.182251	22.626043
821.683472	1039.123535	2936.295166	1476.469360	23.052517
821.989441	1032.064819	3585.998047	1633.173828	23.536600
822.295349	1027.755249	4592.650879	1883.276733	23.998501
822.601196	1025.377563	5876.304688	2190.369873	24.015869
822.907043	1034.368164	7065.445313	2474.652100	23.881041
823.212769	1037.414551	7838.862793	2646.068604	23.651640
823.518494	1046.628052	7880.323730	2650.303711	23.467180
823.824097	1040.981079	7282.187012	2513.661133	23.596081
824.129700	1038.826294	6311.273438	2288.523682	23.702415
824.435242	1032.733521	5327.876465	2060.265869	23.923122
824.740723	1031.618896	4521.171875	1866.484375	23.924711
825.046082	1039.866577	3935.220703	1719.439087	23.471138
825.351501	1039.272095	3509.466064	1616.678589	23.374947
825.656799	1038.677734	3216.862061	1555.973267	23.748932
825.962036	1037.637573	3020.182617	1522.016968	24.432201
826.267212	1034.888306	2937.112061	1507.527954	24.846691
826.572449	1041.203979	2942.164795	1506.784790	24.491867
826.877502	1038.083374	3060.305908	1534.202515	24.533360
827.182495	1046.553833	3303.721924	1589.483765	24.053591
827.487488	1042.021362	3642.468018	1662.226196	23.849934
827.792419	1041.129761	3914.862061	1724.789063	23.789944
828.097290	1035.185547	4027.430420	1753.544067	24.007343
828.402100	1039.272217	3897.697998	1732.367798	24.247458
828.706848	1039.940918	3617.056641	1665.569702	24.276318
829.011597	1043.358887	3244.725342	1577.669556	24.271772
829.316223	1042.912964	2889.707031	1493.113281	24.377398
829.620789	1044.399048	2609.065918	1428.766968	24.565479
829.925354	1043.804565	2398.120361	1380.841797	24.886162
830.229797	1041.278320	2258.282471	1339.826538	24.531404
830.534302	1034.219604	2140.289795	1311.442993	25.063816
830.838562	1032.733521	2062.717773	1284.619751	24.455347
831.142944	1028.126831	2006.024902	1264.632324	24.185087
831.447144	1031.098877	1972.885864	1251.034790	23.353043
831.751404	1035.631226	1947.697266	1245.982300	23.063141
832.055542	1043.358765	1929.121460	1250.960571	23.437634
832.359619	1044.399048	1937.369141	1258.465210	23.972378
832.663635	1042.244263	1959.957153	1267.084351	24.500048
832.967651	1038.380493	2005.727661	1279.715820	24.948160
833.271545	1033.327881	2102.246826	1294.204712	24.405670
833.575439	1034.591064	2262.369385	1332.544922	24.267725
833.879211	1040.758179	2479.036133	1385.968750	24.001659
834.183044	1041.352661	2693.548096	1441.473022	24.217495
834.486694	1040.238159	2851.886963	1490.884277	24.874916
834.790344	1038.008911	2914.969971	1506.413452	24.955475
835.093933	1045.439331	2860.134766	1493.856323	24.710318
835.397522	1046.405151	2725.572510	1448.308594	23.934687
835.700928	1048.188599	2548.211914	1409.448364	24.083611
836.004395	1042.095703	2377.984375	1377.126831	25.079269
836.307739	1044.696167	2221.874268	1339.158081	25.014219
836.611023	1042.169922	2093.256348	1302.006714	24.720783
836.914307	1047.742554	1994.656616	1272.880005	23.775911
837.217529	1046.628052	1925.629395	1256.607544	23.888416
837.520691	1047.445435	1873.914673	1238.106201	23.069311
837.823730	1051.829346	1821.457031	1222.131104	22.127811
838.126831	1051.977905	1774.720581	1217.152832	22.853905
838.429749	1055.321533	1743.513306	1208.533813	22.263021
838.732727	1051.977905	1718.473267	1213.512085	24.236355
839.035522	1052.646606	1698.337280	1208.385132	24.119680
839.338379	1041.426880	1685.259888	1205.933105	25.551071
839.641113	1039.420776	1693.804810	1194.044678	23.628923
839.943848	1035.557129	1727.389648	1200.360474	23.821278
840.246460	1042.318604	1774.869141	1217.078613	23.856377
840.549072	1035.185425	1826.806641	1227.480957	24.291357
840.851563	1031.247437	1861.877563	1240.484009	25.190102
841.154053	1025.749023	1872.280151	1246.056641	26.024752
841.456482	1024.560303	1844.490845	1241.598511	26.470316
841.758850	1033.253662	1790.026978	1216.929932	24.270975
842.061157	1033.848022	1726.572388	1195.233521	23.297216
842.363403	1040.386597	1679.092896	1191.146851	23.604004
842.665588	1034.293823	1646.473999	1189.363647	25.330750
842.967712	1038.380493	1613.780884	1182.230713	25.000021
843.269775	1043.581665	1581.013306	1166.775757	22.922747
843.571777	1046.033813	1554.338745	1158.973755	22.218935
843.873840	1037.786133	1538.214844	1159.048096	24.231615
844.175659	1036.448608	1528.927124	1166.552612	26.418209
844.477600	1037.265991	1521.125366	1166.775635	26.765968
844.779297	1043.804688	1506.041992	1164.620972	26.137285
845.081116	1036.151489	1493.633301	1153.624023	25.678078
845.382751	1031.841919	1484.716919	1146.193848	25.250219
845.684387	1032.510620	1477.881226	1140.918335	24.341013
845.985962	1039.495117	1473.200073	1139.803833	23.128330
846.287537	1047.891235	1457.076294	1140.546875	22.643946
846.588989	1051.383667	1453.807007	1138.986450	21.768812
846.890381	1050.343384	1444.073242	1141.215454	23.079802
847.191711	1047.817017	1440.952637	1136.460083	22.547707
847.493042	1050.566284	1443.478882	1137.351929	22.087774
847.794250	1048.188477	1442.364380	1137.128906	22.563639
848.095459	1042.392822	1437.832031	1136.162964	23.712910
848.396606	1038.083374	1424.903320	1133.933838	24.779091
848.697693	1038.157593	1423.342773	1125.834839	22.762362
848.998657	1044.919189	1425.126343	1124.274536	20.871609
849.299622	1051.160645	1420.147827	1122.416870	19.311300
849.600464	1055.247192	1404.767212	1125.686279	20.153091
849.901367	1048.411499	1396.222290	1124.794556	21.961094
850.202087	1038.231934	1391.392700	1117.141479	22.343803
850.502808	1035.928589	1387.900513	1109.265259	20.835943
850.803467	1042.987427	1391.467163	1109.488281	19.083134
851.104065	1048.262817	1396.742554	1113.872070	18.827280
851.404663	1054.652954	1406.253296	1123.382813	19.547722
851.705139	1060.151245	1404.990112	1126.652100	19.284616
852.005615	1060.522827	1405.138672	1126.429199	19.124592
852.306030	1047.668335	1402.240845	1125.389038	21.919552
852.606384	1035.482788	1400.829102	1124.051636	24.242435
852.906616	1033.625122	1393.176147	1124.125854	25.170485
853.206909	1037.860352	1390.946899	1126.503540	25.105230
853.506958	1035.482788	1385.002808	1125.240356	25.680237
853.807129	1032.436401	1374.674683	1130.441528	28.636518
854.107178	1036.300171	1371.925415	1129.104126	27.651066
854.407166	1040.386719	1371.108032	1127.469360	26.331125
854.707092	1037.488892	1376.829468	1117.958862	23.713631
855.007019	1038.380493	1362.191895	1115.655396	23.864170
855.306763	1042.838745	1357.956543	1116.918579	23.508615
855.606567	1049.600220	1350.006226	1115.432495	21.914434
855.906250	1045.587769	1356.098999	1109.413940	20.555189
856.205933	1041.203979	1354.167114	1110.602783	22.174753
856.505493	1037.860474	1355.430176	1110.082642	22.742147
856.805054	1042.318604	1351.937866	1111.345825	22.294228
857.104492	1043.433105	1350.823364	1107.705078	20.908916
857.403931	1045.662231	1352.532349	1107.704956	20.217911
857.703308	1039.569336	1353.424072	1103.320923	20.312450
858.002563	1041.798340	1347.182739	1105.773071	20.948919
858.301819	1036.374268	1345.399414	1109.265259	23.587399
858.601013	1040.238159	1343.690430	1120.262207	26.371214
858.900208	1037.711914	1343.021606	1119.593384	26.819151
859.199219	1033.848022	1339.306519	1117.735840	27.462919
859.498291	1036.448608	1345.547852	1110.602661	23.990370
859.797302	1029.687012	1356.098999	1111.122925	24.948812
860.096191	1037.414673	1351.046387	1118.701782	25.918013
860.395020	1034.888306	1345.622437	1117.958618	26.733566
860.693787	1041.055542	1342.353027	1108.002075	22.219414
860.992554	1040.535278	1351.789551	1097.451172	18.285980
861.291260	1035.036987	1343.096069	1095.370728	19.585119
861.589844	1038.157593	1336.260254	1101.389282	21.211380
861.888428	1038.380493	1324.520264	1104.509888	23.110872
862.186890	1042.987305	1332.024780	1108.150757	22.544983
862.485413	1039.940918	1324.148804	1104.955688	22.875780
862.783813	1046.108032	1328.755615	1109.042358	22.266005
863.082153	1044.993530	1324.074585	1110.454224	23.455799
863.380371	1044.027588	1329.052734	1116.026855	25.260672
863.678589	1035.705566	1330.984741	1108.002075	24.484121
863.976746	1043.433228	1334.402710	1101.092041	19.816103
864.274902	1045.587891	1330.316040	1098.640015	18.632553
864.572937	1043.358887	1327.492432	1106.441772	22.201843
864.870911	1035.854126	1320.507935	1108.150757	25.398090
865.168884	1038.009033	1322.960083	1109.488159	25.084703
865.466736	1046.628174	1327.046753	1103.098267	20.137785
865.764587	1049.005859	1337.820435	1109.116821	20.812994
866.062317	1049.897339	1334.402466	1104.064087	19.038935
866.360107	1048.114136	1328.383911	1107.853638	21.315001
866.657715	1046.702393	1323.851440	1102.503784	20.134073
866.955322	1043.581665	1328.532593	1104.732788	21.460230
867.252808	1045.067749	1328.904175	1105.104370	21.151838
867.550293	1041.278320	1321.845337	1108.968140	24.126080
867.847717	1037.934692	1320.433716	1118.330444	28.458771
868.145081	1031.767578	1319.393433	1119.519165	30.508936
868.442383	1035.482666	1322.959961	1118.627441	28.922207
868.739624	1034.739624	1322.365356	1112.757446	27.124771
869.036804	1038.380493	1321.696655	1114.986694	27.039122
869.333984	1042.467163	1318.055908	1110.974243	24.858446
869.631042	1043.804688	1315.158081	1104.807129	22.480810
869.928101	1039.569458	1316.347046	1094.033203	19.677801
870.224976	1034.442505	1311.814575	1097.971313	22.903824
870.521851	1038.008911	1314.489380	1108.968140	25.665186
870.818726	1046.033691	1320.953735	1109.711182	23.162186
871.115479	1041.872681	1324.966187	1104.138550	21.994806
871.412231	1040.609741	1317.387207	1102.206543	22.254992
871.708862	1030.578735	1301.412109	1103.023926	26.748989
872.005493	1031.173096	1300.074707	1105.178589	27.521402
872.302063	1031.693237	1311.294434	1104.286987	25.963318
872.598572	1031.841919	1314.935181	1104.881470	25.800526
872.895020	1032.213379	1325.114624	1113.129028	27.625574
873.191406	1033.030762	1324.074341	1115.135254	28.210377
873.487671	1039.049194	1331.578979	1117.364380	26.771696
873.783997	1038.603394	1327.789673	1113.426147	25.873549
874.080200	1036.968750	1324.817505	1113.129028	26.458435
874.376343	1036.671509	1321.028076	1112.906128	26.809515
874.672424	1045.290649	1323.925903	1108.150757	22.559998
874.968445	1045.885132	1328.161011	1108.299438	22.111101
875.264465	1044.547729	1332.990845	1109.785400	22.617170
875.560364	1041.798462	1328.235474	1103.023804	21.374802
875.856201	1042.467163	1323.777222	1096.485229	19.202324
876.152039	1047.371094	1317.981567	1098.491455	18.890755
876.447754	1043.953247	1317.833130	1109.562622	23.955528
876.743469	1041.872681	1317.981689	1110.231323	24.757845
877.039063	1039.643677	1318.353149	1108.893799	24.846706
877.334595	1044.547607	1314.043579	1107.853516	23.490484
877.630127	1044.770508	1315.901123	1112.460327	24.965761
877.925537	1041.352661	1322.068237	1118.181641	27.368977
878.221008	1040.609619	1322.588379	1116.918579	27.061953
878.516296	1039.940918	1330.018677	1108.076538	23.488743
878.811646	1037.265991	1339.380737	1104.361328	22.208561
879.106812	1040.832520	1358.179321	1112.534668	22.594255
879.401978	1040.312378	1376.086304	1129.921387	26.687304
879.697083	1042.244263	1393.027344	1135.642700	26.625696
879.992126	1033.848145	1425.349121	1141.438477	27.481497
880.287109	1035.482788	1460.420044	1148.645874	26.630541
880.582031	1034.665405	1532.047852	1166.404175	26.486414
880.876892	1040.832520	1653.978516	1195.976563	25.302954
881.171753	1044.101807	1886.174438	1255.121582	25.059570
881.466492	1052.572266	2248.028809	1360.111328	25.725658
881.761230	1055.544434	2738.278076	1498.463013	26.321371
882.055786	1049.154419	3237.592529	1626.263672	26.370831
882.350403	1040.758179	3593.948242	1728.578491	26.939646
882.644958	1030.281616	3671.371826	1751.909546	27.323107
882.939453	1030.652954	3486.209229	1712.157593	27.753576
883.233826	1036.299927	3143.302490	1608.059570	27.136164
883.528137	1044.176025	2769.857178	1505.670410	26.742737
883.822449	1049.228638	2453.178955	1413.015015	25.911627
884.116577	1045.439209	2190.592773	1336.706055	25.434742
884.410828	1043.804565	1993.913574	1281.647583	25.033236
884.704956	1046.033691	1829.630249	1251.109253	26.171064
884.999023	1044.176147	1721.742676	1225.846313	26.812151
885.292969	1045.736450	1640.678345	1195.233521	25.128012
885.586914	1045.364868	1586.957642	1172.051147	23.391428
885.880798	1051.977905	1544.679321	1163.952148	22.726593
886.174622	1053.761108	1508.345337	1163.283325	24.092833
886.468384	1050.343262	1477.509644	1153.549805	24.160736
886.762085	1043.135864	1457.893555	1148.125732	25.313543
887.055664	1035.259766	1439.763794	1137.946167	25.385756
887.349304	1030.430176	1428.395508	1135.122681	26.306940
887.642822	1034.591064	1405.213013	1127.023560	24.939833
887.936340	1034.665405	1384.036743	1122.713989	25.202005
888.229736	1042.541504	1367.615845	1114.466431	22.125685
888.523071	1038.826294	1358.550903	1109.116699	21.984671
888.816284	1043.433105	1351.046387	1107.333496	20.772963
889.109619	1042.392944	1330.910278	1101.834961	20.602581
889.402710	1040.461060	1306.762085	1097.005249	21.233185
889.695862	1038.157715	1294.947876	1094.181885	21.817101
889.988892	1032.362061	1283.653809	1094.850586	24.866922
890.281921	1030.281494	1269.239136	1092.695801	26.119402
>>>>>End Processed Spectral Data<<<<<
