Jaz Data File
++++++++++++++++++++++++++++++++++++
Date: Fri Jun 04 13:52:54 2021
User: jaz
Dark Spectrum Present: Yes
Reference Spectrum Present: Yes
Processed Spectrum Present: Yes
Spectrometers: JAZA3586
Integration Time (usec): 35500 (JAZA3586)
Spectra Averaged: 10 (JAZA3586)
Boxcar Smoothing: 1 (JAZA3586)
Correct for Electrical Dark: No (JAZA3586)
Strobe/Lamp Enabled: Yes (JAZA3586)
Correct for Detector Non-linearity: No (JAZA3586)
Correct for Stray Light: No (JAZA3586)
Number of Pixels in Processed Spectrum: 2048
>>>>>Begin Processed Spectral Data<<<<<
W	D	R	S	P
191.335022	0.000000	0.000000	0.000000	0.000000
191.713211	271.353546	272.765289	278.263672	489.474701
192.091385	547.833984	552.217834	554.149658	144.066833
192.469528	828.698242	830.110046	836.945801	584.185730
192.847641	839.026306	838.283264	842.741455	-499.991791
193.225739	849.428711	847.273926	854.778503	-248.274979
193.603790	860.648438	858.790833	863.100403	-131.996063
193.981842	871.199402	870.233582	871.273682	-7.690849
194.359863	869.862000	870.605042	876.103333	839.970459
194.737854	871.050781	879.075500	878.406738	91.666222
195.115829	871.050781	874.617371	876.251953	145.830414
195.493774	873.577087	877.292236	873.354187	-5.999770
195.871704	873.502747	867.484192	869.341858	69.134354
196.249603	877.663757	871.422302	876.103455	24.999022
196.627457	879.075500	872.685486	883.682312	-72.093910
197.005310	874.543030	876.623474	883.905273	450.011749
197.383133	868.078796	881.750305	878.183899	73.913589
197.760910	879.372742	875.434570	875.434753	99.995354
198.138687	886.951599	871.422302	876.549133	66.986069
198.516449	885.539856	862.357422	877.143616	36.218113
198.894180	875.211731	859.905457	872.834167	15.533260
199.271866	874.468750	863.100403	867.781494	58.823467
199.649536	881.453186	861.763000	872.091064	47.547146
200.027191	885.911377	869.267578	866.889832	114.286079
200.404816	876.326355	868.895996	869.044617	97.999817
200.782410	873.948547	884.722473	870.010559	-36.551098
201.159988	868.821777	893.564514	869.341858	2.101953
201.537537	865.923889	907.830627	867.261414	3.191669
201.915070	863.323303	905.230042	856.264648	-16.843723
202.292557	861.911560	911.471497	856.190247	-11.544230
202.670029	863.249023	913.551941	857.527771	-11.373600
203.047485	858.493652	916.226868	855.298645	-5.534089
203.424911	857.156189	913.626221	857.527771	0.658016
203.802292	863.843445	905.007141	854.852844	-21.841091
204.179688	863.992004	900.400391	855.521545	-23.265131
204.557037	866.369690	898.096985	856.041687	-32.552422
204.934357	863.249023	900.326111	855.744446	-20.240473
205.311661	869.713318	903.892578	852.995300	-48.912754
205.688934	863.769104	908.722351	854.184082	-21.322201
206.066177	864.215027	908.499329	853.886902	-23.322317
206.443390	855.001404	912.883240	856.041687	1.797253
206.820587	858.567871	905.824524	858.419434	-0.314109
207.197769	857.973450	907.236267	861.614441	7.390952
207.574921	863.843445	896.908203	857.676270	-18.651808
207.952042	858.642273	897.948425	852.326477	-16.068213
208.329147	851.063416	899.062927	855.224304	8.668606
208.706223	852.623718	922.096741	873.205566	29.625669
209.083267	848.537109	921.427979	877.069275	39.143677
209.460297	848.759949	921.799500	871.347961	30.925728
209.837280	846.456543	900.474609	855.893005	17.469086
210.214264	853.515381	902.406494	854.778503	2.583542
210.591217	860.945618	898.468445	862.877502	5.148559
210.968124	860.276917	900.251709	871.496582	28.066851
211.345016	860.276917	903.818176	869.936279	22.184389
211.721893	855.818787	903.743958	863.992004	17.054123
212.098724	852.549377	903.149597	859.831116	14.390724
212.475555	851.360535	893.044434	863.620605	29.412006
212.852356	849.577332	891.855469	862.060242	29.525686
213.229126	854.481262	895.496399	861.985901	18.297241
213.605865	851.955017	900.474609	856.487488	9.341527
213.982590	857.081848	907.533447	848.908630	-16.200117
214.359283	851.880676	910.654114	854.406982	4.298381
214.735931	851.583435	913.180481	848.611328	-4.825080
215.112579	849.428711	910.951355	849.948914	0.845547
215.489197	849.057129	908.573669	840.215149	-14.856340
215.865799	858.567932	906.939026	848.016907	-21.812666
216.242355	865.255188	909.911133	853.961121	-25.291296
216.618896	867.781494	907.087646	860.574036	-18.336718
216.995407	864.586426	911.397217	858.196472	-13.650599
217.371902	855.744446	908.796570	863.769226	15.126219
217.748367	853.515320	907.236145	859.905457	11.895083
218.124802	853.441101	905.601563	860.648438	13.817624
218.501236	859.088074	907.013367	854.258362	-10.077584
218.877609	860.574158	909.019531	847.051025	-27.914186
219.253983	852.549500	910.654114	848.537109	-6.905459
219.630295	851.657715	910.133972	851.732117	0.127234
220.006592	846.307922	917.415710	857.379089	15.569556
220.382889	853.812500	923.285645	855.224365	2.032246
220.759140	850.023132	918.455872	854.407043	6.406160
221.135391	854.035461	911.991638	848.165527	-10.128228
221.511581	848.091309	913.254822	849.131409	1.596139
221.887772	845.787903	923.285645	846.159363	0.479317
222.263931	840.066589	934.876770	862.877441	24.059496
222.640060	845.490662	927.743713	859.608154	17.163488
223.016159	848.165527	925.737610	863.323303	19.540247
223.392212	853.812561	920.759338	850.840515	-4.439416
223.768265	848.685730	930.418701	855.595886	8.454552
224.144302	848.759949	938.666321	853.069580	4.793466
224.520294	844.450378	940.672546	861.094238	17.297323
224.896286	848.388428	941.266846	862.506042	15.200103
225.272217	849.428711	938.443359	859.013733	10.767916
225.648148	853.292480	945.947937	851.211975	-2.245421
226.024048	852.326477	948.177063	849.205750	-3.255825
226.399902	854.778503	952.858093	854.035461	-0.757591
226.775772	853.366760	953.824036	858.790833	5.399382
227.151581	853.738281	959.916931	855.075684	1.259578
227.527374	854.184082	970.764954	852.549377	-1.402207
227.903137	854.258362	989.563538	849.057190	-3.844030
228.278870	852.475098	1011.780090	854.332703	1.166068
228.654572	849.800232	1037.117310	849.131531	-0.356989
229.030273	847.868347	1065.649536	846.382324	-0.682347
229.405930	846.902405	1084.151001	850.617615	1.565957
229.781555	845.193542	1090.912598	860.054016	6.047750
230.157181	849.800232	1079.024170	865.849609	7.001615
230.532761	848.611328	1069.216187	857.899231	4.210199
230.908325	847.719727	1061.414429	862.060242	6.710749
231.283859	847.868347	1055.544434	868.673157	10.017913
231.659332	855.224304	1042.244263	868.078674	6.873261
232.034821	854.629883	1037.488892	860.648438	3.291363
232.410263	854.852783	1031.321777	846.605225	-4.673659
232.785690	849.280090	1029.612671	851.955078	1.483364
233.161087	853.812500	1026.640625	858.642273	2.794553
233.536469	851.880676	1029.612793	867.707214	8.904715
233.911804	852.475098	1036.522827	860.797058	4.521632
234.287140	851.063416	1041.872681	853.589661	1.323964
234.662430	857.453369	1056.733276	860.351257	1.454180
235.037704	866.072510	1061.340210	869.267578	1.636250
235.412933	867.112793	1065.872437	870.456360	1.682216
235.788162	862.951843	1061.117065	859.608154	-1.687324
236.163345	857.602051	1066.541260	854.704163	-1.386953
236.538513	858.122131	1063.123291	866.815613	4.240699
236.913635	860.499817	1074.343018	862.951843	1.146647
237.288742	859.385254	1084.596802	859.905457	0.230984
237.663834	854.704163	1099.457397	846.382324	-3.400093
238.038879	853.961121	1096.856812	851.063416	-1.192983
238.413910	854.035461	1095.890747	854.035461	0.000000
238.788910	858.196472	1099.085815	853.515381	-1.943254
239.163879	854.184082	1112.683228	853.366760	-0.316180
239.538834	857.602051	1129.549805	850.097412	-2.759588
239.913757	858.419373	1144.038940	852.029297	-2.237268
240.288651	851.211975	1162.986206	855.521484	1.382253
240.663528	846.753845	1184.756836	862.951843	4.792265
241.038361	842.518555	1231.270508	861.688660	4.931192
241.413177	852.549500	1291.604248	871.199402	4.247740
241.787979	850.171692	1352.978271	876.177734	5.172176
242.162735	844.673340	1402.389648	884.053772	7.061015
242.537476	835.979797	1439.912476	876.846436	6.766754
242.912170	834.865295	1474.091675	867.038391	5.033130
243.286865	836.871582	1479.961548	869.118958	5.014442
243.661514	838.580566	1464.506470	867.038391	4.546516
244.036148	838.431885	1433.002319	863.694824	4.248940
244.410751	842.369934	1407.813599	858.419250	2.838358
244.785339	850.691895	1388.346313	854.629883	0.732439
245.159882	851.434875	1400.309082	862.283020	1.976435
245.534378	855.595886	1450.537720	867.558411	2.010705
245.908890	849.428711	1523.874512	871.942383	3.338099
246.283356	859.979736	1633.991211	875.508972	2.006331
246.657791	855.521484	1747.822876	876.549255	2.356577
247.032196	860.128235	1857.642212	884.945374	2.487899
247.406586	852.029297	1928.006958	893.936035	3.894759
247.780960	856.784668	1950.669312	895.570740	3.545719
248.155289	856.561829	1930.904785	889.180664	3.036166
248.529602	860.722717	1853.555664	879.669922	1.908398
248.903870	856.413147	1757.259399	878.258118	2.424939
249.278122	857.007568	1672.479980	882.642029	3.143510
249.652344	859.979675	1611.254517	882.121887	2.947285
250.026550	858.567871	1568.456177	877.366516	2.648113
250.400711	859.682434	1529.595825	876.772156	2.551034
250.774857	852.177917	1515.849976	873.428528	3.201975
251.148987	852.029297	1526.995239	872.016785	2.961259
251.523071	851.880676	1554.561523	868.895996	2.421486
251.897125	857.304871	1585.099976	873.577087	2.235824
252.271164	859.533875	1610.437134	880.933044	2.849791
252.645187	860.425476	1618.387573	884.128113	3.127153
253.019165	857.973450	1605.681763	885.242676	3.647041
253.393112	867.484192	1576.703735	881.824707	2.022013
253.767044	856.710388	1549.286133	876.920715	2.918140
254.140930	855.001282	1523.577271	873.205566	2.722845
254.514801	841.998352	1499.057251	870.679260	4.365044
254.888657	843.187256	1485.608521	867.781494	3.828366
255.262466	848.388489	1492.072876	866.221130	2.770401
255.636276	849.948914	1505.521606	868.450195	2.822156
256.010010	858.270752	1538.437866	874.988831	2.457937
256.383759	850.097351	1575.217773	877.143616	3.729900
256.757446	850.097412	1627.006714	883.979492	4.361137
257.131134	843.484436	1678.795776	886.654358	5.168124
257.504791	846.976746	1736.603149	895.124939	5.412181
257.878418	849.874512	1819.004883	895.496399	4.707508
258.252014	858.790833	1925.183594	904.189758	4.257242
258.625580	856.413147	2068.662109	908.945129	4.333432
258.999115	845.193420	2249.366211	911.471436	4.720075
259.372650	838.506165	2445.302490	910.208252	4.462425
259.746124	837.391602	2622.291504	907.161926	3.908921
260.119598	850.023132	2734.042969	917.341309	3.573114
260.493042	848.314148	2765.175781	918.307373	3.651449
260.866425	849.502991	2698.154541	920.016296	3.814310
261.239838	854.778564	2575.109375	910.951355	3.265232
261.613159	857.156189	2406.665039	912.437317	3.567655
261.986511	866.444031	2265.192627	908.870789	3.033194
262.359802	863.694885	2155.819092	908.499329	3.467503
262.733063	871.868164	2096.674316	899.508789	2.256735
263.106293	866.741211	2066.878662	896.685242	2.495050
263.479523	863.026123	2040.947266	892.598633	2.510568
263.852692	858.196472	2024.229126	898.468445	3.453760
264.225861	850.246094	2006.396484	899.434387	4.254489
264.598969	856.338867	2011.820435	896.982422	3.517456
264.972076	851.657898	2043.176270	897.131042	3.816403
265.345154	853.441101	2101.281006	901.217773	3.828750
265.718201	844.450439	2160.351807	903.743958	4.505924
266.091217	850.246094	2224.920654	905.378601	4.010586
266.464203	852.475159	2274.852295	909.911133	4.038027
266.837158	848.537109	2345.068115	912.511719	4.274860
267.210114	844.227539	2398.417725	912.214539	4.374433
267.583038	841.255371	2442.181885	902.406555	3.819737
267.955902	843.187256	2446.416992	906.864746	3.971826
268.328766	845.119141	2441.216064	906.418945	3.840607
268.701569	846.753723	2450.206787	909.093811	3.887865
269.074371	854.332703	2472.719971	906.493225	3.222994
269.447144	846.084961	2516.781738	909.168152	3.775861
269.819885	853.961121	2597.028809	917.787170	3.661708
270.192596	851.137634	2728.544678	914.220703	3.360117
270.565277	856.561768	2884.431641	923.062683	3.279348
270.937927	850.394714	3046.708252	924.548645	3.376291
271.310577	852.772278	3170.348389	942.752930	3.882533
271.683136	850.840515	3280.836670	935.471191	3.482749
272.055725	851.955017	3310.260498	940.003723	3.581683
272.428284	854.184082	3291.982422	938.071777	3.441125
272.800812	862.580261	3222.806641	945.576416	3.516449
273.173279	861.911560	3124.800781	938.146179	3.368906
273.545776	856.338867	3066.993408	925.886230	3.146008
273.918152	853.218079	2999.675049	918.753113	3.053172
274.290558	853.738281	2993.582031	929.378418	3.534844
274.662964	852.029297	2968.393555	938.220459	4.072605
275.035278	849.502991	2981.991211	939.780823	4.233450
275.407593	850.171692	3012.232422	933.390808	3.849065
275.779907	856.264465	3076.207031	933.390808	3.474249
276.152161	857.453369	3147.388916	931.236023	3.222041
276.524384	853.812500	3201.481201	926.703430	3.104822
276.896606	851.211914	3234.026123	937.254578	3.610968
277.268799	854.778503	3246.063232	941.192627	3.613711
277.640930	857.379089	3250.966797	938.517639	3.389830
278.013031	853.738281	3262.557861	928.041016	3.084612
278.385162	846.679504	3274.149414	933.836609	3.590450
278.757233	842.518555	3295.251221	941.118225	4.019992
279.129272	839.546448	3323.858154	948.102722	4.369672
279.501282	841.849792	3370.371338	943.718811	4.028798
279.873230	842.295654	3436.129150	945.204895	3.967458
280.245178	842.592773	3536.438232	942.827148	3.720866
280.617126	846.828064	3684.151611	950.108826	3.640077
280.988983	849.428711	3826.515869	959.991150	3.713779
281.360870	852.177917	3967.468018	977.006531	4.006966
281.732697	849.428711	4072.309326	982.802063	4.138328
282.104492	851.286316	4119.491211	984.139465	4.065019
282.476288	853.143860	4130.339844	976.560608	3.765925
282.848053	852.475098	4098.835449	976.040527	3.806276
283.219757	853.738281	4112.507324	966.083984	3.447489
283.591461	852.623718	4101.881348	963.632019	3.416420
283.963135	846.679504	4120.160156	964.672180	3.604502
284.334747	842.072754	4179.973633	979.086914	4.104800
284.706360	843.261536	4275.304199	985.997070	4.158909
285.077942	856.041687	4402.064453	985.179688	3.641770
285.449524	858.345032	4495.389160	987.706055	3.556762
285.821014	855.372864	4541.382324	988.969177	3.624416
286.192535	854.035461	4594.880371	989.935120	3.632860
286.563995	856.636047	4609.518066	991.569824	3.595471
286.935425	861.688660	4594.880371	991.346863	3.473119
287.306824	854.109802	4487.364258	993.353027	3.832466
287.678223	853.812561	4381.780762	991.124023	3.892083
288.049561	849.948792	4314.387207	994.021790	4.158625
288.420898	850.840515	4303.242188	989.786560	4.024620
288.792145	851.360596	4352.430176	985.402649	3.828603
289.163452	855.224365	4446.126465	969.947754	3.194835
289.534668	855.893066	4582.546387	975.966248	3.222011
289.905914	855.967285	4720.229004	982.133362	3.264946
290.277039	853.738281	4856.500000	1000.040344	3.655028
290.648193	849.280090	4915.496094	1008.956726	3.926910
291.019318	849.280090	4921.440918	1011.185730	3.975915
291.390381	850.171692	4841.565918	1011.557190	4.043336
291.761475	853.218079	4759.535156	1002.269348	3.815647
292.132507	845.862244	4684.043457	994.244690	3.865957
292.503510	849.725891	4670.371582	989.712219	3.663944
292.874481	850.023193	4704.997070	995.656494	3.777802
293.245422	853.961243	4813.850586	1005.092957	3.816564
293.616364	853.515442	4969.217285	1008.362305	3.762344
293.987213	857.304749	5155.494629	1009.996887	3.552475
294.358093	857.899231	5309.969727	1014.380798	3.514805
294.728943	853.366699	5451.888184	1012.151672	3.452957
295.099731	846.159363	5578.054199	1013.414856	3.534641
295.470490	847.125305	5698.052734	1017.352844	3.509175
295.841248	846.382324	5826.447754	1028.201050	3.650930
296.211975	853.143799	5961.604004	1034.814087	3.556263
296.582642	850.394592	6119.200684	1039.569336	3.590467
296.953308	853.515320	6189.639160	1035.631226	3.412887
297.323883	858.122131	6196.400879	1034.145142	3.297374
297.694519	860.945618	6066.668457	1030.504517	3.257164
298.065063	861.168457	5914.645020	1037.711914	3.493505
298.435608	852.029236	5713.730469	1035.557007	3.774970
298.806122	851.509094	5482.055176	1026.417847	3.777282
299.176575	851.360535	5256.843750	1009.699707	3.594138
299.547028	853.738281	5102.293457	1002.492371	3.501287
299.917450	851.063293	5059.197754	1004.126953	3.637328
300.287872	846.605225	5044.337402	1001.823547	3.697671
300.658234	843.781677	5027.916504	998.554260	3.699034
301.028564	845.639221	4980.065918	993.650330	3.579967
301.398865	846.382263	4945.812012	996.845276	3.670340
301.769135	851.583496	4880.945801	999.743103	3.676999
302.139374	852.623718	4828.116699	1000.486084	3.719347
302.509583	850.097473	4773.429688	995.284973	3.700617
302.879791	847.199707	4712.724121	987.854675	3.638703
303.249939	849.577332	4651.721680	979.086975	3.406226
303.620087	856.561768	4590.793457	977.452332	3.237361
303.990173	855.150085	4576.676270	975.594727	3.236431
304.360260	852.623779	4570.137207	974.108643	3.267906
304.730286	851.732117	4584.403809	976.560730	3.344216
305.100281	849.800232	4562.409668	981.316101	3.542411
305.470276	849.502991	4572.440918	984.585266	3.628378
305.840179	854.927185	4589.679199	982.207703	3.408005
306.210144	855.298645	4624.229980	983.545105	3.402727
306.579987	856.859070	4651.276855	985.551270	3.391619
306.949890	845.862122	4688.427246	993.798889	3.849948
307.319702	852.029297	4780.562988	995.507813	3.652215
307.689484	856.561768	4901.824707	1004.052551	3.646012
308.059265	857.453430	5041.662598	1014.157898	3.745140
308.429016	852.623718	5156.757813	1020.102051	3.891104
308.798737	846.753845	5250.527344	1018.095947	3.890802
309.168396	847.645508	5298.750000	1009.922607	3.645772
309.538055	849.503113	5319.628906	1007.693542	3.538836
309.907684	850.543274	5307.814453	1008.808044	3.550710
310.277313	851.880798	5322.452637	1006.801819	3.465351
310.646851	855.372986	5322.452637	1008.585144	3.429806
311.016388	852.549500	5318.216797	1010.962830	3.547361
311.385895	856.933289	5276.979004	1016.238281	3.604148
311.755371	854.109680	5218.576660	1012.003113	3.617703
312.124817	853.589661	5163.667480	1007.322021	3.566812
312.494232	847.125305	5077.625488	1005.241516	3.737530
312.863617	851.434875	5040.919434	1006.727539	3.706725
313.232971	856.636169	5043.743164	1013.786316	3.753192
313.602295	858.270813	5137.290527	1020.845032	3.799333
313.971619	858.865173	5252.459473	1022.182617	3.717172
314.340820	853.069519	5297.486816	1013.786316	3.616150
314.710083	859.459534	5286.267090	1005.315735	3.294839
315.079285	857.081848	5200.670410	1001.451965	3.323752
315.448486	860.053955	5126.516113	996.770996	3.204459
315.817596	851.583496	4988.907715	989.563660	3.335010
316.186707	850.246033	4853.156250	985.328369	3.374603
316.555786	851.434875	4710.123535	983.470886	3.421784
316.924866	847.199646	4644.291992	981.093079	3.526210
317.293884	844.524719	4622.298340	987.185852	3.776328
317.662872	841.478333	4651.721680	986.442871	3.804600
318.031830	841.478333	4677.578613	990.603821	3.887424
318.400757	844.450439	4728.104980	984.065247	3.594934
318.769684	847.422546	4767.782715	989.935120	3.635191
319.138550	852.697998	4776.996094	991.198303	3.529301
319.507416	851.137695	4745.046387	997.959900	3.770561
319.876190	852.029297	4667.474121	995.953674	3.772152
320.244995	855.298645	4604.316895	996.473816	3.765657
320.613770	858.419373	4537.815430	984.808289	3.435045
320.982483	858.419250	4522.583496	987.631775	3.526385
321.351166	861.688660	4552.824707	985.031189	3.341587
321.719818	863.917725	4627.721680	988.672058	3.314581
322.088440	862.803223	4774.172363	979.458496	2.982466
322.457062	863.100403	4950.121094	977.749512	2.805200
322.825623	859.310974	5145.611816	984.213806	2.914001
323.194183	860.648438	5316.285156	1003.755554	3.211822
323.562653	858.270691	5412.507324	1019.879150	3.548530
323.931183	857.527649	5452.482422	1027.978149	3.709514
324.299591	860.276855	5411.095703	1025.451782	3.629565
324.668060	857.973572	5345.263672	1022.851257	3.674326
325.036407	859.831055	5245.400391	1015.941101	3.559630
325.404755	857.824951	5149.252441	1011.854492	3.589238
325.773102	851.955078	5052.139160	1005.241455	3.649516
326.141388	847.868347	4981.774902	1006.727539	3.842834
326.509674	846.679504	4891.125000	999.148621	3.769840
326.877899	855.670166	4812.587402	991.123962	3.423215
327.246124	865.626770	4748.240723	989.192078	3.182529
327.614288	864.363586	4701.504395	989.043518	3.249293
327.982422	856.710388	4688.724609	992.238586	3.536735
328.350525	846.828125	4678.991211	991.421204	3.773145
328.718628	841.775574	4722.829590	995.507874	3.961097
329.086700	846.530945	4780.859863	1000.634766	3.916902
329.454712	848.537109	4845.578125	998.925781	3.762500
329.822693	858.790833	4883.323730	994.170410	3.363858
330.190674	863.249023	4936.598145	996.176575	3.263348
330.558563	865.180847	4986.158691	997.142578	3.202194
330.926483	856.413086	5059.644043	1007.396301	3.592075
331.294312	847.571106	5157.054199	1006.950500	3.698342
331.662231	840.735291	5279.282715	1015.421082	3.935652
332.029999	844.970520	5398.687012	1021.216614	3.870379
332.397766	848.388489	5485.843750	1029.612793	3.907840
332.765503	855.818787	5546.771973	1034.739746	3.814171
333.133240	852.400818	5578.796875	1034.888306	3.861028
333.500916	855.893066	5570.400391	1032.956421	3.755713
333.868561	853.812561	5557.397949	1022.479736	3.585928
334.236176	852.549500	5523.441406	1021.885315	3.625342
334.603790	844.970642	5482.872559	1021.365234	3.803327
334.971344	843.484558	5428.853516	1032.584839	4.123992
335.338867	847.496887	5409.312500	1031.098755	4.024755
335.706360	852.698059	5401.139160	1032.584961	3.954913
336.073853	851.880676	5427.665039	1037.265991	4.051444
336.441284	852.549377	5448.618652	1034.813965	3.965662
336.808655	852.177917	5487.701660	1036.894409	3.984803
337.176086	853.366699	5541.868652	1035.631348	3.887481
337.543396	852.995178	5584.369141	1044.027588	4.037567
337.910706	852.697998	5600.492676	1045.142090	4.053336
338.277954	856.264587	5573.892578	1036.448730	3.819380
338.645264	851.063416	5518.240234	1030.058594	3.835192
339.012421	848.314148	5450.773438	1020.473572	3.740596
339.379669	846.159424	5347.269531	1021.810974	3.902405
339.746796	851.063293	5254.020020	1025.526001	3.962399
340.113953	859.682434	5197.697754	1033.699341	4.011441
340.481018	855.001465	5208.026367	1032.956421	4.088076
340.848114	847.794128	5234.478027	1033.922485	4.243031
341.215118	837.688904	5303.282227	1034.145386	4.399337
341.582153	839.769348	5414.216309	1038.306274	4.340130
341.949066	846.233704	5582.957520	1043.358765	4.161633
342.316010	850.023132	5803.042969	1051.903564	4.075906
342.682922	855.670105	6036.798828	1064.386475	4.028396
343.049835	856.338867	6356.003906	1082.590698	4.113920
343.416656	854.629883	6682.267090	1108.299438	4.352871
343.783478	842.369873	6983.192871	1125.166138	4.605185
344.150269	846.902405	7188.045410	1130.218628	4.467905
344.516998	842.964355	7271.264160	1125.686157	4.398080
344.883728	853.738281	7228.688965	1127.023560	4.286861
345.250427	852.029297	7106.534668	1120.336304	4.289820
345.617065	866.964111	6938.907715	1112.088745	4.037004
345.983704	859.385254	6775.888184	1111.420166	4.259863
346.350281	862.357361	6627.356934	1116.249878	4.404034
346.716827	856.413147	6463.965332	1115.506836	4.620442
347.083405	858.196472	6343.148438	1109.859741	4.588249
347.449860	857.676270	6240.536621	1109.042358	4.669749
347.816376	858.865173	6188.153809	1114.838013	4.803133
348.182770	860.722656	6168.463379	1104.138550	4.586055
348.549194	863.249023	6205.317871	1106.144653	4.546846
348.915558	852.177917	6307.855469	1104.064087	4.616955
349.281921	855.670166	6406.157715	1116.918457	4.706763
349.648193	852.103577	6459.804199	1110.825684	4.613693
350.014526	860.202576	6489.079590	1110.305542	4.443213
350.380737	855.967346	6523.407715	1104.732788	4.389379
350.746948	844.896240	6579.580566	1112.460449	4.665718
351.113159	842.147034	6634.267090	1118.776001	4.775954
351.479309	843.112976	6716.222656	1129.772827	4.880887
351.845428	842.072754	6846.698730	1138.614868	4.938561
352.211517	841.181152	6973.161621	1145.450684	4.962011
352.577576	844.301819	7135.290527	1157.116211	4.972420
352.943604	850.914795	7284.936035	1157.190552	4.760254
353.309601	852.252197	7473.293457	1163.134644	4.695371
353.675537	849.131531	7643.892578	1167.295654	4.682492
354.041473	851.955078	7805.426270	1183.047852	4.761547
354.407379	854.629883	7928.695313	1201.995117	4.910405
354.773254	856.338867	8102.637207	1208.682251	4.862391
355.139038	847.942627	8298.945313	1220.942261	5.006032
355.504913	848.537109	8589.691406	1228.223999	4.904784
355.870636	842.815735	8871.373047	1248.880249	5.057752
356.236389	848.462708	9196.670898	1263.369263	4.970007
356.602081	847.273926	9502.352539	1280.607300	5.006695
356.967804	852.920898	9757.805664	1284.322388	4.844549
357.333405	857.527649	9891.178711	1282.093506	4.699826
357.699036	852.177917	9910.200195	1272.731323	4.642883
358.064606	849.354431	9850.089844	1271.913940	4.694722
358.430176	844.376038	9767.018555	1285.957153	4.948995
358.795654	843.855957	9816.502930	1300.892090	5.093660
359.161163	841.775574	9987.845703	1313.077637	5.153055
359.526581	844.673279	10399.928711	1320.656494	4.981376
359.892029	848.388428	10962.995117	1347.405518	4.933629
360.257416	853.515320	11606.679688	1376.680786	4.865223
360.622772	853.292480	12185.051758	1411.974609	4.930233
360.988098	855.818787	12574.843750	1432.259277	4.918843
361.353394	859.831116	12781.034180	1446.673950	4.922681
361.718658	853.664001	12661.034180	1431.219116	4.891479
362.083893	858.419373	12238.327148	1404.618652	4.799681
362.449097	856.858948	11567.149414	1373.411499	4.822956
362.814209	863.100403	10814.983398	1343.616089	4.828390
363.179382	854.927063	10092.983398	1313.077637	4.959383
363.544434	852.549500	9522.934570	1286.180054	5.001284
363.909546	848.388489	9133.588867	1270.873657	5.099275
364.274536	850.691895	8928.364258	1257.276367	5.033436
364.639587	859.013855	8762.371094	1256.979126	5.035395
365.004517	852.995300	8689.183594	1254.229980	5.120278
365.369507	851.286316	8597.271484	1259.728394	5.272952
365.734344	837.168762	8561.903320	1247.468384	5.311504
366.099274	844.747620	8515.463867	1243.010254	5.191988
366.464081	842.518555	8463.377930	1236.991699	5.176229
366.828918	844.747559	8405.272461	1235.134155	5.163486
367.193665	851.360535	8331.043945	1225.251953	4.998760
367.558411	863.249023	8277.026367	1219.827881	4.809679
367.923126	866.295471	8180.357910	1219.010498	4.822423
368.287781	861.985840	8125.522949	1222.948486	4.969516
368.652435	849.725891	8082.873047	1212.026001	5.008886
369.017059	853.738281	8114.600098	1215.592407	4.983625
369.381653	858.568054	8127.603516	1215.963989	4.916690
369.746185	866.518372	8162.971191	1232.979370	5.022454
370.110687	859.756836	8255.924805	1233.350830	5.051183
370.475220	853.664001	8360.839844	1245.165039	5.215024
370.839661	852.623718	8465.680664	1240.855469	5.099551
371.204041	850.023132	8529.432617	1251.926636	5.233521
371.568451	847.199524	8531.438477	1242.861694	5.149009
371.932770	848.537109	8515.834961	1249.400269	5.228220
372.297150	854.258362	8453.495117	1240.186890	5.078517
372.661377	857.601990	8481.953125	1248.954468	5.132928
373.025696	852.920898	8504.836914	1238.329224	5.036756
373.389862	854.555481	8555.066406	1233.053711	4.915236
373.754059	855.818665	8609.828125	1229.264160	4.816160
374.118225	852.846619	8748.253906	1248.954468	5.016940
374.482361	848.165527	8956.450195	1266.861450	5.163804
374.846436	846.010742	9206.033203	1278.155518	5.169182
375.210510	852.697998	9523.676758	1285.585815	4.992376
375.574524	854.407043	9886.645508	1305.944702	4.999178
375.938538	851.657898	10264.177734	1325.486328	5.034023
376.302460	845.639343	10553.363281	1347.405640	5.168733
376.666412	845.787903	10752.421875	1349.411743	5.083703
377.030304	860.202637	10790.166992	1351.566528	4.948294
377.394196	860.053955	10678.711914	1333.139526	4.818230
377.757996	860.871338	10444.288086	1322.514160	4.817101
378.121796	844.747620	10090.383789	1308.470947	5.015592
378.485565	845.119141	9769.692383	1296.731079	5.060320
378.849304	846.753723	9469.583984	1269.833496	4.906507
379.212982	848.165527	9328.110352	1265.375366	4.919959
379.576630	850.171692	9203.208984	1268.124512	5.003603
379.940277	852.995300	9180.472656	1273.994385	5.055542
380.303864	861.762878	9131.952148	1267.901489	4.910874
380.667450	865.478027	9137.004883	1265.375122	4.834622
381.030945	862.505920	9131.506836	1265.152466	4.869349
381.394501	857.379089	9190.057617	1268.198853	4.930224
381.757935	856.858948	9276.992188	1272.582764	4.937260
382.121399	855.818787	9375.443359	1277.709595	4.951988
382.484741	858.345032	9530.290039	1296.210938	5.049223
382.848145	854.258362	9690.709961	1296.136597	5.000630
383.211487	855.372864	9838.645508	1314.415161	5.109967
383.574768	848.239807	9945.568359	1310.402832	5.080206
383.938019	851.211914	10011.772461	1318.353271	5.099484
384.301270	848.760010	10047.510742	1316.421387	5.083966
384.664459	853.069580	10074.706055	1309.734131	4.952099
385.027649	846.530945	10090.086914	1315.752563	5.076203
385.390778	847.868347	10213.948242	1324.966187	5.093890
385.753876	845.267822	10310.319336	1329.275757	5.113632
386.116943	849.131531	10452.757813	1331.876343	5.026693
386.479980	848.165527	10482.925781	1332.470581	5.026644
386.842987	846.382263	10545.859375	1335.516968	5.042897
387.205994	848.685730	10535.011719	1332.099121	4.990678
387.568909	845.267761	10538.280273	1327.715332	4.977272
387.931793	845.862244	10442.950195	1323.554321	4.977469
388.294678	844.896240	10398.293945	1331.950562	5.098231
388.657471	842.815735	10354.678711	1334.551147	5.169706
389.020294	845.342041	10426.456055	1340.272583	5.165689
389.383057	842.295654	10627.444336	1340.198242	5.088350
389.745819	848.388489	10868.629883	1346.959839	4.975642
390.108521	845.193420	11127.425781	1367.541626	5.080105
390.471191	851.063293	11414.085938	1394.216309	5.142023
390.833801	846.530823	11706.988281	1420.445190	5.284441
391.196442	844.599060	11956.942383	1434.116821	5.305071
391.558960	840.363770	12040.831055	1428.544312	5.251393
391.921509	836.797180	12010.885742	1418.513306	5.205938
392.284027	845.936523	11936.583008	1413.014771	5.113122
392.646484	850.840515	11859.606445	1408.779663	5.068135
393.008911	865.180969	11820.002930	1405.881836	4.935734
393.371307	865.106628	11827.284180	1410.042847	4.971058
393.733673	863.546204	11798.975586	1412.123047	5.016509
394.096008	849.948914	11721.254883	1410.339844	5.154771
394.458344	845.564941	11566.704102	1396.222534	5.136186
394.820587	837.317383	11327.968750	1385.299927	5.223532
395.182831	847.571106	11081.432617	1374.897583	5.152761
395.545013	848.165527	10795.739258	1365.758423	5.203207
395.907196	853.738342	10574.391602	1353.795532	5.144276
396.269287	851.880676	10445.848633	1355.950317	5.254027
396.631409	851.286316	10383.805664	1353.646851	5.269966
396.993469	847.422607	10345.316406	1356.396118	5.358804
397.355530	846.753845	10322.358398	1350.303345	5.314167
397.717499	848.611389	10374.889648	1343.690430	5.196983
398.079468	852.326477	10442.430664	1337.077515	5.054700
398.441376	857.676270	10468.583984	1330.093018	4.915422
398.803284	854.258362	10422.887695	1332.396362	4.996933
399.165131	855.298645	10390.046875	1337.374634	5.055991
399.526978	850.691833	10357.725586	1339.380859	5.140289
399.888763	848.314148	10348.437500	1342.278564	5.199558
400.250519	844.673340	10324.809570	1342.575806	5.252060
400.612244	842.221375	10340.263672	1342.501587	5.267193
400.973938	848.982910	10431.135742	1335.219849	5.074402
401.335602	844.673340	10551.729492	1335.963013	5.061160
401.697205	851.063477	10713.932617	1349.931763	5.058044
402.058807	851.880676	10898.277344	1367.318726	5.130577
402.420349	856.115967	11161.754883	1383.442383	5.116873
402.781860	852.623718	11431.547852	1394.141968	5.118841
403.143341	849.428711	11665.304688	1401.646484	5.105622
403.504822	857.304871	11895.270508	1416.284180	5.064151
403.866241	855.150085	12087.640625	1431.441895	5.130579
404.227631	858.047791	12246.872070	1449.051636	5.189332
404.588959	851.806335	12285.956055	1449.125977	5.223997
404.950287	853.961121	12233.422852	1439.466675	5.145283
405.311554	858.939453	12090.316406	1424.903320	5.039132
405.672821	857.750671	11928.930664	1421.336792	5.090569
406.034027	850.097412	11791.323242	1418.290405	5.193139
406.395203	837.911804	11598.059570	1411.603149	5.331631
406.756348	841.998474	11467.584961	1405.510132	5.303346
407.117493	845.044861	11372.179688	1393.250366	5.207547
407.478516	851.732117	11408.067383	1394.216187	5.138943
407.839600	847.422546	11491.881836	1384.705566	5.047537
408.200592	850.097412	11616.264648	1395.702271	5.067772
408.561554	850.246094	11786.195313	1404.544312	5.068588
408.922485	855.893066	11952.410156	1418.215942	5.067562
409.283417	848.462708	12082.440430	1419.850586	5.086247
409.644257	851.880676	12186.612305	1427.429688	5.077747
410.005096	841.924133	12252.221680	1430.624512	5.159378
410.365906	847.645447	12275.329102	1434.414063	5.134624
410.726715	837.317383	12271.019531	1429.955688	5.183258
411.087433	841.552734	12184.382813	1418.736206	5.088531
411.448120	849.725891	12124.569336	1411.603149	4.983459
411.808807	853.441101	12046.106445	1402.984009	4.909849
412.169434	854.035461	12015.940430	1404.544434	4.932034
412.530029	845.267761	12044.620117	1408.630981	5.030320
412.890564	844.747620	12127.393555	1417.175781	5.073528
413.251099	850.914734	12313.520508	1428.395508	5.037954
413.611572	854.481262	12452.690430	1440.655273	5.054005
413.972076	853.589661	12603.375977	1447.714233	5.056471
414.332489	856.190247	12722.780273	1452.246704	5.022980
414.692871	855.521545	12974.370117	1461.906128	5.003648
415.053223	856.784668	13198.913086	1471.565430	4.981156
415.413574	848.091309	13516.481445	1491.924194	5.082200
415.773834	854.258362	13758.114258	1500.989258	5.011920
416.134094	852.252258	14093.961914	1518.078735	5.028252
416.494263	851.955078	14421.860352	1528.332642	4.984394
416.854462	843.930359	14869.385742	1547.354126	5.015337
417.214630	846.010803	15347.226563	1585.620117	5.100326
417.574738	852.549377	15797.426758	1616.752930	5.113482
417.934784	856.338867	16319.479492	1648.777344	5.124693
418.294861	860.202637	16923.708984	1656.059082	4.954438
418.654846	856.784668	17649.349609	1684.516968	4.929160
419.014832	859.979675	18378.035156	1724.046021	4.932433
419.374756	850.617493	19157.396484	1764.020874	4.989427
419.734680	853.664001	19943.593750	1811.871704	5.019441
420.094543	847.868347	20587.423828	1827.475464	4.962661
420.454376	862.208801	20983.978516	1852.961304	4.923784
420.814148	858.270813	21232.150391	1851.995239	4.877443
421.173920	860.054016	21438.564453	1875.697876	4.935459
421.533691	854.629883	21534.044922	1877.778320	4.947667
421.893341	852.549377	21580.482422	1876.515137	4.940028
422.253021	846.159363	21530.255859	1863.883667	4.920323
422.612640	840.363770	21527.429688	1861.505981	4.936138
422.972260	843.856018	21507.888672	1867.450195	4.953506
423.331757	851.955078	21621.943359	1876.960938	4.935033
423.691315	855.744446	21800.494141	1886.323242	4.920464
424.050781	858.567932	21852.208984	1890.409790	4.915021
424.410248	852.400818	21653.003906	1880.453247	4.942417
424.769653	847.273926	21309.353516	1868.416382	4.990414
425.128998	844.673340	20898.757813	1835.203003	4.939291
425.488373	852.846680	20391.937500	1812.243286	4.910140
425.847656	857.304871	19901.984375	1784.156860	4.866724
426.206940	850.840515	19392.861328	1773.605835	4.976616
426.566193	841.998535	18947.861328	1745.147949	4.988160
426.925385	845.787903	18443.421875	1724.714722	4.994574
427.284576	847.348145	17931.400391	1703.389771	5.010765
427.643677	853.589600	17557.732422	1692.615845	5.022863
428.002777	850.543213	17268.173828	1678.201172	5.041275
428.361847	860.945618	17015.099609	1663.489258	4.968032
428.720856	860.202637	16717.369141	1647.736938	4.966425
429.079865	857.676270	16554.794922	1636.442993	4.961208
429.438812	850.543213	16522.695313	1627.229614	4.955838
429.797760	848.982849	16503.673828	1633.099487	5.008829
430.156616	845.416321	16372.528320	1631.390503	5.061947
430.515503	843.707336	16281.285156	1629.384277	5.089379
430.874268	839.546387	16294.214844	1626.114868	5.089520
431.233093	840.140869	16391.328125	1640.307007	5.145370
431.591827	850.468933	16577.904297	1643.576172	5.042826
431.950562	849.577332	16720.193359	1647.365601	5.026826
432.309204	853.663879	16883.511719	1639.192383	4.900412
432.667877	847.348206	17064.882813	1651.229492	4.956865
433.026459	854.629883	17199.296875	1649.000366	4.860120
433.385010	856.115906	17328.732422	1656.802124	4.860711
433.743561	858.493652	17345.525391	1654.944458	4.830771
434.102051	847.199646	17385.054688	1669.805054	4.974075
434.460510	852.772278	17409.054688	1675.154785	4.967193
434.818939	847.868347	17378.812500	1683.773926	5.056612
435.177338	857.602051	17317.216797	1683.773926	5.019388
435.535675	848.388489	17275.902344	1679.687378	5.060406
435.894012	851.211914	17261.935547	1684.665649	5.078714
436.252289	847.571106	17472.433594	1678.424194	4.997653
436.610535	851.509216	17552.607422	1685.780151	4.995306
436.968719	847.942688	17862.820313	1692.913208	4.966069
437.326935	850.617615	18150.072266	1716.169922	5.003350
437.685028	845.342041	18540.757813	1743.216187	5.074049
438.043152	853.589661	18797.697266	1755.996216	5.028986
438.401215	854.555603	19122.771484	1766.770142	4.993452
438.759277	863.249023	19512.787109	1776.801147	4.898524
439.117249	856.858887	20123.552734	1804.813110	4.920171
439.475250	865.032227	20545.220703	1833.494141	4.921000
439.833130	863.323242	21066.083984	1847.908691	4.873519
440.191071	868.153015	21271.382813	1852.738647	4.825636
440.548889	853.886902	21498.970703	1861.506226	4.880674
440.906708	854.704163	21379.716797	1861.432007	4.904883
441.264496	849.874512	21175.234375	1853.258423	4.936611
441.622223	861.019836	20825.492188	1834.385620	4.875490
441.979950	864.289246	20509.630859	1817.147461	4.850301
442.337616	869.564758	20260.271484	1808.528320	4.842338
442.695251	864.735046	19969.080078	1788.689453	4.836357
443.052887	861.614258	19840.238281	1784.082642	4.860565
443.410461	852.177917	19932.298828	1778.881348	4.856905
443.768005	851.286194	20210.041016	1799.314819	4.897157
444.125458	847.199646	20521.816406	1811.277466	4.900110
444.482941	848.165527	20900.314453	1834.459961	4.918647
444.840393	852.400879	21419.244141	1860.465820	4.901408
445.197754	858.270752	21946.869141	1897.988770	4.930238
445.555084	863.249023	22407.099609	1920.651001	4.908138
445.912415	861.242859	22765.164063	1932.836548	4.892246
446.269714	855.595764	22999.812500	1934.322754	4.871371
446.626953	851.657715	23002.337891	1931.424805	4.874645
446.984161	847.348206	22844.000000	1923.548828	4.892566
447.341309	846.753845	22552.585938	1915.598267	4.924227
447.698456	848.239929	22227.958984	1900.440796	4.921491
448.055542	849.057190	21954.078125	1880.899048	4.889082
448.412598	848.016907	21580.853516	1865.741211	4.908756
448.769653	848.760010	21187.050781	1853.332642	4.939317
449.126617	856.190247	20651.105469	1837.060547	4.955163
449.483582	864.289307	20296.382813	1811.648804	4.875231
449.840515	866.444031	19924.720703	1791.587280	4.854286
450.197388	859.905457	19691.857422	1772.416992	4.845550
450.554230	862.951843	19494.507813	1764.764038	4.840241
450.911041	859.756836	19457.802734	1761.271606	4.847363
451.267822	861.391418	19513.455078	1765.581177	4.847666
451.624573	856.115967	19574.382813	1759.785645	4.827742
451.981262	860.796936	19507.882813	1755.698853	4.799151
452.337921	861.762939	19308.009766	1744.479370	4.785345
452.694580	860.351135	18936.048828	1733.185181	4.828771
453.051147	853.886902	18706.453125	1725.829468	4.884130
453.407715	848.982910	18318.220703	1707.402344	4.913892
453.764221	852.103577	18165.751953	1706.659302	4.935735
454.120728	859.088074	17731.230469	1678.572876	4.857028
454.477142	858.270691	17641.916016	1677.309570	4.879982
454.833557	859.682434	17525.484375	1669.507935	4.859205
455.189911	856.041687	17556.171875	1670.399414	4.876355
455.546265	862.357361	17625.126953	1674.560547	4.845280
455.902557	857.304871	17677.064453	1671.885376	4.842997
456.258820	856.190369	17941.433594	1706.584839	4.977362
456.615051	853.812683	18237.455078	1734.745605	5.067597
456.971252	849.131531	18611.791016	1761.717407	5.137664
457.327393	846.902527	19224.712891	1779.252930	5.073240
457.683502	846.085144	19955.630859	1806.819214	5.027509
458.039612	849.205750	20981.378906	1859.202637	5.016830
458.395630	848.239929	22013.962891	1907.722290	5.005652
458.751648	843.187317	22920.458984	1959.437134	5.056104
459.107605	844.970520	23778.802734	1990.124146	4.993294
459.463562	847.794006	24115.095703	2002.904297	4.964522
459.819458	855.521484	24110.490234	1985.442993	4.858839
460.175323	847.422546	23557.974609	1949.703247	4.853606
460.531158	847.051025	22836.125000	1911.140259	4.839172
460.886932	846.010742	21982.384766	1871.759766	4.853004
461.242676	853.441101	21154.654297	1846.496704	4.891607
461.598419	859.533875	20488.083984	1823.685913	4.911988
461.954102	856.041687	19848.115234	1793.741821	4.937324
462.309723	858.493652	19281.259766	1766.398560	4.928168
462.665344	849.725891	18838.638672	1742.398804	4.962351
463.020905	854.109802	18597.302734	1734.968384	4.964487
463.376373	856.858948	18557.478516	1726.869507	4.915142
463.731873	858.270752	18501.675781	1736.231812	4.976143
464.087341	855.372986	18529.390625	1733.185181	4.966681
464.442749	855.893066	18627.468750	1746.931274	5.013839
464.798126	856.115906	18763.740234	1750.052124	4.991930
465.153503	858.790833	18978.845703	1765.358276	5.003117
465.508820	852.252197	19166.980469	1768.255981	5.001460
465.864105	854.184082	19349.837891	1770.931030	4.956553
466.219330	852.400879	19672.982422	1779.252930	4.924673
466.574524	857.750671	19742.974609	1782.596680	4.897193
466.929657	861.540039	19657.601563	1768.404785	4.824759
467.284790	864.809387	19393.085938	1751.983887	4.788219
467.639893	865.032288	19136.146484	1737.123413	4.773059
467.994934	860.499817	18937.162109	1739.055298	4.860164
468.349945	859.088074	18629.625000	1737.940796	4.945561
468.704926	856.338806	18433.017578	1735.191406	5.000106
469.059875	857.156067	18250.085938	1722.040039	4.972618
469.414764	855.967285	18194.431641	1715.649902	4.958240
469.769653	853.589661	18177.267578	1714.238159	4.968047
470.124451	858.716614	18270.666016	1725.532104	4.978280
470.479248	848.908691	18314.804688	1724.566040	5.013526
470.834015	844.599060	18370.976563	1732.739380	5.067450
471.188721	839.695068	18596.337891	1742.547485	5.084589
471.543365	845.936340	18904.248047	1761.346069	5.069188
471.898010	849.725830	19208.591797	1767.587402	4.999555
472.252625	848.611328	19529.058594	1781.556274	4.994232
472.607178	859.236633	19803.234375	1789.878296	4.912594
472.961700	858.493652	19927.767578	1798.794556	4.930974
473.316193	863.100342	19943.220703	1793.593384	4.876767
473.670654	859.756775	19887.939453	1797.828613	4.929907
474.025055	858.344971	19968.630859	1801.098022	4.933223
474.379456	856.487366	20032.904297	1806.150513	4.952245
474.733795	855.670105	20156.171875	1813.134888	4.960828
475.088104	859.162354	20449.296875	1821.531128	4.912518
475.442383	854.109802	20823.337891	1841.964355	4.946884
475.796570	849.057129	21219.000000	1857.939453	4.952799
476.150787	845.490662	21685.324219	1891.524414	5.019395
476.504944	847.051025	22099.710938	1913.220703	5.016641
476.859070	847.794128	22565.958984	1931.647827	4.990541
477.213135	851.509216	22854.404297	1933.951172	4.919543
477.567200	859.385254	23188.244141	1945.914063	4.866029
477.921173	850.320313	23484.490234	1962.483398	4.913646
478.275146	847.868347	23788.312500	1980.613281	4.937764
478.629089	838.506165	24082.998047	1998.074585	4.988573
478.983002	846.530823	24544.712891	2023.485962	4.966436
479.336823	841.701172	25130.218750	2049.937744	4.974517
479.690643	844.153259	25928.083984	2083.671143	4.941482
480.044403	841.404053	26871.650391	2135.014404	4.969643
480.398163	842.518555	28170.615234	2205.230469	4.986486
480.751862	844.153259	29973.794922	2280.870605	4.932148
481.105499	841.404053	32390.117188	2393.216553	4.918782
481.459137	844.821960	35807.746094	2566.044189	4.922992
481.812744	847.422546	40251.339844	2814.289795	4.991552
482.166290	858.345032	45601.136719	3107.265625	5.026330
482.519806	852.252197	50804.410156	3407.968750	5.116329
482.873291	836.945801	54928.511719	3685.637939	5.266426
483.226715	835.162598	57529.402344	3878.230469	5.367508
483.580139	839.620789	58557.156250	3961.524170	5.408934
483.933502	848.016907	58309.957031	3915.902100	5.338986
484.286804	843.633118	56899.839844	3778.739502	5.236006
484.640106	843.558838	54705.675781	3589.193359	5.097524
484.993347	848.314209	52113.105469	3409.454834	4.995905
485.346558	852.326599	49914.636719	3270.657227	4.929101
485.699738	860.722717	48662.261719	3211.066406	4.916879
486.052887	855.893066	48658.546875	3223.326416	4.952515
486.405975	850.840515	49440.656250	3284.997803	5.009604
486.759064	852.475098	50494.871094	3337.009521	5.004864
487.112061	858.493591	51113.062500	3363.164063	4.983965
487.464996	862.877441	50936.449219	3329.207764	4.925413
487.817963	855.818665	49931.875000	3260.403320	4.899711
488.170868	856.041687	48194.082031	3156.825195	4.860327
488.523743	862.728943	46121.113281	3048.046143	4.828536
488.876587	861.019958	43976.144531	2938.078125	4.817470
489.229401	865.329529	42457.839844	2869.125244	4.817684
489.582153	854.109863	41901.164063	2842.153564	4.843328
489.934845	853.143860	42329.519531	2869.274170	4.860913
490.287537	839.026367	43519.996094	2925.446533	4.888409
490.640198	843.558838	44877.730469	3001.012451	4.899498
490.992798	844.821960	45855.703125	3055.773438	4.912037
491.345337	852.326477	45889.808594	3046.931641	4.872842
491.697876	851.434875	44721.769531	2983.997314	4.861058
492.050354	855.521545	42692.781250	2869.571045	4.814010
492.402832	855.224365	39939.125000	2733.522705	4.805810
492.755219	858.790833	37024.746094	2585.140381	4.773410
493.107605	850.691895	34171.894531	2454.516357	4.813225
493.459930	850.320313	31871.037109	2336.820557	4.791960
493.812225	844.821960	30184.587891	2257.391113	4.814521
494.164490	852.400879	29164.265625	2220.908203	4.833688
494.516724	852.475159	28548.443359	2200.772461	4.868208
494.868896	848.537109	28359.193359	2204.413086	4.928548
495.221039	844.747620	28462.177734	2197.280029	4.897387
495.573120	847.125305	28775.287109	2220.239502	4.916594
495.925201	860.128235	29112.546875	2239.260986	4.881468
496.277222	859.756836	29390.142578	2258.728516	4.903444
496.629211	858.196472	29470.537109	2264.078125	4.913550
496.981140	852.772400	29359.904297	2246.245605	4.888156
497.333069	858.567932	29063.140625	2236.660400	4.886061
497.684967	857.527649	28672.677734	2200.846680	4.829451
498.036804	858.493591	28161.250000	2179.001709	4.836538
498.388580	851.063293	27622.484375	2142.147461	4.822621
498.740326	851.360596	27081.263672	2127.732666	4.866096
499.092072	847.348328	26571.992188	2102.098389	4.877618
499.443756	855.521545	26077.208984	2074.234619	4.832005
499.795410	854.704285	25667.578125	2055.064697	4.837652
500.147003	860.351257	25359.515625	2033.442505	4.788291
500.498566	862.060120	25051.087891	2026.383789	4.813437
500.850098	869.341797	24812.576172	2012.786255	4.775648
501.201599	861.911560	24545.162109	2001.120728	4.810190
501.553009	856.710388	24421.521484	1990.644165	4.811979
501.904449	851.657715	24364.828125	1990.049805	4.841508
502.255859	849.577332	24447.228516	2008.996948	4.913284
502.607178	850.914734	24582.609375	2020.514038	4.928427
502.958405	846.307922	24688.193359	2024.154663	4.940241
503.309692	855.595886	24745.257813	2012.043457	4.840786
503.660919	853.812561	24782.484375	2008.179688	4.824201
504.012115	862.357361	24751.720703	2013.752441	4.819697
504.363251	859.459534	24730.916016	2030.693359	4.906420
504.714294	854.406921	24646.437500	2032.030762	4.949656
505.065369	848.016907	24606.833984	2029.652954	4.973463
505.416443	850.320313	24438.687500	2018.879272	4.953963
505.767395	854.852844	24382.587891	2009.071289	4.905778
506.118317	851.955017	24318.908203	1998.074341	4.883972
506.469238	842.295593	24460.755859	2002.978516	4.914303
506.820160	844.376038	24680.093750	2024.526367	4.951185
507.170929	853.292480	24972.326172	2027.795532	4.869611
507.521729	863.546204	25293.015625	2027.349731	4.763933
507.872498	863.917786	25556.568359	2031.436523	4.728204
508.223236	859.162354	25847.687500	2060.860352	4.808999
508.573883	856.413147	26062.867188	2086.049072	4.878259
508.924500	855.818665	26292.314453	2106.853760	4.918268
509.275116	849.280090	26483.197266	2113.094971	4.930245
509.625702	848.982910	26750.390625	2131.670898	4.952194
509.976196	850.691833	26921.806641	2136.203369	4.930788
510.326660	854.406921	27120.271484	2147.720215	4.923932
510.677124	854.555603	27275.490234	2144.822266	4.883501
511.027557	848.982910	27479.375000	2156.264893	4.908985
511.377869	854.481262	27680.736328	2163.397705	4.879237
511.728180	850.171692	27785.054688	2170.753662	4.902869
512.078430	851.732117	27748.943359	2168.673584	4.896201
512.428650	850.989075	27621.291016	2162.951904	4.900815
512.778931	852.846619	27451.138672	2156.636230	4.901779
513.129028	855.670105	27289.458984	2137.168945	4.847957
513.479126	853.738281	27139.365234	2128.549805	4.849843
513.829285	859.459534	27018.103516	2111.385986	4.785900
514.179382	854.704163	26905.681641	2115.324219	4.839051
514.529297	856.710388	26864.072266	2107.893799	4.810882
514.879272	852.029297	26974.710938	2117.256104	4.843403
515.229187	856.933289	27123.912109	2120.079346	4.808874
515.579163	854.481262	27537.109375	2153.218506	4.867352
515.928955	850.691833	28049.720703	2183.311279	4.899511
516.278748	850.097473	28823.880859	2221.799805	4.903528
516.628540	844.599060	29667.140625	2258.951172	4.907104
516.978333	843.781738	30703.890625	2303.755859	4.889380
517.327942	839.472168	31783.509766	2364.163818	4.927255
517.677612	844.599060	32690.671875	2415.507080	4.932816
518.027222	842.815735	33283.605469	2439.729736	4.922550
518.376831	839.100647	33518.328125	2439.283936	4.896638
518.726379	840.883850	33343.046875	2416.176025	4.846731
519.075867	845.639221	32732.875000	2386.974854	4.833707
519.425293	850.171692	31944.228516	2344.548096	4.805987
519.774658	845.193420	31081.500000	2307.916992	4.837640
520.124084	844.450439	30397.689453	2283.471191	4.869249
520.473389	854.184082	29796.060547	2263.483643	4.869413
520.822693	859.533875	29364.361328	2234.431396	4.823384
521.171997	860.054016	29088.177734	2209.539795	4.780643
521.521240	850.840515	28952.576172	2208.945557	4.832815
521.870361	847.051025	29043.744141	2222.320068	4.877412
522.219482	851.732117	29226.380859	2231.682373	4.863321
522.568604	851.211975	29620.703125	2228.784424	4.788311
522.917664	854.927063	30095.572266	2249.217773	4.768331
523.266724	850.691895	30839.865234	2298.851807	4.828942
523.615662	858.642273	31781.130859	2368.324951	4.882151
523.964600	862.283142	33059.957031	2427.618408	4.861640
524.313538	862.877502	34415.089844	2489.884033	4.849178
524.662354	854.035461	35919.718750	2553.338867	4.846058
525.011169	846.307922	37373.527344	2634.625977	4.895851
525.359985	846.382324	38898.886719	2704.619141	4.883349
525.708740	846.976746	40453.597656	2781.374023	4.884025
526.057434	850.766113	42203.351563	2871.428711	4.886424
526.406067	852.698059	44367.562500	2985.037842	4.900256
526.754700	861.911560	47206.375000	3128.664795	4.891098
527.103333	867.484192	50439.437500	3313.901367	4.935083
527.451782	859.310974	53633.488281	3523.286377	5.047877
527.800293	851.583435	55972.761719	3720.262939	5.204314
528.148743	840.363770	57366.605469	3837.884033	5.302883
528.497131	844.821960	57588.769531	3837.735596	5.274419
528.845642	844.004578	56727.453125	3739.209961	5.180792
529.193909	842.890076	54871.000000	3571.509033	5.050369
529.542175	845.267761	52071.792969	3366.804932	4.922327
529.890503	840.066589	48702.906250	3163.958740	4.855316
530.238770	855.893066	45355.574219	2971.960205	4.755241
530.586914	861.688660	42761.589844	2859.391357	4.767798
530.934998	867.707092	41243.433594	2781.522217	4.740014
531.283142	861.391418	40921.847656	2792.370361	4.820162
531.631226	855.818787	41428.000000	2827.367188	4.859360
531.979248	855.447266	42581.550781	2897.731689	4.894501
532.327148	855.967285	43891.359375	2956.282227	4.880436
532.675110	853.961182	44987.250000	3010.523438	4.886475
533.023071	853.663879	45404.687500	3034.448975	4.895028
533.370850	852.326477	44798.593750	2999.155029	4.885122
533.718689	848.388489	43478.605469	2921.508545	4.863029
534.066467	839.695007	41767.417969	2834.054443	4.872881
534.414246	835.905579	40062.324219	2743.033447	4.861846
534.761963	840.809570	38693.886719	2674.972412	4.845479
535.109619	855.893005	37823.281250	2623.257568	4.780875
535.457153	860.202637	37446.937500	2602.155518	4.761160
535.804749	867.632813	37308.882813	2602.675781	4.761206
536.152344	867.112793	37224.847656	2584.322998	4.723094
536.499817	857.750549	36916.414063	2576.743896	4.767213
536.847229	851.286194	36319.691406	2539.220947	4.758981
537.194641	846.382263	35391.277344	2520.199463	4.845339
537.542114	856.413086	34337.816406	2466.850342	4.809946
537.889404	849.577332	33472.410156	2425.760986	4.831535
538.236694	846.679504	32948.277344	2394.182373	4.820642
538.583984	833.007813	33093.687500	2401.612549	4.862280
538.931213	836.500000	33873.941406	2450.652588	4.885828
539.278381	838.877686	35398.933594	2537.958252	4.916313
539.625488	846.233704	37459.570313	2654.093018	4.937707
539.972595	848.537109	40200.152344	2782.488281	4.914540
540.319641	847.942688	42976.468750	2905.533203	4.884079
540.666687	850.320313	45296.421875	3029.024658	4.901902
541.013611	855.224304	46608.015625	3103.773193	4.914561
541.360596	854.629883	46932.496094	3111.054688	4.896982
541.707458	858.493652	46275.808594	3052.801514	4.831434
542.054260	862.506042	44816.050781	2972.703125	4.800972
542.401062	872.908386	42955.074219	2884.505859	4.780166
542.747864	866.295410	40929.652344	2784.717041	4.788470
543.094666	861.242859	38897.843750	2685.077393	4.794946
543.441284	852.177917	36807.042969	2599.852295	4.860745
543.787903	858.790833	35028.527344	2520.942627	4.864398
544.134460	854.778503	33489.574219	2448.200439	4.882586
544.481079	852.029297	32497.259766	2387.940918	4.853533
544.827637	847.571106	31737.962891	2359.483154	4.894441
545.174072	852.846619	31359.015625	2346.479736	4.896167
545.520508	859.608215	31194.138672	2342.170410	4.887375
545.866943	862.728821	31125.259766	2339.792725	4.880834
546.213318	858.790833	31068.642578	2332.510986	4.878277
546.559631	854.406982	30740.523438	2315.718506	4.889600
546.905823	849.874512	30250.718750	2283.174072	4.875029
547.252136	850.617493	29378.107422	2242.530518	4.879199
547.598389	853.441101	28379.179688	2192.301758	4.864032
547.944458	854.332703	27307.437500	2143.708008	4.874192
548.290588	850.097473	26244.462891	2080.253418	4.844209
548.636658	848.239929	25216.634766	2029.727417	4.848442
548.982727	849.502991	24326.562500	1977.715454	4.805595
549.328735	853.886780	23653.900391	1962.483521	4.862263
549.674622	855.149963	23143.142578	1944.576660	4.887954
550.020569	858.939453	22815.914063	1945.765259	4.949798
550.366455	861.540039	22574.501953	1934.397095	4.941091
550.712280	861.540039	22506.294922	1924.068970	4.908945
551.058044	854.332703	22530.890625	1918.124634	4.907568
551.403748	846.159424	22627.556641	1920.948242	4.934435
551.749512	847.645447	22818.736328	1926.372437	4.909756
552.095154	846.828125	22993.126953	1933.579590	4.907147
552.440735	853.961243	23166.251953	1935.882813	4.848994
552.786316	850.989075	23140.765625	1942.347290	4.896227
553.131897	848.462830	22963.255859	1926.595093	4.875164
553.477417	841.701172	22624.431641	1911.140259	4.909573
553.822815	842.221375	22228.546875	1896.279663	4.928656
554.168213	850.766113	21836.455078	1886.100220	4.933525
554.513672	852.772278	21466.947266	1863.363647	4.902410
554.859009	850.246033	21103.904297	1842.930298	4.901259
555.204285	843.781738	20810.929688	1823.983398	4.909072
555.549500	840.215149	20604.070313	1820.490845	4.959942
555.894714	840.289490	20407.541016	1796.193970	4.885226
556.239990	841.849792	20214.947266	1796.119629	4.925747
556.585022	849.874512	20037.662109	1794.559448	4.923366
556.930115	856.264465	19932.298828	1804.590210	4.971294
557.275146	855.893066	19776.933594	1797.828735	4.978244
557.620178	847.719788	19661.466797	1782.002319	4.965957
557.965149	840.512390	19544.068359	1769.667969	4.967802
558.310059	837.094421	19514.421875	1763.129272	4.958069
558.654968	843.112976	19420.353516	1762.312012	4.947985
558.999756	846.159363	19454.384766	1769.742188	4.963305
559.344604	853.218079	19471.697266	1772.119995	4.935430
559.689331	849.948730	19550.531250	1763.575195	4.885551
560.033997	846.679504	19550.976563	1770.782593	4.940592
560.378723	849.354492	19678.033203	1771.673950	4.898482
560.723389	856.116028	19757.613281	1783.562500	4.906735
561.067932	855.818787	19864.164063	1777.023804	4.846319
561.412476	849.800232	19800.857422	1768.627563	4.848423
561.757019	846.679504	19761.031250	1765.655640	4.858618
562.101501	849.354431	19666.591797	1763.277954	4.856842
562.445862	849.874512	19621.267578	1753.692749	4.814870
562.790222	849.725891	19563.162109	1753.321289	4.828592
563.134644	854.481262	19554.470703	1754.510132	4.812991
563.478943	856.933289	19595.039063	1769.370605	4.869421
563.823181	855.150085	19703.966797	1778.064087	4.896403
564.167358	844.524719	19901.462891	1793.147461	4.977834
564.511536	841.701233	20232.185547	1807.042114	4.978426
564.855774	842.815735	20612.986328	1825.989258	4.973015
565.199768	848.165710	21052.115234	1842.633179	4.922144
565.543823	845.565002	21397.845703	1868.787720	4.978633
565.887817	844.004639	21712.517578	1886.546021	4.995762
566.231812	844.301758	21765.794922	1894.719360	5.020759
566.575745	855.967285	21704.939453	1882.162231	4.922041
566.919617	860.871277	21482.552734	1856.750610	4.829283
567.263428	864.586426	21152.574219	1826.955444	4.743541
567.607239	857.750549	20821.183594	1809.642700	4.768178
567.950989	858.047852	20478.201172	1801.543823	4.808811
568.294678	861.242859	20329.447266	1810.088501	4.873822
568.638367	865.552429	20194.363281	1814.992554	4.912046
568.981995	858.345032	20187.900391	1811.946289	4.933384
569.325623	851.137695	20227.355469	1811.426147	4.956016
569.669128	850.840515	20327.962891	1810.311523	4.926143
570.012573	857.304688	20530.732422	1820.862671	4.897764
570.356140	865.700989	20815.460938	1833.345337	4.850406
570.699524	858.047791	21128.718750	1848.131470	4.884316
571.042908	856.933289	21495.851563	1868.713501	4.902293
571.386230	856.561768	21792.988281	1872.354370	4.851796
571.729492	860.945618	22028.007813	1882.310913	4.825258
572.072815	859.608215	22040.492188	1881.493652	4.824564
572.416016	850.989075	21900.353516	1880.676270	4.891773
572.759094	854.555603	21647.875000	1860.391602	4.837304
573.102234	849.800232	21413.748047	1847.091431	4.849707
573.445374	857.824890	21224.794922	1829.778931	4.772207
573.788391	854.778503	21117.130859	1831.710815	4.821416
574.131409	856.041687	21025.144531	1822.942993	4.793972
574.474365	851.657776	20972.759766	1823.611694	4.830521
574.817261	851.063293	20867.771484	1818.707642	4.834183
575.160156	855.447266	20654.445313	1824.874878	4.896347
575.502930	855.224304	20322.833984	1820.193726	4.956795
575.845703	855.298645	19985.794922	1801.246460	4.944711
576.188477	859.756836	19641.626953	1781.927856	4.909900
576.531250	856.710388	19277.765625	1755.921875	4.881433
576.873901	852.846680	18888.644531	1745.222290	4.947803
577.216431	848.908508	18525.378906	1718.770508	4.921016
577.559082	849.651611	18152.601563	1701.160767	4.921179
577.901611	857.824890	17768.826172	1677.161133	4.844989
578.244080	854.555664	17371.380859	1661.483276	4.885489
578.586487	858.047852	17094.306641	1654.275757	4.904011
578.928955	895.199219	16923.632813	1682.808105	4.913823
579.271301	895.422058	16795.312500	1673.148804	4.891397
579.613647	896.090820	16609.927734	1661.111694	4.868454
579.955872	855.521545	16372.606445	1623.365845	4.948380
580.298157	866.369812	16201.485352	1611.477417	4.858833
580.640320	867.484314	16066.031250	1602.041016	4.833072
580.982483	863.471985	15987.418945	1584.579956	4.767988
581.324524	857.824890	15923.370117	1587.031860	4.840230
581.666626	858.493652	15846.838867	1590.895508	4.886476
582.008728	866.072571	15734.789063	1599.366089	4.931787
582.350647	860.425537	15657.438477	1592.901733	4.950163
582.692566	858.642273	15568.054688	1584.579712	4.935190
583.034424	852.400879	15535.956055	1572.022827	4.900870
583.376343	855.521484	15416.179688	1564.518066	4.869262
583.718201	848.314148	15371.151367	1551.663696	4.843059
584.059937	854.406921	15273.964844	1547.725586	4.808183
584.401611	843.707336	15207.464844	1542.004272	4.861520
584.743347	843.410156	15153.745117	1553.744141	4.963783
585.085022	833.825195	15104.704102	1558.573853	5.078515
585.426514	842.518555	15088.059570	1570.833862	5.112585
585.768127	852.400818	15100.020508	1567.490112	5.019009
586.109619	853.738281	15148.317383	1565.855469	4.981729
586.451172	854.406921	15188.887695	1558.870972	4.914472
586.792542	848.239929	15232.057617	1564.815063	4.981815
587.133850	856.190247	15255.909180	1568.604614	4.947419
587.475220	852.623718	15273.741211	1569.273438	4.969447
587.816589	856.710388	15343.140625	1565.484009	4.892673
588.157776	854.704285	15465.739258	1570.165039	4.896715
588.498962	855.075684	15612.041992	1580.047363	4.912742
588.840210	849.205811	15685.082031	1589.780884	4.991785
589.181335	852.846680	15750.988281	1592.233032	4.962944
589.522400	861.242859	15774.245117	1596.691040	4.931591
589.863403	861.465820	15805.155273	1597.137085	4.922956
590.204407	859.608154	15734.195313	1588.592163	4.900869
590.545410	854.927063	15653.055664	1581.682007	4.911127
590.886353	854.778503	15477.924805	1567.713257	4.875385
591.227112	852.252197	15366.545898	1557.607910	4.859732
591.567932	847.273926	15249.890625	1557.013550	4.927852
591.908752	847.719727	15180.714844	1554.487183	4.931052
592.249512	841.998474	15174.325195	1557.310669	4.990901
592.590149	844.524719	15141.409180	1553.224121	4.957020
592.930786	848.908630	15239.786133	1564.592285	4.973176
593.271423	852.177917	15368.700195	1582.647949	5.031991
593.612000	845.787842	15603.645508	1599.440430	5.106789
593.952576	846.828064	15778.851563	1600.257813	5.045731
594.292969	846.307922	15927.307617	1602.561035	5.014608
594.633484	848.834290	16105.561523	1598.325806	4.912531
594.973877	841.181152	16339.391602	1617.644531	5.010019
595.314209	844.450439	16667.068359	1631.836304	4.976331
595.654480	846.307922	17016.585938	1664.678223	5.060954
595.994812	854.035461	17401.474609	1666.535767	4.910127
596.335022	856.041687	17695.341797	1680.281860	4.894741
596.675171	859.236633	17816.529297	1682.510864	4.854986
597.015320	857.304871	17741.556641	1688.975220	4.925716
597.355408	852.995300	17431.937500	1676.938110	4.969816
597.695496	852.995300	17043.259766	1642.387329	4.875721
598.035461	847.719727	16456.046875	1609.471191	4.880417
598.375366	845.639343	15905.090820	1577.298218	4.858469
598.715271	849.057190	15391.288086	1557.756470	4.873388
599.055176	862.803223	15012.046875	1547.131226	4.836499
599.395081	862.580261	14694.774414	1527.589478	4.807692
599.734802	859.979736	14447.495117	1519.044922	4.850520
600.074524	851.583435	14318.655273	1508.047974	4.874590
600.414246	860.945618	14244.128906	1513.100586	4.872943
600.753906	865.478088	14264.338867	1507.453613	4.791270
601.093506	864.363586	14308.846680	1516.221313	4.848515
601.433044	862.877502	14483.605469	1523.874512	4.852876
601.772583	855.447266	14678.799805	1545.348022	4.990835
602.112122	855.372864	15004.692383	1566.821411	5.028147
602.451538	848.091248	15412.985352	1584.951172	5.059150
602.790894	857.304749	15879.679688	1597.879883	4.929814
603.130310	859.608154	16385.607422	1613.037720	4.852696
603.469604	863.249023	16859.435547	1626.635254	4.772301
603.808838	859.236633	17279.392578	1655.910522	4.851805
604.148010	863.174622	17577.275391	1670.176636	4.828270
604.487305	862.431641	17698.833984	1672.851563	4.813498
604.826416	853.664001	17639.318359	1664.901001	4.832919
605.165527	848.388489	17335.642578	1644.393555	4.828003
605.504456	845.862244	16895.546875	1629.681641	4.883706
605.843445	855.967285	16346.895508	1600.480469	4.806124
606.182434	847.199646	15779.074219	1574.697632	4.872114
606.521423	852.698059	15281.023438	1550.103149	4.833583
606.860229	845.044861	14882.463867	1526.029297	4.851208
607.199036	854.258484	14677.758789	1508.047974	4.729551
607.537903	850.840515	14587.854492	1503.887085	4.753920
607.876648	857.156189	14682.885742	1514.958130	4.757810
608.215271	854.035461	14884.247070	1534.054077	4.846817
608.553955	852.400818	15118.597656	1548.765991	4.881225
608.892578	846.753845	15323.153320	1556.270508	4.901196
609.231140	844.599060	15476.588867	1564.072266	4.917125
609.569641	840.883972	15500.811523	1567.415894	4.955904
609.908081	846.308044	15418.707031	1564.369507	4.927545
610.246521	851.583496	15179.081055	1562.809204	4.964061
610.584961	859.088074	14856.606445	1550.697754	4.940945
610.923340	857.527649	14503.296875	1536.283203	4.974110
611.261597	854.184082	14094.484375	1510.351440	4.955834
611.599854	849.502991	13773.348633	1489.843872	4.954724
611.938110	848.016907	13451.393555	1470.970825	4.942754
612.276245	845.787842	13200.695313	1464.135132	5.004872
612.614319	852.029297	12961.664063	1459.231079	5.014204
612.952393	852.920898	12753.022461	1455.441772	5.063158
613.290466	856.487488	12577.073242	1439.169434	4.971440
613.628479	856.487488	12438.351563	1427.875366	4.933471
613.966370	862.060120	12319.465820	1421.039551	4.878761
614.304260	868.747375	12225.843750	1415.838379	4.817173
614.642151	866.221191	12106.067383	1416.953003	4.899817
614.979980	860.202637	11994.836914	1409.448242	4.932767
615.317749	852.400879	11908.274414	1411.900391	5.060654
615.655396	851.509216	11882.862305	1403.949829	5.007913
615.993164	847.571106	11886.355469	1414.946655	5.139837
616.330811	853.143860	11897.351563	1412.346069	5.063307
616.668396	843.484558	11872.981445	1407.219238	5.111155
617.005859	843.707458	11892.522461	1401.795044	5.051108
617.343445	839.546448	11908.497070	1406.996460	5.126503
617.680908	850.914734	11942.378906	1414.797974	5.083939
618.018311	851.211914	11933.536133	1412.123413	5.061316
618.355652	851.360535	11925.215820	1401.275024	4.965881
618.692993	847.051025	11896.014648	1399.491699	4.999932
619.030273	848.685730	11861.835938	1394.364868	4.954796
619.367554	840.215149	11797.117188	1396.742554	5.079240
619.704712	844.747620	11743.471680	1389.163696	4.995228
620.041870	844.004639	11692.276367	1393.547485	5.065718
620.379028	846.530945	11647.100586	1394.736450	5.075709
620.716064	840.512390	11567.819336	1394.290527	5.162322
621.053040	843.261536	11541.739258	1383.590942	5.050526
621.389954	846.679504	11481.479492	1374.303101	4.961293
621.726929	851.286316	11469.813477	1372.817017	4.911516
622.063843	851.137695	11441.726563	1376.234985	4.958150
622.400635	846.679504	11443.733398	1373.337280	4.969851
622.737427	838.134766	11456.958008	1378.018188	5.084211
623.074219	836.128601	11465.355469	1378.835571	5.105799
623.410889	838.729065	11541.291992	1392.433105	5.173565
623.747559	848.314148	11625.776367	1388.940796	5.016271
624.084167	856.784668	11693.835938	1395.999634	4.975662
624.420715	860.871338	11775.495117	1396.668335	4.908983
624.757324	858.790833	11883.085938	1402.761108	4.934286
625.093750	845.193420	12058.143555	1410.637207	5.042775
625.430176	842.295654	12253.929688	1422.748413	5.086500
625.766602	838.283264	12423.266602	1440.952759	5.202161
626.102905	846.010803	12628.416992	1448.605835	5.114363
626.439209	842.444275	12780.811523	1451.355103	5.100453
626.775452	845.936523	12948.363281	1452.618164	5.012892
627.111694	849.651672	12959.360352	1447.045532	4.933181
627.447876	856.264587	12879.113281	1446.079468	4.905783
627.783997	855.595886	12690.383789	1429.510132	4.849383
628.120056	855.224304	12535.834961	1414.946655	4.791893
628.456055	851.732117	12354.758789	1404.395874	4.804507
628.792053	854.778503	12181.782227	1400.383423	4.816851
629.128052	848.908508	11993.127930	1395.999512	4.909191
629.463928	854.109802	11859.903320	1387.083130	4.842661
629.799744	850.691895	11743.840820	1382.253418	4.879778
630.135559	850.023132	11622.284180	1383.368164	4.951097
630.471375	849.057190	11463.645508	1378.910034	4.991742
630.807068	850.840515	11316.229492	1377.423828	5.031665
631.142700	851.063293	11211.090820	1360.408569	4.916447
631.478333	853.218201	11155.215820	1353.795532	4.859032
631.813965	854.184082	11079.278320	1343.021606	4.780763
632.149475	860.425537	11011.291992	1350.377563	4.826702
632.484924	855.521545	10963.737305	1348.965820	4.881616
632.820435	857.973633	10978.820313	1349.708862	4.858637
633.155884	854.109863	11019.315430	1355.281616	4.930267
633.491150	864.214905	11067.612305	1359.442505	4.853556
633.826477	863.546204	11076.083008	1361.225952	4.873223
634.161804	868.227234	11054.015625	1355.578735	4.784622
634.497009	868.747375	11002.969727	1349.857544	4.747381
634.832153	863.843445	10923.094727	1347.628418	4.809354
635.167297	863.769104	10774.636719	1343.764648	4.843123
635.502380	854.332703	10636.583008	1333.065063	4.893888
635.837463	862.431641	10495.184570	1334.476807	4.900418
636.172424	857.081848	10395.098633	1324.817383	4.903908
636.507324	858.122131	10287.508789	1325.783447	4.959615
636.842224	853.812561	10216.401367	1316.644287	4.943416
637.177124	857.899231	10115.348633	1317.238647	4.961836
637.511963	860.054016	10052.563477	1309.882690	4.893426
637.846741	857.379089	9956.192383	1304.532959	4.914420
638.181396	850.468933	9897.493164	1296.731079	4.932695
638.516113	848.314209	9824.083008	1287.666260	4.894868
638.850769	850.171692	9752.009766	1278.304077	4.809483
639.185303	858.939453	9678.078125	1277.709595	4.748425
639.519836	855.224304	9572.493164	1284.173950	4.920689
639.854370	857.676270	9503.318359	1284.991211	4.942547
640.188843	849.651672	9410.885742	1287.591797	5.115386
640.523254	855.893066	9333.090820	1272.657104	4.916295
640.857605	852.995178	9276.397461	1265.969849	4.902706
641.191895	851.063293	9239.246094	1255.121582	4.816994
641.526184	847.273926	9212.274414	1264.855103	4.992004
641.860413	845.564941	9151.198242	1268.273071	5.089415
642.194580	842.444275	9108.472656	1264.632324	5.107508
642.528748	839.917969	9081.723633	1259.951294	5.096375
642.862793	844.673340	9058.616211	1264.409302	5.110042
643.196838	851.583496	9033.426758	1257.722168	4.963902
643.530823	865.032227	8990.628906	1257.127686	4.825436
643.864746	862.431641	8960.165039	1244.273315	4.715414
644.198669	861.614441	8940.250977	1243.530273	4.727479
644.532532	849.800293	8914.618164	1239.518066	4.832320
644.866333	842.890076	8913.577148	1242.787354	4.954935
645.200073	840.140808	8919.297852	1241.449829	4.967214
645.533813	844.896301	8917.886719	1247.691284	4.989415
645.867554	851.063416	8913.280273	1249.028809	4.936178
646.201172	852.475098	8902.208984	1253.561279	4.982602
646.534729	847.348206	8907.855469	1243.901855	4.919711
646.868225	850.097412	8941.440430	1236.545776	4.776072
647.201782	849.651611	8954.815430	1238.700562	4.800013
647.535217	855.595886	9004.523438	1244.867798	4.776971
647.868591	851.583496	8975.397461	1252.446655	4.934421
648.201965	853.961243	8940.995117	1252.743896	4.931136
648.535278	853.812561	8882.518555	1253.115356	4.973439
648.868591	852.549500	8898.196289	1242.044189	4.841061
649.201782	853.366699	8898.567383	1244.867798	4.866269
649.534912	850.691895	8905.776367	1247.245483	4.923022
649.868103	848.091309	8869.589844	1254.378418	5.064978
650.201172	848.537109	8880.512695	1252.000854	5.023219
650.534180	844.524719	8892.996094	1256.310425	5.116322
650.867188	841.255371	8897.973633	1256.682007	5.156276
651.200134	835.979980	8907.335938	1261.140137	5.267519
651.533020	832.636414	8879.546875	1248.211548	5.164406
651.865845	840.660950	8838.308594	1241.895874	5.016912
652.198608	848.165527	8784.067383	1231.864868	4.834981
652.531433	852.623718	8721.653320	1230.527344	4.802417
652.864136	850.097412	8707.239258	1238.997925	4.949644
653.196777	1004.795715	8814.234375	1399.045898	5.048381
653.529358	1007.990723	8772.848633	1403.652710	5.095547
653.861938	1008.585144	8682.868164	1388.569214	4.951395
654.194519	853.812500	8464.714844	1221.833862	4.835450
654.526978	855.372864	8409.878906	1216.187012	4.776145
654.859375	863.323303	8379.118164	1214.180786	4.668269
655.191833	864.363464	8367.824219	1209.351196	4.597715
655.524170	864.066345	8369.680664	1210.465698	4.615203
655.856445	857.824890	8359.353516	1218.861938	4.812846
656.188660	857.156189	8391.377930	1238.700684	5.064153
656.520874	855.967285	8410.473633	1236.768921	5.040721
656.853088	855.521484	8487.674805	1243.381714	5.081924
657.185181	849.577332	8559.301758	1232.459229	4.966220
657.517212	848.982910	8701.368164	1236.991699	4.941286
657.849243	850.766113	8868.772461	1239.889526	4.853119
658.181274	852.772278	9070.430664	1257.127808	4.920569
658.513123	849.503113	9260.719727	1267.678711	4.971642
658.844971	848.462830	9472.778320	1270.279419	4.891016
659.176819	850.691833	9633.868164	1273.771606	4.816933
659.508667	852.772278	9731.873047	1277.263794	4.780794
659.840393	844.004578	9719.463867	1282.242065	4.937632
660.172058	840.512390	9605.334961	1287.443237	5.099144
660.503662	843.112976	9458.736328	1287.294556	5.155536
660.835266	853.441101	9291.183594	1281.350342	5.071372
661.166931	856.859070	9086.182617	1260.396973	4.903658
661.498413	853.664001	8893.960938	1247.319702	4.896034
661.829773	841.329773	8656.489258	1239.740845	5.097926
662.161194	836.277039	8476.825195	1237.957642	5.257222
662.492615	838.283203	8298.424805	1227.480957	5.217029
662.823975	853.589600	8146.178223	1214.849487	4.953795
663.155212	853.589661	8032.867188	1204.372803	4.886051
663.486450	850.468933	7931.592285	1200.063232	4.936989
663.817627	850.097473	7867.543457	1197.908447	4.956376
664.148743	846.233704	7773.030762	1193.821899	5.018022
664.479858	849.131531	7710.838379	1186.614380	4.918351
664.810913	843.856018	7652.288574	1183.122192	4.983029
665.141907	851.286316	7630.666016	1180.373047	4.854230
665.472778	848.908630	7591.137207	1184.905518	4.983469
665.803711	840.809631	7582.890137	1191.518433	5.201789
666.134583	843.038757	7582.221191	1198.280151	5.271283
666.465454	844.673340	7582.740723	1200.211914	5.276566
666.796143	849.874512	7572.264160	1190.478149	5.066705
667.126831	858.196472	7563.199219	1182.973633	4.843803
667.457458	872.388184	7559.484375	1171.382324	4.471210
667.788147	878.183838	7574.419434	1175.320435	4.437368
668.118774	863.471863	7566.840332	1177.623901	4.686480
668.449219	854.406982	7571.224121	1191.964233	5.025554
668.779663	856.115906	7567.583496	1188.843628	4.957600
669.110107	867.187012	7589.502441	1182.230713	4.686535
669.440552	862.877441	7607.781250	1171.531128	4.576102
669.770874	858.567871	7573.898926	1171.010864	4.652682
670.101135	844.524719	7535.707520	1173.834473	4.921548
670.431396	837.688904	7462.964844	1171.010864	5.031065
670.761597	835.385498	7400.105469	1161.351440	4.965421
671.091797	843.484558	7331.523438	1162.688965	4.919890
671.421875	847.273926	7260.638672	1162.763306	4.919249
671.751892	848.239929	7227.276855	1168.484619	5.020267
672.081909	850.989014	7168.058105	1170.267822	5.054224
672.411865	847.719727	7151.934082	1174.577271	5.184747
672.741821	853.440979	7113.519531	1174.131470	5.122787
673.071716	853.366699	7098.807129	1166.627075	5.015825
673.401550	860.797058	7036.170410	1162.243286	4.881425
673.731262	856.487488	7015.365723	1164.026489	4.993425
674.060974	854.704163	6990.103027	1159.494019	4.967727
674.390625	856.115967	6996.938965	1159.419800	4.939140
674.720276	855.447266	6963.501953	1159.419678	4.976583
675.049927	861.094238	6928.580078	1158.750854	4.905766
675.379395	855.893066	6891.428223	1151.097778	4.891111
675.708923	849.651672	6850.413574	1142.850220	4.886022
676.038330	840.215149	6844.320313	1147.234009	5.113482
676.367737	835.757019	6830.871582	1146.565308	5.184359
676.697083	841.329773	6850.041504	1153.401123	5.193648
677.026428	851.732117	6855.614746	1149.463013	4.958972
677.355652	863.843445	6873.670410	1148.348511	4.733997
677.684875	870.084900	6910.003906	1145.599365	4.561559
678.013977	866.221191	6948.270020	1143.741821	4.562946
678.343079	863.323303	7018.783203	1150.874878	4.671488
678.672180	867.781433	7113.147949	1150.503296	4.526906
679.001221	859.459473	7215.982910	1150.577515	4.579831
679.330139	853.738281	7311.610840	1162.465942	4.780640
679.659058	843.707336	7346.310059	1164.546509	4.934012
679.987976	843.261536	7401.517090	1175.543335	5.066619
680.316772	845.490723	7436.066895	1173.685791	4.979763
680.645630	848.091248	7480.351563	1176.434937	4.950706
680.974304	855.150085	7474.853516	1175.543335	4.839994
681.302979	857.899231	7459.622559	1166.775635	4.678724
681.631653	860.128235	7407.907715	1165.586792	4.665071
681.960266	859.459656	7342.892090	1162.763306	4.678134
682.288757	860.053955	7284.416016	1164.769531	4.743125
682.617249	856.858887	7227.796875	1168.707520	4.894862
682.945679	855.447205	7153.717285	1164.769531	4.911227
683.274109	850.097351	7055.042969	1157.859253	4.959945
683.602478	848.834229	6923.007813	1146.639648	4.902813
683.930725	848.165527	6796.023926	1138.391968	4.879512
684.259033	846.382324	6680.855469	1135.122681	4.948868
684.587280	842.444275	6586.713379	1133.636597	5.069267
684.915344	844.747620	6511.443848	1138.912109	5.191111
685.243469	851.286316	6435.061035	1141.587036	5.199005
685.571533	855.595764	6398.579590	1142.032837	5.167561
685.899536	858.716553	6399.544922	1139.729370	5.071675
686.227539	856.636047	6421.315918	1129.401367	4.901725
686.555420	856.338867	6458.095215	1124.571655	4.788370
686.883301	855.001465	6469.240723	1123.382813	4.780369
687.211121	856.933289	6480.460938	1126.577759	4.794934
687.538940	858.865173	6479.717285	1134.008179	4.895041
687.866638	858.567871	6487.593262	1136.088745	4.930176
688.194336	857.230469	6477.339844	1138.614868	5.006742
688.521973	857.750549	6430.306152	1128.955444	4.866796
688.849609	861.688660	6372.869629	1121.005127	4.705279
689.177063	856.041687	6307.855469	1120.113525	4.843743
689.504578	852.995178	6210.444824	1117.067017	4.929059
689.832031	846.085144	6113.404785	1122.639771	5.250386
690.159485	851.434875	6034.123535	1114.169312	5.069462
690.486816	856.115906	6004.253906	1113.946411	5.008228
690.814087	857.230469	5948.230469	1105.921631	4.884918
691.141296	851.286194	5884.181152	1108.002075	5.100760
691.468506	845.193359	5807.351563	1103.766968	5.210910
691.795715	849.502991	5739.959473	1100.497681	5.132337
692.122803	851.063416	5688.541504	1099.605957	5.137854
692.449829	854.778503	5658.226074	1099.977539	5.104647
692.776855	851.137695	5629.991699	1093.736084	5.076497
693.103821	850.543274	5585.707031	1091.135376	5.080967
693.430664	852.103577	5548.183594	1084.968262	4.958704
693.757568	845.416321	5519.652344	1085.785645	5.142430
694.084351	841.478333	5504.865723	1080.064331	5.116152
694.411133	840.066589	5497.212402	1079.469971	5.140560
694.737854	845.119141	5494.091797	1078.281128	5.015344
695.064575	851.211975	5507.392090	1069.884888	4.696402
695.391174	847.868347	5524.556152	1072.708374	4.807676
695.717773	844.376160	5543.131348	1075.383179	4.916345
696.044250	844.673340	5584.369629	1089.352173	5.162332
696.370789	843.930359	5654.213379	1096.708130	5.254946
696.697205	843.855957	5770.794434	1098.417114	5.166721
697.023621	846.605225	5912.861816	1097.896973	4.960107
697.349915	849.577332	6071.052246	1103.023926	4.853927
697.676208	849.280029	6252.648438	1116.844116	4.951802
698.002380	849.131531	6454.974609	1135.345581	5.105638
698.328674	848.165588	6675.653809	1145.079224	5.095053
698.654724	855.372986	6884.295410	1153.624023	4.947004
698.980896	854.109802	7011.947754	1152.138062	4.839820
699.306946	858.047852	7046.646973	1149.017212	4.701700
699.632935	857.453430	6980.740723	1139.952271	4.613516
699.958862	853.366760	6847.589844	1139.060669	4.766154
700.284729	841.849854	6674.242188	1130.590210	4.950633
700.610596	839.695068	6462.553223	1123.011353	5.038652
700.936340	849.280090	6246.629395	1112.609009	4.878857
701.262146	860.276855	6003.585938	1100.423218	4.669102
701.587830	855.744446	5812.404297	1091.581177	4.757977
701.913513	848.834290	5625.384277	1079.767090	4.834720
702.239075	843.855957	5495.800781	1078.875488	5.052071
702.564697	848.165527	5358.415039	1073.451294	4.994974
702.890137	847.125305	5258.923828	1071.222290	5.079493
703.215698	848.091248	5177.190918	1071.222290	5.154213
703.541016	846.307922	5112.175293	1068.993286	5.220166
703.866455	851.880676	5039.136230	1061.934448	5.016502
704.191711	853.366760	4984.672363	1056.510376	4.917177
704.517029	857.007629	4934.740723	1059.705444	4.970846
704.842163	854.704285	4897.217773	1064.015015	5.177737
705.167419	857.007629	4861.552246	1055.841675	4.965210
705.492493	853.515320	4830.122559	1050.194702	4.945909
705.817566	852.846680	4802.258789	1051.903687	5.040168
706.142578	855.075684	4770.828613	1064.535034	5.349146
706.467590	857.379089	4754.853516	1074.491577	5.570594
706.792480	855.893066	4767.560059	1070.553589	5.487700
707.117371	858.493652	4778.110840	1066.912720	5.317332
707.442200	859.831055	4800.104004	1061.785889	5.125402
707.766907	860.128357	4822.023438	1066.466919	5.208077
708.091675	854.109802	4843.348145	1063.494751	5.248745
708.416321	852.698059	4856.425781	1055.692993	5.070148
708.741028	852.920959	4851.818848	1054.727173	5.046546
709.065552	852.177917	4860.735352	1053.612427	5.025112
709.390137	853.961121	4858.134766	1057.922241	5.093713
709.714600	854.629883	4893.057129	1053.315308	4.919871
710.039063	849.651550	4941.725098	1060.894165	5.162239
710.363403	854.704163	5017.439941	1061.934448	4.978223
710.687744	859.459473	5069.674316	1062.454590	4.821491
711.012085	861.911560	5095.160645	1053.463989	4.524951
711.336304	853.069519	5117.748047	1064.015015	4.946340
711.660461	847.125305	5138.701660	1066.318481	5.107522
711.984619	846.605164	5163.072754	1077.835327	5.356930
712.308716	849.280090	5136.472168	1066.615601	5.069414
712.632751	849.725891	5091.370605	1065.278198	5.081810
712.956726	847.942688	5015.062012	1056.287476	4.999732
713.280701	849.725891	4952.871094	1059.631104	5.115715
713.604553	856.858948	4879.533691	1061.265747	5.081365
713.928467	857.379089	4819.869141	1055.098633	4.989780
714.252258	846.530945	4792.451172	1043.135986	4.982489
714.575989	837.986145	4782.345703	1039.569458	5.110673
714.899719	842.667175	4793.342773	1046.108032	5.149521
715.223267	846.753723	4777.664551	1054.132690	5.275596
715.546936	848.908508	4784.129395	1056.064575	5.264153
715.870422	850.246094	4790.965332	1046.702393	4.985291
716.193970	847.199646	4786.655762	1045.216309	5.026497
716.517395	838.877686	4766.965332	1038.306274	5.076989
716.840820	837.837463	4716.811035	1046.479492	5.378795
717.164124	839.323547	4673.715332	1044.324707	5.346380
717.487488	848.685730	4600.378906	1043.581665	5.194880
717.810730	849.280029	4523.698730	1036.077148	5.083719
718.133972	857.007629	4450.658691	1032.510620	4.883696
718.457092	860.054016	4375.464355	1034.962524	4.975479
718.780212	860.945618	4307.402832	1035.408447	5.062092
719.103210	853.812500	4238.747070	1028.721191	5.167270
719.426208	849.651550	4169.199707	1022.776917	5.215329
719.749207	846.233643	4124.395020	1017.649963	5.229039
720.072083	849.800232	4063.021484	1013.637695	5.098854
720.394958	852.698059	4045.411377	1013.191895	5.026879
720.717773	859.608154	3994.291748	1008.213623	4.740685
721.040527	857.676270	3978.985107	1012.671814	4.965723
721.363281	860.128235	3940.867920	1009.105225	4.835754
721.685913	851.211914	3935.740967	1007.470520	5.065882
722.008545	852.252258	3915.010498	1009.328125	5.128575
722.331055	847.348328	3885.735352	999.668762	5.013201
722.653503	849.651672	3852.967773	1001.154968	5.044534
722.976013	854.035461	3827.555908	993.799011	4.700272
723.298401	854.555664	3826.441406	1002.566650	4.980373
723.620789	848.982910	3824.361084	1010.294006	5.421533
723.943115	843.038635	3843.754150	1012.820313	5.658040
724.265381	833.602234	3844.348389	1008.436523	5.807009
724.587585	844.301758	3852.224609	997.216858	5.083744
724.909790	848.091248	3847.394531	997.068298	4.967055
725.231873	857.156189	3865.524658	1000.040344	4.749557
725.553894	847.794128	3886.180908	1005.241516	5.181941
725.875916	891.261047	3929.796631	1050.640503	5.245272
726.197937	893.490234	3949.709961	1051.606323	5.173584
726.519775	897.799744	3956.694092	1052.126465	5.045180
726.841675	849.280090	3941.536377	1006.727539	5.091669
727.163513	844.821960	3953.201904	1008.585144	5.268442
727.485291	841.478333	3985.597900	1007.396301	5.277088
727.806946	847.571106	4014.204346	1005.984558	5.002583
728.128662	846.382324	4035.826904	1006.504700	5.020384
728.450256	846.976746	4046.749023	1005.241516	4.946126
728.771790	848.165527	4048.309814	1002.195129	4.813208
729.093323	855.447266	4054.551025	991.495544	4.252700
729.414795	865.180908	4049.424072	997.959900	4.169876
729.736145	866.741211	4035.083252	1005.761658	4.387798
730.057495	864.958008	4016.433594	1014.232178	4.736644
730.378845	855.521484	4022.229248	1011.631531	4.929727
730.700134	851.806335	4018.291016	1012.374573	5.070868
731.021301	850.691833	4044.891602	1021.588074	5.350205
731.342468	854.184082	4060.495117	1020.250671	5.179366
731.663574	849.577332	4107.157715	1020.770813	5.255234
731.984680	848.685730	4108.940430	1011.631531	4.997947
732.305664	847.125305	4116.965332	1015.272400	5.142365
732.626648	855.818787	4111.392578	1011.185730	4.772337
732.947571	855.521484	4122.761230	1014.083496	4.853088
733.268433	862.208801	4104.185059	1009.551086	4.544829
733.589233	854.109680	4074.018311	1013.266174	4.942888
733.909973	855.372864	4024.458008	1012.523132	4.958853
734.230713	854.927185	3971.926025	1012.597473	5.058401
734.551331	856.710388	3922.514893	1007.247742	4.910207
734.871948	847.942627	3876.595947	998.702881	4.977798
735.192505	837.688904	3822.428955	994.021790	5.237739
735.513062	830.853027	3771.383057	985.031250	5.243212
735.833435	840.512390	3698.046143	988.894836	5.192675
736.153931	848.685730	3650.567139	990.678223	5.067755
736.474304	852.549377	3605.985596	995.804993	5.202794
736.794617	852.475098	3605.242432	992.684326	5.093392
737.114807	850.097473	3591.942139	986.442932	4.972764
737.434998	855.893066	3599.818359	978.789734	4.478863
737.755188	860.054016	3606.431396	981.613281	4.426167
738.075256	853.961243	3635.186279	983.247864	4.648550
738.395325	852.698059	3666.467773	984.585388	4.687211
738.715271	851.732117	3682.962891	981.687683	4.590074
739.035278	851.955017	3699.532471	988.894958	4.808998
739.355164	856.041687	3707.780029	994.913391	4.869721
739.675049	850.023132	3692.622314	992.015625	4.995164
739.994873	856.710449	3660.374756	987.408875	4.661700
740.314636	850.617615	3615.570313	986.517151	4.915076
740.634277	851.434875	3580.350830	987.854675	4.999047
740.953979	852.623718	3548.326172	986.220032	4.955900
741.273499	854.258362	3518.976807	983.322266	4.843435
741.593140	860.351257	3481.082764	972.548340	4.281136
741.912598	859.533875	3436.946533	967.347168	4.183005
742.232117	859.608154	3393.108154	963.186218	4.088339
742.551453	853.886902	3363.312744	968.015930	4.548014
742.870850	853.961121	3336.117920	971.210938	4.723707
743.190063	855.521484	3314.272705	975.892029	4.895597
743.509338	852.177917	3282.768555	982.653503	5.368061
743.828552	848.314209	3254.533447	981.390320	5.530507
744.147705	849.057190	3232.837158	975.297546	5.295805
744.466797	850.691895	3224.812500	974.851746	5.229720
744.785828	845.564941	3214.335693	976.634949	5.533250
745.104858	844.227539	3179.041748	975.594727	5.626451
745.423706	845.713623	3165.295898	968.164490	5.279005
745.742615	855.893066	3151.846924	960.139832	4.540456
746.061401	851.583496	3156.973877	961.254395	4.757151
746.380249	853.366699	3153.481689	962.368835	4.738986
746.698975	848.537109	3156.082275	959.693909	4.817102
747.017639	848.537109	3149.766602	961.848816	4.923964
747.336304	847.719727	3121.308594	964.152161	5.121086
747.654907	853.218201	3107.860107	976.932312	5.487085
747.973389	856.115967	3105.110596	969.799133	5.054844
748.291931	852.326477	3119.079834	965.489563	4.992298
748.610352	843.707458	3133.197021	961.551514	5.147176
748.928711	844.821960	3135.723389	968.238770	5.387260
749.247070	848.165527	3142.559326	975.891907	5.566890
749.565308	850.691833	3136.912354	976.263428	5.492541
749.883545	849.948730	3140.330078	980.275818	5.690192
750.201782	857.304749	3139.884521	974.480225	5.133467
750.519836	857.601990	3132.008545	968.090149	4.857890
750.837952	861.094238	3112.318115	961.848694	4.475541
751.155884	858.865173	3094.485352	963.111816	4.662985
751.473877	857.379089	3083.191406	962.145935	4.706904
751.791809	855.670166	3077.693115	960.065430	4.698208
752.109619	851.360596	3072.640625	960.585632	4.917212
752.427490	858.270691	3061.569336	965.638184	4.873034
752.745300	854.332703	3060.157471	968.981750	5.197559
753.062988	856.115967	3055.179443	974.777344	5.395996
753.380615	851.955017	3054.584961	978.715393	5.754956
753.698303	852.549377	3038.089844	970.839355	5.412390
754.015808	844.970520	3031.922607	962.666016	5.381713
754.333374	843.112976	3026.424561	954.195557	5.087802
754.650757	842.444153	3035.934814	965.935364	5.629894
754.968262	850.691833	3023.526367	958.728027	4.972132
755.285583	857.750549	3028.207275	951.669250	4.327140
755.602905	863.026062	3009.185791	942.827209	3.718323
755.920105	860.945618	3013.272705	956.870422	4.456795
756.237305	856.264587	2999.452393	961.625793	4.916098
756.554443	853.366699	3010.597656	965.712463	5.207869
756.871582	847.794006	3025.383789	953.675476	4.862324
757.188599	845.267761	3046.411377	962.145935	5.309884
757.505615	850.320313	3065.656006	963.037598	5.088046
757.822510	853.366760	3082.225586	962.220215	4.883820
758.139465	849.131531	3100.503906	957.167664	4.798679
758.456238	848.685730	3123.463623	959.619629	4.876691
758.773010	856.115967	3143.302490	967.049866	4.850234
759.089783	863.843445	3157.197021	977.675232	4.963552
759.406433	856.784668	3165.890381	974.926025	5.116325
759.723145	849.131531	3170.497314	974.628845	5.406185
760.039673	853.589661	3179.933594	965.861084	4.826088
760.356201	857.304749	3165.667236	963.929260	4.619054
760.672668	859.236633	3151.921143	963.483398	4.546930
760.989136	858.865173	3146.422852	964.077820	4.599344
761.305481	856.264465	3175.401123	972.102478	4.994876
761.621826	856.858948	3197.097656	976.709229	5.121284
761.938049	852.623718	3206.385498	981.241699	5.464359
762.254333	852.698059	3224.812256	975.743408	5.187160
762.570496	854.927063	3299.486328	970.987976	4.747723
762.886597	849.205811	3455.968018	965.341003	4.455151
763.202637	850.097412	3675.086914	983.842285	4.734349
763.518677	847.496826	3931.059814	1003.012451	5.043375
763.834656	853.292480	4180.865723	1034.070923	5.432741
764.150574	855.893066	4338.535645	1036.968750	5.199376
764.466370	853.738281	4375.464355	1033.625244	5.107920
764.782288	855.075684	4287.118652	1022.628418	4.882011
765.097961	857.899231	4129.373535	1014.009277	4.771856
765.413696	858.270752	3950.675781	1007.470642	4.824720
765.729309	852.326477	3764.324219	992.907227	4.827639
766.044861	849.577332	3617.576904	988.597656	5.022411
766.360474	854.778503	3472.835205	980.721497	4.810553
766.675903	857.973450	3375.275391	977.155029	4.734497
766.991394	850.914795	3275.338135	975.371826	5.133470
767.306763	849.577332	3223.697510	976.114807	5.329868
767.622131	846.605286	3150.435303	967.272766	5.237690
767.937378	845.193420	3099.166260	959.916809	5.089830
768.252625	841.106750	3043.662109	952.560852	5.060218
768.567810	844.599060	3000.417969	950.034607	4.890742
768.882996	848.462708	2956.208008	944.461853	4.554589
769.197998	848.537048	2900.183594	943.124329	4.610311
769.513062	849.725891	2853.447266	951.669189	5.087698
769.828064	851.137695	2819.119385	950.926208	5.070602
770.142944	848.760010	2800.692383	946.913879	5.028549
770.457825	855.298645	2790.884521	941.712646	4.464488
770.772705	861.614319	2764.284180	938.666321	4.049678
771.087402	863.694824	2732.556641	939.557922	4.059321
771.402100	856.413147	2699.417725	938.963440	4.479115
771.716736	852.995300	2679.802002	940.895325	4.811677
772.031372	856.041565	2665.238525	942.901550	4.801024
772.345947	854.927063	2654.018799	942.381348	4.861024
772.660461	856.413086	2646.737061	945.427734	4.971985
772.974854	853.961121	2632.545166	949.142883	5.351547
773.289246	857.007568	2602.155518	944.981934	5.041083
773.603638	851.434875	2576.223877	935.174011	4.855036
773.917908	850.989014	2563.220947	930.418640	4.638953
774.232178	848.091248	2551.258545	930.270020	4.825056
774.546265	853.515320	2547.468994	937.105896	4.934644
774.860474	851.583496	2534.688477	934.802490	4.944373
775.174561	851.434875	2528.818848	933.613586	4.899219
775.488586	844.970520	2507.865479	927.446472	4.959781
775.802551	849.354431	2497.537354	928.115234	4.778645
776.116516	846.530945	2481.264893	933.539368	5.322483
776.430359	851.732117	2483.345459	935.842773	5.155061
776.744202	852.400879	2477.846924	942.455750	5.540318
777.057922	863.471924	2479.110107	932.870667	4.295438
777.371704	855.224365	2470.565430	936.288574	5.018396
777.685303	855.521545	2456.596680	932.350586	4.798590
777.998962	845.193542	2442.256104	933.539368	5.531770
778.312500	852.029297	2419.668213	927.075012	4.787181
778.626038	847.942566	2427.247070	922.691101	4.733004
778.939453	851.360535	2431.333740	922.171082	4.481756
779.252869	849.428711	2443.890869	928.115234	4.934988
779.566223	842.444275	2416.844727	923.062683	5.120578
779.879578	845.416321	2407.259521	924.177246	5.042819
780.192749	846.976746	2398.863281	925.663269	5.070379
780.505920	852.698059	2415.061523	927.669434	4.798587
780.819031	844.153259	2412.980957	935.248291	5.806567
781.132141	847.422546	2420.634033	937.477356	5.724266
781.445190	851.509216	2407.779785	941.786926	5.800901
781.758118	850.171692	2403.915771	930.344421	5.159970
782.071045	844.599060	2395.668213	923.508545	5.087426
782.383911	846.679504	2386.826416	923.434265	4.983600
782.696838	851.509216	2370.182617	932.127625	5.308476
783.009583	853.441101	2335.334717	928.115295	5.039106
783.322266	855.447266	2314.901611	927.372253	4.928211
783.634888	850.914795	2294.171143	928.932617	5.405680
783.947510	852.549500	2290.158691	932.127625	5.535450
784.260132	846.530945	2273.514893	927.297913	5.659977
784.572571	854.332703	2273.068848	914.815125	4.263120
784.885010	853.440979	2257.910889	912.734680	4.221785
785.197449	859.533875	2252.709961	912.585999	3.807999
785.509766	869.341797	2248.548828	921.056458	3.749594
785.822083	875.657532	2253.973145	921.873840	3.353100
786.134277	870.902283	2245.428467	917.192688	3.367736
786.446533	860.499817	2227.446777	915.409485	4.016956
786.758606	853.664001	2210.728760	916.226807	4.610157
787.070740	859.459656	2220.833984	928.115295	5.043113
787.382690	859.088074	2235.100342	925.291748	4.811271
787.694641	859.756836	2271.731445	929.898499	4.967629
788.006653	851.063416	2306.356445	925.514648	5.115893
788.318481	846.753845	2351.384033	933.985168	5.797526
788.630310	839.992188	2387.717773	935.322754	6.159397
788.942017	841.626892	2412.237549	934.133789	5.889868
789.253784	842.221375	2440.770020	929.378418	5.452261
789.565430	852.846619	2434.974365	922.988464	4.433387
789.877014	854.927063	2420.931152	924.846008	4.464799
790.188538	858.270691	2380.361816	929.229797	4.661949
790.500061	853.441101	2342.095947	932.796387	5.330671
790.811462	852.475098	2308.510986	931.681824	5.439888
791.122925	853.738281	2269.576416	929.824219	5.373915
791.434204	854.332703	2233.911133	929.601318	5.455914
791.745483	850.766113	2206.196289	930.195740	5.860105
792.056702	854.332703	2192.524658	932.424805	5.835643
792.367920	852.400818	2174.617920	931.904724	6.012924
792.678955	857.676270	2154.704590	926.257751	5.287586
792.990112	853.366760	2129.738770	926.554932	5.734078
793.301086	852.995300	2121.416992	918.901672	5.195936
793.612122	850.543274	2101.355225	920.536438	5.595818
793.922974	850.766174	2097.491455	914.220642	5.089691
794.233826	855.893066	2094.073486	915.112244	4.782758
794.544556	858.419250	2109.008545	917.118408	4.693719
794.855286	855.595886	2118.965088	918.827393	5.004991
795.166016	848.759949	2129.070068	920.610657	5.611977
795.476624	849.800232	2152.475586	909.316711	4.568789
795.787292	851.137634	2171.496826	907.830750	4.293765
796.097778	857.601990	2208.351318	902.257996	3.306017
796.408264	858.270691	2226.406982	915.038025	4.149246
796.718689	854.184082	2254.716064	910.208313	4.000211
797.029053	847.868347	2255.236328	913.626221	4.672401
797.339355	841.998352	2253.304443	909.762451	4.801517
797.649658	851.509094	2232.573975	908.202148	4.105024
797.959839	857.081848	2208.648438	911.545715	4.029684
798.270020	864.957947	2181.230713	913.774902	3.708727
798.580078	860.722656	2169.119385	918.010071	4.378444
798.890137	855.893066	2159.906006	916.598328	4.655265
799.200195	843.633057	2151.063721	915.781006	5.518300
799.510071	838.803406	2130.927734	917.638672	6.101214
799.820007	835.905579	2111.906250	922.245422	6.766441
800.129883	841.181152	2096.674072	921.576660	6.403502
800.439575	841.478271	2083.002441	914.517883	5.883060
800.749329	848.982910	2086.049072	905.452942	4.564835
801.058960	858.270752	2077.949951	901.663513	3.557719
801.368591	861.540039	2063.832520	908.722351	3.924362
801.678162	860.574158	2042.656250	904.041260	3.677165
801.987671	853.515381	2028.910156	909.762512	4.785382
802.297119	857.601990	2026.978149	901.589294	3.761604
802.606506	853.886902	2005.579102	909.390930	4.819346
802.915894	850.246094	1999.337524	908.127869	5.037178
803.225159	846.679443	1989.752563	914.889404	5.967244
803.534424	849.874512	1990.718384	911.322937	5.386226
803.843628	848.834229	1985.145874	906.493164	5.074218
804.152771	853.812561	1980.167603	904.115540	4.465997
804.461792	847.794128	1984.699829	909.465332	5.424478
804.770874	859.905457	1986.631836	913.180420	4.728297
805.079773	852.252258	1995.399536	919.347473	5.869341
805.388733	859.236633	2003.349976	915.409485	4.909728
805.697571	858.865173	2014.941040	914.740784	4.833213
806.006470	859.459656	2027.943970	910.802734	4.393989
806.315125	860.425537	2046.148315	909.985352	4.179713
806.623901	861.614319	2043.993530	911.620056	4.229247
806.932495	863.323425	2035.820190	906.641785	3.694540
807.241150	859.831116	2015.461304	910.282532	4.365706
807.549622	859.236633	2010.631470	905.007141	3.975223
807.858154	858.642273	1990.792969	909.390930	4.482501
808.166565	857.453369	1971.177124	907.087646	4.456606
808.474915	848.685730	1955.424805	907.087585	5.276931
808.783264	850.097412	1949.851929	904.784241	4.972640
809.091492	848.537048	1938.260742	902.257996	4.929777
809.399719	849.280090	1934.619995	900.326111	4.703229
809.707825	850.914734	1925.777954	896.313721	4.223699
810.015930	855.447266	1927.264038	900.697571	4.221832
810.323975	857.602051	1906.830688	901.886414	4.220659
810.632080	854.927063	1897.022827	906.418762	4.941168
810.939880	846.456543	1878.892944	902.480774	5.426410
811.247864	846.456543	1879.784546	904.932800	5.659022
811.555664	844.153137	1867.896118	902.183594	5.668459
811.863464	853.292419	1870.942383	908.127930	5.388445
812.171143	847.125305	1855.413208	903.818359	5.622705
812.478882	856.190186	1850.286255	912.808899	5.695497
812.786438	855.149963	1841.890137	909.019531	5.459347
813.094055	860.499817	1837.134766	905.675842	4.625682
813.401489	850.914795	1834.385376	901.217773	5.114843
813.708984	851.657898	1829.333008	897.354004	4.673956
814.016357	848.908630	1835.945923	903.446777	5.525439
814.323730	852.772400	1822.868652	903.000977	5.177690
814.630981	848.982910	1815.884155	906.790466	5.978641
814.938232	847.868347	1804.441528	903.000977	5.763556
815.245361	850.097412	1808.751099	903.000916	5.518521
815.552490	855.075684	1808.751099	901.291992	4.846126
815.859619	855.893066	1812.317749	900.325989	4.645731
816.166565	853.589661	1816.850220	893.787415	4.173092
816.473572	852.549500	1819.525024	887.248779	3.588434
816.780457	851.509094	1819.450806	892.747253	4.260397
817.087341	853.812561	1815.735718	901.737793	4.982231
817.394043	842.889954	1838.769409	909.911133	6.729848
817.700806	846.976746	1850.360718	909.242432	6.205569
818.007507	841.626953	1864.849609	897.948303	5.504310
818.314209	849.577332	1857.196411	900.697571	5.073370
818.620667	843.856018	1868.416138	896.908142	5.178040
818.927246	843.484558	1888.255005	904.561340	5.845952
819.233704	849.800293	1929.344360	904.561340	5.072609
819.540161	856.933289	1985.814453	920.387756	5.621006
819.846497	862.283020	2062.866455	928.858215	5.545237
820.152832	854.852844	2143.707764	937.254456	6.393397
820.458984	850.691895	2237.997803	931.979004	5.859350
820.765259	847.942688	2349.823730	929.749939	5.446986
821.071350	845.342041	2474.503662	924.697327	4.870928
821.377502	847.348206	2663.975830	931.904724	4.654587
821.683472	843.335754	3027.464600	959.248108	5.307029
821.989441	846.828125	3783.569092	1006.504639	5.437201
822.295349	847.199646	4974.790039	1069.513306	5.386040
822.601196	855.298584	6465.228516	1130.961792	4.913844
822.907043	858.345032	7840.423340	1195.530884	4.829305
823.212769	852.623718	8659.610352	1236.545898	4.917674
823.518494	851.509216	8725.814453	1243.381714	4.976598
823.824097	843.410217	8072.693848	1212.174683	5.100982
824.129700	848.760010	7043.898438	1161.277222	5.044556
824.435242	844.970520	5934.187012	1099.828857	5.007811
824.740723	845.936523	5011.718750	1046.405273	4.812272
825.046082	845.267822	4308.740234	1008.287903	4.706839
825.351501	844.821960	3793.971436	990.529602	4.940667
825.656799	844.599121	3425.503906	978.715515	5.196487
825.962036	844.376160	3196.354492	970.467773	5.361087
826.267212	848.091309	3084.974854	964.375000	5.198469
826.572449	854.629883	3084.751953	963.408997	4.877720
826.877502	855.595764	3218.051025	971.359436	4.900142
827.182495	855.670105	3508.128906	991.495544	5.120737
827.487488	853.515381	3865.153564	1009.402527	5.176158
827.792419	852.400818	4155.008301	1020.399231	5.086842
828.097290	849.057190	4256.208496	1025.228882	5.170645
828.402100	852.103577	4123.429688	1021.588074	5.180911
828.706848	851.732117	3823.321045	1011.928711	5.390941
829.011597	856.561768	3420.080078	985.699890	5.037535
829.316223	852.326477	3030.362305	963.334778	5.096716
829.620789	855.224304	2706.030518	938.591980	4.504398
829.925354	849.577393	2466.255859	927.520813	4.821208
830.229797	853.812561	2284.883057	920.982239	4.693666
830.534302	851.509216	2142.073486	914.517883	4.882257
830.838562	856.115967	2038.718140	909.985535	4.555172
831.142944	856.858948	1969.096313	899.657288	3.847950
831.447144	859.310974	1920.948242	897.948425	3.639421
831.751404	852.400818	1881.567871	896.165100	4.252398
832.055542	853.886902	1858.682495	895.793640	4.170673
832.359619	851.880676	1857.122070	897.874084	4.575359
832.663635	853.218079	1881.419067	899.657410	4.516562
832.967651	853.292480	1950.595093	904.412781	4.658724
833.271545	851.360596	2062.940674	916.672668	5.390653
833.575439	867.781433	2249.143311	928.115234	4.367704
833.879211	864.289246	2499.692139	940.226624	4.643344
834.183044	865.478088	2777.733154	948.177002	4.324680
834.486694	859.459534	3001.384033	959.768250	4.683112
834.790344	862.357361	3079.625000	974.925964	5.076907
835.093933	857.824890	3005.098877	973.439941	5.384271
835.397522	849.205811	2813.546875	963.111816	5.798688
835.700928	845.416321	2598.737549	945.725037	5.721069
836.004395	850.840515	2385.191406	934.282410	5.438254
836.307739	847.348328	2213.031982	919.941956	5.315552
836.611023	854.258362	2050.606445	912.809021	4.894115
836.914307	854.704163	1933.802734	900.549011	4.248439
837.217529	856.933289	1839.512573	895.422058	3.917116
837.520691	853.218079	1772.937378	889.032043	3.894010
837.823730	855.224304	1716.838501	888.809143	3.897897
838.126831	860.351257	1681.099121	896.462402	4.399786
838.429749	857.750671	1646.028198	893.490295	4.533888
838.732727	853.961121	1625.594849	897.874084	5.690908
839.035522	848.834290	1595.502319	893.861816	6.030461
839.338379	849.428711	1587.180542	893.861755	6.022763
839.641113	852.177917	1579.973145	894.902039	5.870349
839.943848	854.704163	1620.245239	892.301453	4.911205
840.246460	853.515320	1672.628540	895.570740	5.134262
840.549072	850.840515	1747.674316	891.632629	4.548459
840.851563	851.732117	1778.732788	898.914307	5.089769
841.154053	851.955078	1788.540649	903.595398	5.513679
841.456482	857.081848	1740.986938	902.035095	5.085755
841.758850	854.109802	1690.461060	890.741028	4.379885
842.061157	851.806396	1632.802246	881.230286	3.767483
842.363403	841.403992	1584.579712	877.663757	4.879030
842.665588	849.354431	1526.326538	881.824707	4.796398
842.967712	849.280090	1488.580688	876.251953	4.218964
843.269775	851.583435	1459.454102	881.007324	4.840485
843.571777	845.193359	1440.284058	882.493408	6.267961
843.873840	844.896179	1417.993164	880.710205	6.249208
844.175659	850.394592	1398.377319	877.886658	5.016958
844.477600	853.218079	1399.491821	870.604980	3.182818
844.779297	858.122131	1383.516602	875.583252	3.323431
845.081116	855.744446	1374.971802	878.406738	4.364618
845.382751	854.778503	1344.359009	879.892822	5.129763
845.684387	850.023132	1334.848389	881.601746	6.513401
845.985962	849.205811	1323.034302	879.372742	6.366635
846.287537	853.069580	1314.117920	875.434570	4.850899
846.588989	855.224365	1300.297607	876.400574	4.757915
846.890381	855.595886	1296.508179	869.267395	3.100732
847.191711	846.382324	1302.080933	872.462463	5.723112
847.493042	847.868347	1302.675293	866.444031	4.084301
847.794250	847.050964	1291.529907	870.902161	5.366103
848.095459	846.382324	1284.768433	866.889832	4.677956
848.396606	838.134766	1277.932617	868.450195	6.893037
848.697693	836.871582	1273.325806	862.803223	5.941434
848.998657	841.255371	1264.929565	865.180847	5.647141
849.299622	845.119141	1265.523926	869.341797	5.761746
849.600464	848.239929	1260.545654	872.908386	5.983050
849.901367	847.422546	1259.876953	869.787598	5.422430
850.202087	853.366699	1248.954468	870.456360	4.320068
850.502808	848.834229	1248.880249	877.515137	7.169402
850.803467	853.440918	1237.363281	880.041443	6.928621
851.104065	853.961121	1235.580078	883.236511	7.671367
851.404663	857.527649	1235.505737	884.425293	7.116191
851.705139	857.379089	1238.849365	887.545959	7.908052
852.005615	854.629883	1227.703857	880.784485	7.010567
852.306030	861.168457	1228.892700	871.868164	2.909709
852.606384	863.100403	1227.406616	872.313965	2.529071
852.906616	865.255188	1239.963745	873.056946	2.082087
853.206909	857.007629	1234.316772	873.576965	4.391448
853.506958	852.400879	1237.511719	870.902161	4.804145
853.807129	847.942627	1230.007202	877.217957	7.662404
854.107178	846.679443	1228.595581	876.697815	7.859938
854.407166	840.586731	1220.942261	874.914551	9.025193
854.707092	845.119202	1216.335571	866.592712	5.784635
855.007019	852.549500	1211.357300	871.422302	5.259864
855.306763	852.698059	1197.165405	874.394348	6.298504
855.606567	858.345032	1203.258301	874.394348	4.653145
855.906250	853.366699	1199.765991	874.171570	6.006037
856.205933	854.481262	1208.756714	865.106628	2.999182
856.505493	844.376160	1208.756714	862.877625	5.077512
856.805054	845.564941	1219.827759	858.345032	3.414737
857.104492	847.199524	1219.753540	871.793884	6.601555
857.403931	844.747559	1219.530518	875.954773	8.326743
857.703308	842.444153	1214.849487	879.595642	9.976089
858.002563	841.924072	1214.329468	877.886658	9.656837
858.301819	841.255371	1209.945435	873.651367	8.786783
858.601013	844.747559	1206.973389	873.577087	7.958993
858.900208	849.800110	1198.874390	868.821716	5.449157
859.199219	847.348206	1190.032349	873.948547	7.762350
859.498291	846.010803	1176.955078	868.375977	6.757987
859.797302	839.546387	1184.311157	868.524475	8.405177
860.096191	852.400879	1181.487549	868.078674	4.764032
860.395020	856.264587	1186.837402	871.719482	4.675186
860.693787	860.128357	1180.744629	872.165344	3.754328
860.992554	858.419373	1183.939575	867.038513	2.647805
861.291260	848.388489	1176.732300	867.632996	5.861084
861.589844	844.153259	1177.177979	866.889893	6.827311
861.888428	846.976746	1169.376343	872.165344	7.812850
862.186890	859.088074	1180.744629	875.434570	5.081972
862.485413	865.849609	1183.196533	873.354187	2.364787
862.783813	866.666992	1190.923950	869.416199	0.847848
863.082153	859.236633	1184.311035	868.227295	2.765724
863.380371	853.441101	1185.276978	873.428528	6.023287
863.678589	844.153137	1185.648560	879.001221	10.204554
863.976746	844.673340	1180.373169	875.880371	9.296112
864.274902	843.781738	1173.834351	870.976379	8.239487
864.572937	852.995300	1166.775513	867.409973	4.593876
864.870911	860.202637	1172.496948	863.843445	1.165826
865.168884	863.026184	1173.685669	862.431702	-0.191361
865.466736	855.670166	1170.490723	860.425476	1.510483
865.764587	847.794006	1173.314331	860.722656	3.971688
866.062317	857.007507	1176.137817	866.592590	3.003501
866.360107	859.088074	1179.332642	857.676270	-0.440852
866.657715	861.465637	1174.800293	860.722717	-0.237101
866.955322	850.840393	1176.955078	853.292480	0.751910
867.252808	851.583496	1177.103638	860.054016	2.602149
867.550293	845.044861	1180.893188	854.927063	2.942460
867.847717	847.942688	1164.695190	855.075684	2.251915
868.145081	846.010803	1168.410278	855.670166	2.996085
868.442383	854.555603	1159.939819	858.419373	1.265216
868.739624	855.818665	1158.750977	865.626709	3.237702
869.036804	851.509094	1151.840820	871.496582	6.655137
869.333984	847.571106	1154.664307	872.982666	8.274869
869.631042	851.732117	1160.385742	866.295410	4.718329
869.928101	855.150085	1165.958374	861.391418	2.008097
870.224976	863.620422	1169.450562	865.626709	0.656013
870.521851	858.196472	1171.159546	873.428528	4.867046
870.818726	864.660706	1171.976807	871.793884	2.321121
871.115479	859.088074	1168.113159	868.153015	2.933400
871.412231	860.871338	1167.815918	861.837341	0.314716
871.708862	856.784668	1160.980103	866.592590	3.224217
872.005493	851.063293	1165.735352	859.236633	2.597415
872.302063	855.149963	1169.376221	870.307800	4.823861
872.598572	856.636047	1169.301880	868.227234	3.707212
872.895020	853.886902	1166.998535	876.326233	7.166559
873.191406	844.747620	1166.032593	867.038513	6.938044
873.487671	845.639343	1164.843750	864.809387	6.005570
873.783997	855.967468	1167.815796	866.518372	3.383344
874.080200	857.007629	1175.394775	868.078674	3.477227
874.376343	855.001465	1177.252319	870.233459	4.726751
874.672424	842.741455	1174.874634	867.187073	7.360185
874.968445	847.348145	1165.066650	863.620605	5.121660
875.264465	848.388428	1164.992310	861.911560	4.271310
875.560364	857.007568	1159.716919	866.221191	3.043719
875.856201	855.150085	1159.419678	870.307800	4.981673
876.152039	857.453430	1170.565063	870.010559	4.010432
876.447754	857.304871	1172.199707	864.883728	2.406790
876.743469	855.744446	1178.143921	857.899231	0.668359
877.039063	844.598938	1170.936523	858.196472	4.166708
877.334595	846.159363	1172.051025	858.939392	3.921558
877.630127	845.490723	1175.914795	861.465759	4.834707
877.925537	848.982910	1175.469116	867.558594	5.689577
878.221008	847.719727	1183.865234	872.908386	7.493380
878.516296	850.246033	1187.134644	878.332458	8.337007
878.811646	851.509216	1195.902222	875.508972	6.968712
879.106812	842.518555	1207.939331	873.502747	8.479045
879.401978	843.410156	1227.258057	869.044617	6.678286
879.697083	848.314148	1263.146362	865.329529	4.101750
879.992126	856.933289	1296.656738	866.518372	2.179798
880.287109	862.060242	1348.891602	861.614319	-0.091597
880.582031	860.276855	1424.308960	865.552429	0.935332
880.876892	858.790833	1570.536743	867.558594	1.231867
881.171753	853.515381	1847.017090	888.066162	3.477677
881.466492	847.199646	2299.594971	913.923523	4.594058
881.761230	851.806396	2898.103516	948.622864	4.731300
882.055786	850.171692	3484.797607	978.641113	4.876192
882.350403	857.007568	3866.490967	1001.526367	4.802113
882.644958	850.394714	3918.725586	1008.139221	5.141053
882.939453	846.679504	3696.931885	1000.486084	5.396244
883.233826	837.763184	3336.860596	981.836121	5.764999
883.528137	838.729187	2942.239258	957.539246	5.648181
883.822449	845.267761	2588.781250	940.746765	5.476242
884.116577	851.286316	2277.601318	922.319641	4.980199
884.410828	857.676270	2047.411499	908.945251	4.309277
884.704956	858.047852	1862.249146	895.942200	3.773581
884.999023	856.636169	1716.244263	893.861755	4.330530
885.292969	851.955078	1602.486816	891.409729	5.256893
885.586914	848.314270	1509.162476	890.592468	6.397566
885.880798	854.332703	1456.407593	885.242676	5.133908
886.174622	859.831055	1414.129395	885.614197	4.651492
886.468384	864.214905	1385.894165	877.143616	2.478287
886.762085	864.215027	1356.916138	873.131287	1.809669
887.055664	858.790833	1331.281860	858.196472	-0.125793
887.349304	856.784668	1303.864136	862.877441	1.362794
887.642822	847.199646	1273.177124	864.066345	3.959528
887.936340	844.673340	1246.428101	868.078674	5.825777
888.229736	840.809570	1216.632690	868.821716	7.453545
888.523071	841.626953	1202.738159	865.700989	6.666654
888.816284	851.657776	1186.243042	870.010498	5.485215
889.109619	858.939453	1174.725952	870.084778	3.529386
889.402710	867.409973	1159.791138	869.490295	0.711510
889.695862	867.930115	1145.673584	870.456360	0.909561
889.988892	864.363525	1138.243286	868.970398	1.682078
890.281921	855.298645	1131.036011	871.125122	5.739693
>>>>>End Processed Spectral Data<<<<<
