Jaz Data File
++++++++++++++++++++++++++++++++++++
Date: Fri Jun 04 13:52:42 2021
User: jaz
Dark Spectrum Present: Yes
Reference Spectrum Present: Yes
Processed Spectrum Present: Yes
Spectrometers: JAZA3586
Integration Time (usec): 35500 (JAZA3586)
Spectra Averaged: 10 (JAZA3586)
Boxcar Smoothing: 1 (JAZA3586)
Correct for Electrical Dark: No (JAZA3586)
Strobe/Lamp Enabled: Yes (JAZA3586)
Correct for Detector Non-linearity: No (JAZA3586)
Correct for Stray Light: No (JAZA3586)
Number of Pixels in Processed Spectrum: 2048
>>>>>Begin Processed Spectral Data<<<<<
W	D	R	S	P
191.335022	0.000000	0.000000	0.000000	0.000000
191.713211	271.353546	272.765289	272.988190	115.789017
192.091385	547.833984	552.217834	558.979309	254.235992
192.469528	828.698242	830.110046	840.809570	857.861755
192.847641	839.026306	838.283264	853.515320	-1949.958984
193.225739	849.428711	847.273926	858.345032	-413.791626
193.603790	860.648438	858.790833	866.889832	-335.991455
193.981842	871.199402	870.233582	863.026123	846.252502
194.359863	869.862000	870.605042	857.527771	-1659.963867
194.737854	871.050781	879.075500	858.567932	-155.554962
195.115829	871.050781	874.617371	871.645203	16.666382
195.493774	873.577087	877.292236	876.846375	87.998817
195.871704	873.502747	867.484192	879.818542	-104.938744
196.249603	877.663757	871.422302	874.765930	46.428711
196.627457	879.075500	872.685486	873.279785	90.699562
197.005310	874.543030	876.623474	868.450195	-292.862183
197.383133	868.078796	881.750305	874.765930	48.912918
197.760910	879.372742	875.434570	875.806152	90.564606
198.138687	886.951599	871.422302	875.063171	76.554832
198.516449	885.539856	862.357422	862.654602	98.718079
198.894180	875.211731	859.905457	865.700989	62.136230
199.271866	874.468750	863.100403	867.558594	60.784176
199.649536	881.453186	861.763000	866.592590	75.472099
200.027191	885.911377	869.267578	870.010559	95.535988
200.404816	876.326355	868.895996	872.685547	48.999088
200.782410	873.948547	884.722473	876.103455	20.001133
201.159988	868.821777	893.564514	870.456360	6.606313
201.537537	865.923889	907.830627	863.397644	-6.028255
201.915070	863.323303	905.230042	865.700989	5.673755
202.292557	861.911560	911.471497	862.803162	1.799037
202.670029	863.249023	913.551941	865.552429	4.579070
203.047485	858.493652	916.226868	869.713318	19.433641
203.424911	857.156189	913.626221	871.570862	25.526236
203.802292	863.843445	905.007141	870.233398	15.523274
204.179688	863.992004	900.400391	862.951843	-2.856927
204.557037	866.369690	898.096985	864.809387	-4.917856
204.934357	863.249023	900.326111	867.484192	11.422603
205.311661	869.713318	903.892578	872.239563	7.391164
205.688934	863.769104	908.722351	867.187073	7.603385
206.066177	864.215027	908.499329	863.694824	-1.174689
206.443390	855.001404	912.883240	862.877502	13.607203
206.820587	858.567871	905.824524	855.001465	-7.546887
207.197769	857.973450	907.236267	859.831116	3.770929
207.574921	863.843445	896.908203	853.218201	-32.134651
207.952042	858.642273	897.948425	861.242859	6.616231
208.329147	851.063416	899.062927	863.620544	26.160952
208.706223	852.623718	922.096741	875.508972	32.941208
209.083267	848.537109	921.427979	871.422302	31.396515
209.460297	848.759949	921.799500	859.310974	14.445633
209.837280	846.456543	900.474609	847.273926	1.513166
210.214264	853.515381	902.406494	853.366760	-0.303983
210.591217	860.945618	898.468445	860.871338	-0.197959
210.968124	860.276917	900.251709	861.168518	2.230409
211.345016	860.276917	903.818176	863.026062	6.313886
211.721893	855.818787	903.743958	860.202576	9.147154
212.098724	852.549377	903.149597	857.750549	10.278951
212.475555	851.360535	893.044434	852.623718	3.030387
212.852356	849.577332	891.855469	850.320313	1.757365
213.229126	854.481262	895.496399	857.453369	7.246366
213.605865	851.955017	900.474609	862.877502	22.511494
213.982590	857.081848	907.533447	865.478088	16.642168
214.359283	851.880676	910.654114	862.283142	17.699265
214.735931	851.583435	913.180481	853.886902	3.739573
215.112579	849.428711	910.951355	853.589661	6.763282
215.489197	849.057129	908.573669	852.698059	6.117510
215.865799	858.567932	906.939026	861.168518	5.376322
216.242355	865.255188	909.911133	857.602051	-17.138002
216.618896	867.781494	907.087646	865.849609	-4.914968
216.995407	864.586426	911.397217	857.230469	-15.714233
217.371902	855.744446	908.796570	853.589661	-4.061638
217.748367	853.515320	907.236145	841.403992	-22.544941
218.124802	853.441101	905.601563	838.803406	-28.062819
218.501236	859.088074	907.013367	842.295654	-35.038742
218.877609	860.574158	909.019531	847.868347	-26.227087
219.253983	852.549500	910.654114	850.246033	-3.964344
219.630295	851.657715	910.133972	858.493652	11.690107
220.006592	846.307922	917.415710	857.230469	15.360549
220.382889	853.812500	923.285645	854.852783	1.497389
220.759140	850.023132	918.455872	846.307922	-5.428995
221.135391	854.035461	911.991638	842.147034	-20.512789
221.511581	848.091309	913.254822	839.992188	-12.428920
221.887772	845.787903	923.285645	840.438049	-6.903238
222.263931	840.066589	934.876770	846.753723	7.053181
222.640060	845.490662	927.743713	849.057190	4.336044
223.016159	848.165527	925.737610	854.629883	8.333353
223.392212	853.812561	920.759338	853.589661	-0.332952
223.768265	848.685730	930.418701	852.103577	4.181723
224.144302	848.759949	938.666321	844.747620	-4.462786
224.520294	844.450378	940.672546	842.667175	-1.853215
224.896286	848.388428	941.266846	851.286194	3.119956
225.272217	849.428711	938.443359	859.236633	11.018324
225.648148	853.292480	945.947937	857.824951	4.891747
226.024048	852.326477	948.177063	857.899231	5.814001
226.399902	854.778503	952.858093	852.103699	-2.727178
226.775772	853.366760	953.824036	857.676331	4.289953
227.151581	853.738281	959.916931	857.527771	3.568975
227.527374	854.184082	970.764954	856.338867	1.848318
227.903137	854.258362	989.563538	854.555603	0.219682
228.278870	852.475098	1011.780090	854.258301	1.119364
228.654572	849.800232	1037.117310	864.363586	7.774707
229.030273	847.868347	1065.649536	865.106506	7.915357
229.405930	846.902405	1084.151001	861.168518	6.013150
229.781555	845.193542	1090.912598	850.468933	2.146920
230.157181	849.800232	1079.024170	850.171692	0.162051
230.532761	848.611328	1069.216187	856.784668	3.704968
230.908325	847.719727	1061.414429	864.140625	7.684279
231.283859	847.868347	1055.544434	863.248962	7.406060
231.659332	855.224304	1042.244263	862.877441	4.092150
232.034821	854.629883	1037.488892	857.007507	1.300250
232.410263	854.852783	1031.321777	857.899170	1.726301
232.785690	849.280090	1029.612671	854.629883	2.966626
233.161087	853.812500	1026.640625	863.620544	5.675028
233.536469	851.880676	1029.612793	871.199463	10.869609
233.911804	852.475098	1036.522827	874.468750	11.949972
234.287140	851.063416	1041.872681	873.354187	11.682227
234.662430	857.453369	1056.733276	863.620544	3.094730
235.037704	866.072510	1061.340210	859.905334	-3.158318
235.412933	867.112793	1065.872437	858.716553	-4.224319
235.788162	862.951843	1061.117065	860.797058	-1.087368
236.163345	857.602051	1066.541260	857.750671	0.071131
236.538513	858.122131	1063.123291	853.292480	-2.355914
236.913635	860.499817	1074.343018	849.577332	-5.107708
237.288742	859.385254	1084.596802	849.577332	-4.354982
237.663834	854.704163	1099.457397	852.772278	-0.789319
238.038879	853.961121	1096.856812	853.440979	-0.214142
238.413910	854.035461	1095.890747	853.292480	-0.307201
238.788910	858.196472	1099.085815	850.320313	-3.269617
239.163879	854.184082	1112.683228	852.623779	-0.603601
239.538834	857.602051	1129.549805	851.360657	-2.295071
239.913757	858.419373	1144.038940	844.970520	-4.708659
240.288651	851.211975	1162.986206	851.137695	-0.023825
240.663528	846.753845	1184.756836	856.636047	2.923702
241.038361	842.518555	1231.270508	865.849609	6.001527
241.413177	852.549500	1291.604248	856.264465	0.846128
241.787979	850.171692	1352.978271	858.270691	1.610758
242.162735	844.673340	1402.389648	865.923889	3.810279
242.537476	835.979797	1439.912476	874.691650	6.409962
242.912170	834.865295	1474.091675	886.505798	8.078594
243.286865	836.871582	1479.961548	882.344788	7.071049
243.661514	838.580566	1464.506470	883.756531	7.217462
244.036148	838.431885	1433.002319	881.304504	7.210688
244.410751	842.369934	1407.813599	878.481018	6.386327
244.785339	850.691895	1388.346313	880.487244	5.541728
245.159882	851.434875	1400.309082	878.629639	4.954644
245.534378	855.595886	1450.537720	875.211670	3.297093
245.908890	849.428711	1523.874512	869.341797	2.952511
246.283356	859.979736	1633.991211	870.679382	1.382363
246.657791	855.521484	1747.822876	884.425293	3.239243
247.032196	860.128235	1857.642212	894.679016	3.463689
247.406586	852.029297	1928.006958	893.861633	3.887844
247.780960	856.784668	1950.669312	887.694580	2.825701
248.155289	856.561829	1930.904785	887.991882	2.925514
248.529602	860.722717	1853.555664	881.824707	2.125432
248.903870	856.413147	1757.259399	875.731873	2.144509
249.278122	857.007568	1672.479980	867.929993	1.339398
249.652344	859.979675	1611.254517	874.840271	1.978050
250.026550	858.567871	1568.456177	879.447021	2.941188
250.400711	859.682434	1529.595825	877.812317	2.706302
250.774857	852.177917	1515.849976	877.812317	3.862510
251.148987	852.029297	1526.995239	876.995056	3.698818
251.523071	851.880676	1554.561523	869.787659	2.548381
251.897125	857.304871	1585.099976	861.317200	0.551299
252.271164	859.533875	1610.437134	865.106628	0.742140
252.645187	860.425476	1618.387573	878.332520	2.362525
253.019165	857.973450	1605.681763	883.385071	3.398601
253.393112	867.484192	1576.703735	882.344788	2.095345
253.767044	856.710388	1549.286133	879.447021	3.282909
254.140930	855.001282	1523.577271	870.084900	2.256081
254.514801	841.998352	1499.057251	872.908386	4.704302
254.888657	843.187256	1485.608521	875.954773	5.100628
255.262466	848.388489	1492.072876	888.511963	6.233408
255.636276	849.948914	1505.521606	887.843262	5.780343
256.010010	858.270752	1538.437866	887.397400	4.282278
256.383759	850.097351	1575.217773	887.545959	5.164467
256.757446	850.097412	1627.006714	880.635803	3.930754
257.131134	843.484436	1678.795776	882.121887	4.625515
257.504791	846.976746	1736.603149	881.527405	3.883727
257.878418	849.874512	1819.004883	890.146667	4.155494
258.252014	858.790833	1925.183594	886.431458	2.591974
258.625580	856.413147	2068.662109	883.905212	2.267856
258.999115	845.193420	2249.366211	880.264343	2.497622
259.372650	838.506165	2445.302490	890.369446	3.227744
259.746124	837.391602	2622.291504	900.103210	3.513453
260.119598	850.023132	2734.042969	908.573669	3.107745
260.493042	848.314148	2765.175781	911.694336	3.306456
260.866425	849.502991	2698.154541	911.620117	3.360132
261.239838	854.778564	2575.109375	905.527344	2.949943
261.613159	857.156189	2406.665039	902.183777	2.905927
261.986511	866.444031	2265.192627	898.171387	2.268267
262.359802	863.694885	2155.819092	897.725525	2.633697
262.733063	871.868164	2096.674316	893.564453	1.771406
263.106293	866.741211	2066.878662	887.917480	1.764487
263.479523	863.026123	2040.947266	893.341614	2.573643
263.852692	858.196472	2024.229126	887.471680	2.510668
264.225861	850.246094	2006.396484	891.186829	3.541125
264.598969	856.338867	2011.820435	881.378906	2.167065
264.972076	851.657898	2043.176270	888.883484	3.124214
265.345154	853.441101	2101.281006	894.827698	3.316659
265.718201	844.450439	2160.351807	906.641785	4.726140
266.091217	850.246094	2224.920654	909.762512	4.329492
266.464203	852.475159	2274.852295	908.499329	3.938770
266.837158	848.537109	2345.068115	912.883301	4.299690
267.210114	844.227539	2398.417725	910.951416	4.293160
267.583038	841.255371	2442.181885	911.620117	4.395251
267.955902	843.187256	2446.416992	905.750183	3.902306
268.328766	845.119141	2441.216064	910.877014	4.119917
268.701569	846.753723	2450.206787	907.607727	3.795184
269.074371	854.332703	2472.719971	907.756348	3.301042
269.447144	846.084961	2516.781738	911.991638	3.944862
269.819885	853.961121	2597.028809	919.570374	3.764011
270.192596	851.137634	2728.544678	925.068848	3.937943
270.565277	856.561768	2884.431641	921.279480	3.191413
270.937927	850.394714	3046.708252	921.279480	3.227443
271.310577	852.772278	3170.348389	926.554932	3.183613
271.683136	850.840515	3280.836670	936.437195	3.522503
272.055725	851.955017	3310.260498	946.839539	3.859753
272.428284	854.184082	3291.982422	940.152344	3.526471
272.800812	862.580261	3222.806641	936.437195	3.129231
273.173279	861.911560	3124.800781	936.585754	3.299949
273.545776	856.338867	3066.993408	937.031555	3.650172
273.918152	853.218079	2999.675049	932.424805	3.690115
274.290558	853.738281	2993.582031	926.629211	3.406367
274.662964	852.029297	2968.393555	929.452698	3.658321
275.035278	849.502991	2981.991211	935.248352	4.020906
275.407593	850.171692	3012.232422	930.344421	3.708163
275.779907	856.264465	3076.207031	932.796387	3.447473
276.152161	857.453369	3147.388916	925.440430	2.968951
276.524384	853.812500	3201.481201	933.836609	3.408663
276.896606	851.211914	3234.026123	930.195801	3.314731
277.268799	854.778503	3246.063232	944.016113	3.731785
277.640930	857.379089	3250.966797	942.975830	3.576086
278.013031	853.738281	3262.557861	954.641357	4.188901
278.385162	846.679504	3274.149414	947.879822	4.168962
278.757233	842.518555	3295.251221	950.257507	4.392609
279.129272	839.546448	3323.858154	944.313293	4.217138
279.501282	841.849792	3370.371338	943.793152	4.031738
279.873230	842.295654	3436.129150	937.626038	3.675270
280.245178	842.592773	3536.438232	941.192566	3.660187
280.617126	846.828064	3684.151611	947.285339	3.540565
280.988983	849.428711	3826.515869	957.390442	3.626422
281.360870	852.177917	3967.468018	965.638184	3.642045
281.732697	849.428711	4072.309326	973.588562	3.852450
282.104492	851.286316	4119.491211	970.765137	3.655793
282.476288	853.143860	4130.339844	966.901367	3.471184
282.848053	852.475098	4098.835449	958.728027	3.272986
283.219757	853.738281	4112.507324	964.449402	3.397330
283.591461	852.623718	4101.881348	962.591797	3.384406
283.963135	846.679504	4120.160156	964.597900	3.602233
284.334747	842.072754	4179.973633	972.102478	3.895554
284.706360	843.261536	4275.304199	981.464600	4.026845
285.077942	856.041687	4402.064453	986.071472	3.666919
285.449524	858.345032	4495.389160	978.715515	3.309569
285.821014	855.372864	4541.382324	974.331543	3.227303
286.192535	854.035461	4594.880371	980.795898	3.388551
286.563995	856.636047	4609.518066	982.579163	3.355904
286.935425	861.688660	4594.880371	987.408875	3.367634
287.306824	854.109802	4487.364258	978.269592	3.417316
287.678223	853.812561	4381.780762	973.217102	3.384513
288.049561	849.948792	4314.387207	969.650574	3.455157
288.420898	850.840515	4303.242188	964.523743	3.292874
288.792145	851.360596	4352.430176	973.291321	3.482671
289.163452	855.224365	4446.126465	968.833191	3.163796
289.534668	855.893066	4582.546387	982.579102	3.399459
289.905914	855.967285	4720.229004	980.944519	3.234181
290.277039	853.738281	4856.500000	995.656433	3.545506
290.648193	849.280090	4915.496094	996.696716	3.625401
291.019318	849.280090	4921.440918	1001.303406	3.733234
291.390381	850.171692	4841.565918	996.027893	3.654267
291.761475	853.218079	4759.535156	988.894958	3.473269
292.132507	845.862244	4684.043457	988.003235	3.703342
292.503510	849.725891	4670.371582	985.031189	3.541425
292.874481	850.023193	4704.997070	985.476990	3.513741
293.245422	853.961243	4813.850586	986.517273	3.347468
293.616364	853.515442	4969.217285	996.399475	3.471681
293.987213	857.304749	5155.494629	1006.653259	3.474684
294.358093	857.899231	5309.969727	1001.303467	3.221069
294.728943	853.366699	5451.888184	996.770996	3.118487
295.099731	846.159363	5578.054199	998.777161	3.225300
295.470490	847.125305	5698.052734	1016.684082	3.495389
295.841248	846.382324	5826.447754	1032.436279	3.735974
296.211975	853.143799	5961.604004	1044.547607	3.746801
296.582642	850.394592	6119.200684	1052.423706	3.834438
296.953308	853.515320	6189.639160	1052.795288	3.734545
297.323883	858.122131	6196.400879	1051.309082	3.618900
297.694519	860.945618	6066.668457	1038.008911	3.401320
298.065063	861.168457	5914.645020	1030.578735	3.352351
298.435608	852.029236	5713.730469	1022.999817	3.516682
298.806122	851.509094	5482.055176	1018.764587	3.612004
299.176575	851.360535	5256.843750	1002.417969	3.428850
299.547028	853.738281	5102.293457	994.021790	3.301911
299.917450	851.063293	5059.197754	991.421143	3.335394
300.287872	846.605225	5044.337402	997.662598	3.598547
300.658234	843.781677	5027.916504	998.628601	3.700811
301.028564	845.639221	4980.065918	995.804993	3.632082
301.398865	846.382263	4945.812012	994.839111	3.621403
301.769135	851.583496	4880.945801	991.421204	3.470468
302.139374	852.623718	4828.116699	997.291199	3.638982
302.509583	850.097473	4773.429688	997.142578	3.747965
302.879791	847.199707	4712.724121	996.176575	3.853989
303.249939	849.577332	4651.721680	992.981628	3.771669
303.620087	856.561768	4590.793457	986.368652	3.476134
303.990173	855.150085	4576.676270	986.963074	3.541907
304.360260	852.623779	4570.137207	975.297424	3.299884
304.730286	851.732117	4584.403809	976.040527	3.330280
305.100281	849.800232	4562.409668	975.297546	3.380300
305.470276	849.502991	4572.440918	977.898132	3.448759
305.840179	854.927185	4589.679199	977.749512	3.288634
306.210144	855.298645	4624.229980	982.950623	3.386954
306.579987	856.859070	4651.276855	984.733887	3.370077
306.949890	845.862122	4688.427246	990.009460	3.751331
307.319702	852.029297	4780.562988	991.569824	3.551975
307.689484	856.561768	4901.824707	1001.526367	3.583564
308.059265	857.453430	5041.662598	1004.498535	3.514287
308.429016	852.623718	5156.757813	1006.058899	3.564833
308.798737	846.753845	5250.527344	1004.349915	3.578660
309.168396	847.645508	5298.750000	1006.950500	3.578999
309.538055	849.503113	5319.628906	999.222961	3.349343
309.907684	850.543274	5307.814453	997.291077	3.292324
310.277313	851.880798	5322.452637	1001.600586	3.349008
310.646851	855.372986	5322.452637	1009.848328	3.458083
311.016388	852.549500	5318.216797	1015.866760	3.657175
311.385895	856.933289	5276.979004	1012.151672	3.511692
311.755371	854.109680	5218.576660	1006.578918	3.493422
312.124817	853.589661	5163.667480	1004.275574	3.496130
312.494232	847.125305	5077.625488	1006.950500	3.777927
312.863617	851.434875	5040.919434	1004.572754	3.655292
313.232971	856.636169	5043.743164	1010.219788	3.668013
313.602295	858.270813	5137.290527	1011.854431	3.589225
313.971619	858.865173	5252.459473	1017.204285	3.603863
314.340820	853.069519	5297.486816	1010.368347	3.539245
314.710083	859.459534	5286.267090	1002.269348	3.226023
315.079285	857.081848	5200.670410	994.170410	3.156113
315.448486	860.053955	5126.516113	999.148743	3.260190
315.817596	851.583496	4988.907715	996.696777	3.507419
316.186707	850.246033	4853.156250	1000.411865	3.751416
316.555786	851.434875	4710.123535	988.226135	3.545019
316.924866	847.199646	4644.291992	992.833008	3.835392
317.293884	844.524719	4622.298340	990.529602	3.864839
317.662872	841.478333	4651.721680	990.158020	3.902105
318.031830	841.478333	4677.578613	983.025085	3.689861
318.400757	844.450439	4728.104980	979.830078	3.485883
318.769684	847.422546	4767.782715	981.018860	3.407756
319.138550	852.697998	4776.996094	978.269714	3.199852
319.507416	851.137695	4745.046387	980.275818	3.316414
319.876190	852.029297	4667.474121	981.538879	3.394351
320.244995	855.298645	4604.316895	974.331543	3.175042
320.613770	858.419373	4537.815430	970.913757	3.057415
320.982483	858.419250	4522.583496	966.901367	2.960624
321.351166	861.688660	4552.824707	981.910461	3.257041
321.719818	863.917725	4627.721680	982.504883	3.150726
322.088440	862.803223	4774.172363	985.105469	3.126840
322.457062	863.100403	4950.121094	990.529602	3.117899
322.825623	859.310974	5145.611816	1004.572815	3.388979
323.194183	860.648438	5316.285156	1021.662415	3.613714
323.562653	858.270691	5412.507324	1018.467468	3.517533
323.931183	857.527649	5452.482422	1018.616028	3.505766
324.299591	860.276855	5411.095703	1011.408630	3.320980
324.668060	857.973572	5345.263672	1012.077332	3.434228
325.036407	859.831055	5245.400391	1007.321960	3.363096
325.404755	857.824951	5149.252441	1001.452148	3.346839
325.773102	851.955078	5052.139160	996.993958	3.453155
326.141388	847.868347	4981.774902	999.743164	3.673881
326.509674	846.679504	4891.125000	1000.560364	3.804745
326.877899	855.670166	4812.587402	998.405701	3.607241
327.246124	865.626770	4748.240723	991.198425	3.234204
327.614288	864.363586	4701.504395	983.619446	3.107935
327.982422	856.710388	4688.724609	984.734070	3.340898
328.350525	846.828125	4678.991211	984.288147	3.587009
328.718628	841.775574	4722.829590	994.244812	3.928552
329.086700	846.530945	4780.859863	997.142517	3.828139
329.454712	848.537109	4845.578125	1003.532532	3.877754
329.822693	858.790833	4883.323730	1000.411865	3.518943
330.190674	863.249023	4936.598145	1001.674988	3.398333
330.558563	865.180847	4986.158691	1004.275635	3.375286
330.926483	856.413086	5059.644043	1008.733826	3.623897
331.294312	847.571106	5157.054199	1011.557312	3.805241
331.662231	840.735291	5279.282715	1016.238342	3.954065
332.029999	844.970520	5398.687012	1023.297058	3.916066
332.397766	848.388489	5485.843750	1022.108215	3.746014
332.765503	855.818787	5546.771973	1019.433350	3.487875
333.133240	852.400818	5578.796875	1014.826599	3.436567
333.500916	855.893066	5570.400391	1027.309448	3.635934
333.868561	853.812561	5557.397949	1032.510620	3.799188
334.236176	852.549500	5523.441406	1031.841919	3.838505
334.603790	844.970642	5482.872559	1025.526123	3.893042
334.971344	843.484558	5428.853516	1018.690369	3.820975
335.338867	847.496887	5409.312500	1028.423950	3.966120
335.706360	852.698059	5401.139160	1025.154663	3.791554
336.073853	851.880676	5427.665039	1032.659180	3.950766
336.441284	852.549377	5448.618652	1024.411621	3.739331
336.808655	852.177917	5487.701660	1027.086548	3.773222
337.176086	853.366699	5541.868652	1025.451782	3.670364
337.543396	852.995178	5584.369141	1026.937866	3.676367
337.910706	852.697998	5600.492676	1031.693237	3.770071
338.277954	856.264587	5573.892578	1027.160767	3.622502
338.645264	851.063416	5518.240234	1031.916138	3.874992
339.012421	848.314148	5450.773438	1033.179321	4.016661
339.379669	846.159424	5347.269531	1039.495117	4.295289
339.746796	851.063293	5254.020020	1036.671509	4.215536
340.113953	859.682434	5197.697754	1030.355835	3.934366
340.481018	855.001465	5208.026367	1022.256836	3.842279
340.848114	847.794128	5234.478027	1020.102051	3.927977
341.215118	837.688904	5303.282227	1029.835571	4.302825
341.582153	839.769348	5414.216309	1047.296875	4.536669
341.949066	846.233704	5582.957520	1057.922119	4.469090
342.316010	850.023132	5803.042969	1062.157349	4.282927
342.682922	855.670105	6036.798828	1068.473022	4.107269
343.049835	856.338867	6356.003906	1086.751587	4.189577
343.416656	854.629883	6682.267090	1110.082642	4.383471
343.783478	842.369873	6983.192871	1127.098022	4.636645
344.150269	846.902405	7188.045410	1133.339355	4.517118
344.516998	842.964355	7271.264160	1131.333130	4.485926
344.883728	853.738281	7228.688965	1126.429199	4.277538
345.250427	852.029297	7106.534668	1126.354858	4.386047
345.617065	866.964111	6938.907715	1118.107422	4.136127
345.983704	859.385254	6775.888184	1107.184814	4.188278
346.350281	862.357361	6627.356934	1098.491455	4.095995
346.716827	856.413147	6463.965332	1089.872437	4.163301
347.083405	858.196472	6343.148438	1095.965210	4.334928
347.449860	857.676270	6240.536621	1094.627563	4.401959
347.816376	858.865173	6188.153809	1105.327271	4.624671
348.182770	860.722656	6168.463379	1106.739014	4.635048
348.549194	863.249023	6205.317871	1107.482056	4.571881
348.915558	852.177917	6307.855469	1107.704956	4.683690
349.281921	855.670166	6406.157715	1103.098267	4.457773
349.648193	852.103577	6459.804199	1115.432495	4.695845
350.014526	860.202576	6489.079590	1110.454224	4.445854
350.380737	855.967346	6523.407715	1114.615112	4.563749
350.746948	844.896240	6579.580566	1109.413940	4.612594
351.113159	842.147034	6634.267090	1115.209595	4.714380
351.479309	843.112976	6716.222656	1125.686157	4.811304
351.845428	842.072754	6846.698730	1133.116577	4.846993
352.211517	841.181152	6973.161621	1145.004883	4.954741
352.577576	844.301819	7135.290527	1152.583862	4.900375
352.943604	850.914795	7284.936035	1157.041992	4.757945
353.309601	852.252197	7473.293457	1155.704590	4.583152
353.675537	849.131531	7643.892578	1155.853149	4.514090
354.041473	851.955078	7805.426270	1173.016968	4.617290
354.407379	854.629883	7928.695313	1189.289307	4.730793
354.773254	856.338867	8102.637207	1208.087891	4.854189
355.139038	847.942627	8298.945313	1212.991821	4.899330
355.504913	848.537109	8589.691406	1234.465332	4.985409
355.870636	842.815735	8871.373047	1239.220825	4.937439
356.236389	848.462708	9196.670898	1253.486938	4.851631
356.602081	847.273926	9502.352539	1262.626221	4.798944
356.967804	852.920898	9757.805664	1284.768433	4.849558
357.333405	857.527649	9891.178711	1296.582520	4.860215
357.699036	852.177917	9910.200195	1301.560791	4.961159
358.064606	849.354431	9850.089844	1296.656860	4.969621
358.430176	844.376038	9767.018555	1295.245117	5.053089
358.795654	843.855957	9816.502930	1292.941772	5.005054
359.161163	841.775574	9987.845703	1305.721802	5.072629
359.526581	844.673279	10399.928711	1315.306763	4.925389
359.892029	848.388428	10962.995117	1349.188843	4.951260
360.257416	853.515320	11606.679688	1375.343384	4.852786
360.622772	853.292480	12185.051758	1410.339966	4.915807
360.988098	855.818787	12574.843750	1424.160156	4.849732
361.353394	859.831116	12781.034180	1434.116821	4.817347
361.718658	853.664001	12661.034180	1435.231445	4.925461
362.083893	858.419373	12238.327148	1418.884766	4.925043
362.449097	856.858948	11567.149414	1380.544556	4.889556
362.814209	863.100403	10814.983398	1333.065063	4.722369
363.179382	854.927063	10092.983398	1298.662964	4.803347
363.544434	852.549500	9522.934570	1282.390625	4.957579
363.909546	848.388489	9133.588867	1273.102661	5.126179
364.274536	850.691895	8928.364258	1262.254639	5.095066
364.639587	859.013855	8762.371094	1247.914185	4.920698
365.004517	852.995300	8689.183594	1243.530396	4.983738
365.369507	851.286316	8597.271484	1237.734741	4.989016
365.734344	837.168762	8561.903320	1242.192871	5.243211
366.099274	844.747620	8515.463867	1239.369263	5.144521
366.464081	842.518555	8463.377930	1240.260986	5.219128
366.828918	844.747559	8405.272461	1231.418945	5.114346
367.193665	851.360535	8331.043945	1220.050781	4.929223
367.558411	863.249023	8277.026367	1209.202515	4.666359
367.923126	866.295471	8180.357910	1205.338745	4.635499
368.287781	861.985840	8125.522949	1212.174683	4.821189
368.652435	849.725891	8082.873047	1209.128296	4.968825
369.017059	853.738281	8114.600098	1215.815430	4.986697
369.381653	858.568054	8127.603516	1214.700806	4.899312
369.746185	866.518372	8162.971191	1234.168091	5.038746
370.110687	859.756836	8255.924805	1242.415771	5.173746
370.475220	853.664001	8360.839844	1253.486938	5.325877
370.839661	852.623718	8465.680664	1246.353882	5.171775
371.204041	850.023132	8529.432617	1242.118530	5.105801
371.568451	847.199524	8531.438477	1235.134155	5.048446
371.932770	848.537109	8515.834961	1234.019531	5.027617
372.297150	854.258362	8453.495117	1229.858765	4.942607
372.661377	857.601990	8481.953125	1234.688354	4.945816
373.025696	852.920898	8504.836914	1233.722290	4.976550
373.389862	854.555481	8555.066406	1241.375610	5.023305
373.754059	855.818665	8609.828125	1244.719238	5.015477
374.118225	852.846619	8748.253906	1255.047363	5.094110
374.482361	848.165527	8956.450195	1259.877075	5.077665
374.846436	846.010742	9206.033203	1269.016235	5.059861
375.210510	852.697998	9523.676758	1274.440308	4.863838
375.574524	854.407043	9886.645508	1300.669189	4.940770
375.938538	851.657898	10264.177734	1326.526489	5.045074
376.302460	845.639343	10553.363281	1350.526245	5.200879
376.666412	845.787903	10752.421875	1350.972046	5.099453
377.030304	860.202637	10790.166992	1341.609985	4.848027
377.394196	860.053955	10678.711914	1326.823608	4.753905
377.757996	860.871338	10444.288086	1316.941406	4.758951
378.121796	844.747620	10090.383789	1299.034546	4.913528
378.485565	845.119141	9769.692383	1289.672241	4.981225
378.849304	846.753723	9469.583984	1272.954224	4.942698
379.212982	848.165527	9328.110352	1268.421875	4.955885
379.576630	850.171692	9203.208984	1270.873779	5.036517
379.940277	852.995300	9180.472656	1274.514526	5.061788
380.303864	861.762878	9131.952148	1276.149292	5.010603
380.667450	865.478027	9137.004883	1271.616821	4.910082
381.030945	862.505920	9131.506836	1267.752930	4.900798
381.394501	857.379089	9190.057617	1266.935669	4.915065
381.757935	856.858948	9276.992188	1271.616821	4.925788
382.121399	855.818787	9375.443359	1280.904663	4.989491
382.484741	858.345032	9530.290039	1282.836426	4.894996
382.848145	854.258362	9690.709961	1285.660034	4.882069
383.211487	855.372864	9838.645508	1291.158447	4.851079
383.574768	848.239807	9945.568359	1301.486450	4.982195
383.938019	851.211914	10011.772461	1305.424561	4.958350
384.301270	848.760010	10047.510742	1311.963013	5.035499
384.664459	853.069580	10074.706055	1317.684448	5.038312
385.027649	846.530945	10090.086914	1321.028076	5.133275
385.390778	847.868347	10213.948242	1320.730835	5.048670
385.753876	845.267822	10310.319336	1321.994019	5.036699
386.116943	849.131531	10452.757813	1325.040405	4.955513
386.479980	848.165527	10482.925781	1334.699829	5.049781
386.842987	846.382263	10545.859375	1339.975220	5.088861
387.205994	848.685730	10535.011719	1346.811035	5.142562
387.568909	845.267761	10538.280273	1338.935059	5.093022
387.931793	845.862244	10442.950195	1335.739990	5.104442
388.294678	844.896240	10398.293945	1328.755493	5.064787
388.657471	842.815735	10354.678711	1327.195190	5.092372
389.020294	845.342041	10426.456055	1328.681152	5.044707
389.383057	842.295654	10627.444336	1352.161011	5.210604
389.745819	848.388489	10868.629883	1366.129761	5.166954
390.108521	845.193420	11127.425781	1385.671387	5.256426
390.471191	851.063293	11414.085938	1390.278198	5.104741
390.833801	846.530823	11706.988281	1408.482422	5.174291
391.196442	844.599060	11956.942383	1413.980835	5.123868
391.558960	840.363770	12040.831055	1420.147827	5.176428
391.921509	836.797180	12010.885742	1421.039429	5.228545
392.284027	845.936523	11936.583008	1412.197632	5.105754
392.646484	850.840515	11859.606445	1403.801392	5.022914
393.008911	865.180969	11820.002930	1395.256470	4.838741
393.371307	865.106628	11827.284180	1399.491821	4.874809
393.733673	863.546204	11798.975586	1398.748657	4.894206
394.096008	849.948914	11721.254883	1398.525879	5.046100
394.458344	845.564941	11566.704102	1397.039673	5.143807
394.820587	837.317383	11327.968750	1385.597046	5.226364
395.182831	847.571106	11081.432617	1368.878906	5.093950
395.545013	848.165527	10795.739258	1350.972046	5.054564
395.907196	853.738342	10574.391602	1337.300415	4.974584
396.269287	851.880676	10445.848633	1328.086792	4.963599
396.631409	851.286316	10383.805664	1318.947632	4.905957
396.993469	847.422607	10345.316406	1322.216919	4.998943
397.355530	846.753845	10322.358398	1327.566772	5.074219
397.717499	848.611389	10374.889648	1339.157837	5.149403
398.079468	852.326477	10442.430664	1339.901001	5.084142
398.441376	857.676270	10468.583984	1351.046387	5.133439
398.803284	854.258362	10422.887695	1345.176514	5.130497
399.165131	855.298645	10390.046875	1351.046509	5.199381
399.526978	850.691833	10357.725586	1345.102173	5.200469
399.888763	848.314148	10348.437500	1342.873047	5.205816
400.250519	844.673340	10324.809570	1339.752441	5.222278
400.612244	842.221375	10340.263672	1337.597656	5.215562
400.973938	848.982910	10431.135742	1338.712158	5.110848
401.335602	844.673340	10551.729492	1339.752319	5.100197
401.697205	851.063477	10713.932617	1346.513794	5.023389
402.058807	851.880676	10898.277344	1359.888428	5.056617
402.420349	856.115967	11161.754883	1379.132813	5.075055
402.781860	852.623718	11431.547852	1395.776733	5.134294
403.143341	849.428711	11665.304688	1408.779663	5.171573
403.504822	857.304871	11895.270508	1417.695923	5.076941
403.866241	855.150085	12087.640625	1418.067383	5.011509
404.227631	858.047791	12246.872070	1419.850586	4.932930
404.588959	851.806335	12285.956055	1417.175781	4.944569
404.950287	853.961121	12233.422852	1418.736206	4.963109
405.311554	858.939453	12090.316406	1410.637207	4.912111
405.672821	857.750671	11928.930664	1406.401855	4.955670
406.034027	850.097412	11791.323242	1405.658813	5.077689
406.395203	837.911804	11598.059570	1397.931274	5.204571
406.756348	841.998474	11467.584961	1387.231812	5.131324
407.117493	845.044861	11372.179688	1374.154419	5.026150
407.478516	851.732117	11408.067383	1381.956421	5.022807
407.839600	847.422546	11491.881836	1393.027344	5.125717
408.200592	850.097412	11616.264648	1405.287476	5.156804
408.561554	850.246094	11786.195313	1414.277954	5.157594
408.922485	855.893066	11952.410156	1420.668091	5.089660
409.283417	848.462708	12082.440430	1428.915649	5.166941
409.644257	851.880676	12186.612305	1426.092163	5.065947
410.005096	841.924133	12252.221680	1426.686523	5.124865
410.365906	847.645447	12275.329102	1418.958984	4.999382
410.726715	837.317383	12271.019531	1422.228394	5.115674
411.087433	841.552734	12184.382813	1422.748535	5.123905
411.448120	849.725891	12124.569336	1421.782593	5.073744
411.808807	853.441101	12046.106445	1421.782715	5.077804
412.169434	854.035461	12015.940430	1417.844604	5.051191
412.530029	845.267761	12044.620117	1422.079712	5.150404
412.890564	844.747620	12127.393555	1428.989868	5.178238
413.251099	850.914734	12313.520508	1435.528687	5.100184
413.611572	854.481262	12452.690430	1439.392212	5.043114
413.972076	853.589661	12603.375977	1446.376587	5.045087
414.332489	856.190247	12722.780273	1453.955566	5.037381
414.692871	855.521545	12974.370117	1475.429077	5.115234
415.053223	856.784668	13198.913086	1481.744751	5.063633
415.413574	848.091309	13516.481445	1496.530884	5.118563
415.773834	854.258362	13758.114258	1503.292603	5.029770
416.134094	852.252258	14093.961914	1523.502930	5.069214
416.494263	851.955078	14421.860352	1536.654663	5.045721
416.854462	843.930359	14869.385742	1562.140259	5.120760
417.214630	846.010803	15347.226563	1575.886353	5.033203
417.574738	852.549377	15797.426758	1596.096680	4.975266
417.934784	856.338867	16319.479492	1613.780762	4.898370
418.294861	860.202637	16923.708984	1652.566772	4.932697
418.654846	856.784668	17649.349609	1700.566406	5.024734
419.014832	859.979675	18378.035156	1741.358521	5.031260
419.374756	850.617493	19157.396484	1778.361328	5.067761
419.734680	853.664001	19943.593750	1808.528198	5.001926
420.094543	847.868347	20587.423828	1838.174927	5.016864
420.454376	862.208801	20983.978516	1849.023071	4.904212
420.814148	858.270813	21232.150391	1860.020020	4.916831
421.173920	860.054016	21438.564453	1864.478149	4.880937
421.533691	854.629883	21534.044922	1885.431519	4.984675
421.893341	852.549377	21580.482422	1883.871094	4.975517
422.253021	846.159363	21530.255859	1880.304688	4.999712
422.612640	840.363770	21527.429688	1872.577148	4.989655
422.972260	843.856018	21507.888672	1869.307617	4.962495
423.331757	851.955078	21621.943359	1881.864868	4.958644
423.691315	855.744446	21800.494141	1886.248901	4.920108
424.050781	858.567932	21852.208984	1896.428345	4.943689
424.410248	852.400818	21653.003906	1876.069702	4.921342
424.769653	847.273926	21309.353516	1859.276978	4.945749
425.128998	844.673340	20898.757813	1829.184570	4.909280
425.488373	852.846680	20391.937500	1810.385742	4.900633
425.847656	857.304871	19901.984375	1793.073242	4.913542
426.206940	850.840515	19392.861328	1779.773071	5.009878
426.566193	841.998535	18947.861328	1748.045898	5.004166
426.925385	845.787903	18443.421875	1717.135864	4.951506
427.284576	847.348145	17931.400391	1678.498535	4.865066
427.643677	853.589600	17557.732422	1676.120728	4.924115
428.002777	850.543213	17268.173828	1661.037231	4.936729
428.361847	860.945618	17015.099609	1661.631714	4.956533
428.720856	860.202637	16717.369141	1648.480103	4.971112
429.079865	857.676270	16554.794922	1652.492554	5.063453
429.438812	850.543213	16522.695313	1641.792969	5.048762
429.797760	848.982849	16503.673828	1638.746460	5.044900
430.156616	845.416321	16372.528320	1615.564087	4.960019
430.515503	843.707336	16281.285156	1613.632202	4.987342
430.874268	839.546387	16294.214844	1604.195801	4.947692
431.233093	840.140869	16391.328125	1621.136719	5.022098
431.591827	850.468933	16577.904297	1634.882813	4.987551
431.950562	849.577332	16720.193359	1646.697144	5.022614
432.309204	853.663879	16883.511719	1648.108765	4.956035
432.667877	847.348206	17064.882813	1653.384155	4.970151
433.026459	854.629883	17199.296875	1656.133423	4.903762
433.385010	856.115906	17328.732422	1657.025024	4.862063
433.743561	858.493652	17345.525391	1658.139648	4.850152
434.102051	847.199646	17385.054688	1662.226196	4.928248
434.460510	852.772278	17409.054688	1672.925781	4.953730
434.818939	847.868347	17378.812500	1679.167358	5.028745
435.177338	857.602051	17317.216797	1679.761719	4.995011
435.535675	848.388489	17275.902344	1677.309570	5.045931
435.894012	851.211914	17261.935547	1679.984497	5.050189
436.252289	847.571106	17472.433594	1689.941040	5.066928
436.610535	851.509216	17552.607422	1686.448853	4.999310
436.968719	847.942688	17862.820313	1697.817261	4.994891
437.326935	850.617615	18150.072266	1702.201172	4.922603
437.685028	845.342041	18540.757813	1723.080078	4.960257
438.043152	853.589661	18797.697266	1728.727173	4.877019
438.401215	854.555603	19122.771484	1754.138672	4.924307
438.759277	863.249023	19512.787109	1771.153931	4.868243
439.117249	856.858887	20123.552734	1804.515991	4.918629
439.475250	865.032227	20545.220703	1819.599487	4.850397
439.833130	863.323242	21066.083984	1850.212036	4.884920
440.191071	868.153015	21271.382813	1858.608276	4.854404
440.548889	853.886902	21498.970703	1863.958008	4.892550
440.906708	854.704163	21379.716797	1846.348511	4.831395
441.264496	849.874512	21175.234375	1828.887085	4.816705
441.622223	861.019836	20825.492188	1817.667358	4.791749
441.979950	864.289246	20509.630859	1803.847046	4.782598
442.337616	869.564758	20260.271484	1796.045288	4.777962
442.695251	864.735046	19969.080078	1780.813110	4.795129
443.052887	861.614258	19840.238281	1780.144531	4.839815
443.410461	852.177917	19932.298828	1784.379761	4.885723
443.768005	851.286194	20210.041016	1805.110352	4.927095
444.125458	847.199646	20521.816406	1823.388672	4.961667
444.482941	848.165527	20900.314453	1840.552734	4.949032
444.840393	852.400879	21419.244141	1870.422363	4.949819
445.197754	858.270752	21946.869141	1897.022827	4.925657
445.555084	863.249023	22407.099609	1917.456055	4.893308
445.912415	861.242859	22765.164063	1927.041138	4.865788
446.269714	855.595764	22999.812500	1941.678711	4.904590
446.626953	851.657715	23002.337891	1937.963745	4.904166
446.984161	847.348206	22844.000000	1934.248413	4.941207
447.341309	846.753845	22552.585938	1914.632446	4.919777
447.698456	848.239929	22227.958984	1911.660522	4.973969
448.055542	849.057190	21954.078125	1885.877319	4.912670
448.412598	848.016907	21580.853516	1879.264526	4.973982
448.769653	848.760010	21187.050781	1849.617676	4.921051
449.126617	856.190247	20651.105469	1836.688965	4.953286
449.483582	864.289307	20296.382813	1809.568481	4.864526
449.840515	866.444031	19924.720703	1798.943237	4.892883
450.197388	859.905457	19691.857422	1777.395386	4.871985
450.554230	862.951843	19494.507813	1767.067261	4.852602
450.911041	859.756836	19457.802734	1763.352173	4.858550
451.267822	861.391418	19513.455078	1773.828979	4.891885
451.624573	856.115967	19574.382813	1767.438965	4.868629
451.981262	860.796936	19507.882813	1755.253296	4.796762
452.337921	861.762939	19308.009766	1744.107788	4.783330
452.694580	860.351135	18936.048828	1742.696167	4.881389
453.051147	853.886902	18706.453125	1733.333984	4.926166
453.407715	848.982910	18318.220703	1713.346558	4.947918
453.764221	852.103577	18165.751953	1700.120605	4.897968
454.120728	859.088074	17731.230469	1686.300293	4.902829
454.477142	858.270691	17641.916016	1691.724243	4.965868
454.833557	859.682434	17525.484375	1687.934937	4.969773
455.189911	856.041687	17556.171875	1692.764648	5.010278
455.546265	862.357361	17625.126953	1681.099243	4.884288
455.902557	857.304871	17677.064453	1679.018555	4.885407
456.258820	856.190369	17941.433594	1691.427124	4.888644
456.615051	853.812683	18237.455078	1719.885132	4.982111
456.971252	849.131531	18611.791016	1738.460571	5.006733
457.327393	846.902527	19224.712891	1764.169434	4.991165
457.683502	846.085144	19955.630859	1801.543823	4.999903
458.039612	849.205750	20981.378906	1851.549438	4.978815
458.395630	848.239929	22013.962891	1905.418945	4.994769
458.751648	843.187317	22920.458984	1941.307007	4.973982
459.107605	844.970520	23778.802734	1988.935059	4.988109
459.463562	847.794006	24115.095703	1998.445923	4.945360
459.819458	855.521484	24110.490234	1994.730835	4.898778
460.175323	847.422546	23557.974609	1953.344238	4.869637
460.531158	847.051025	22836.125000	1926.223755	4.907768
460.886932	846.010742	21982.384766	1887.214844	4.926124
461.242676	853.441101	21154.654297	1856.527832	4.941019
461.598419	859.533875	20488.083984	1822.199829	4.904417
461.954102	856.041687	19848.115234	1785.122681	4.891941
462.309723	858.493652	19281.259766	1754.064331	4.861217
462.665344	849.725891	18838.638672	1732.888062	4.909481
463.020905	854.109802	18597.302734	1726.795288	4.918424
463.376373	856.858948	18557.478516	1722.262695	4.889116
463.731873	858.270752	18501.675781	1726.498047	4.920974
464.087341	855.372986	18529.390625	1728.801392	4.941878
464.442749	855.893066	18627.468750	1743.364746	4.993770
464.798126	856.115906	18763.740234	1745.370972	4.965790
465.153503	858.790833	18978.845703	1755.253296	4.947350
465.508820	852.252197	19166.980469	1760.677368	4.960080
465.864105	854.184082	19349.837891	1762.014648	4.908345
466.219330	852.400879	19672.982422	1778.286987	4.919540
466.574524	857.750671	19742.974609	1782.150513	4.894831
466.929657	861.540039	19657.601563	1771.748413	4.842548
467.284790	864.809387	19393.085938	1758.002319	4.820702
467.639893	865.032288	19136.146484	1740.987183	4.794207
467.994934	860.499817	18937.162109	1743.290405	4.883593
468.349945	859.088074	18629.625000	1733.408203	4.920054
468.704926	856.338806	18433.017578	1733.556641	4.990805
469.059875	857.156067	18250.085938	1723.674438	4.982015
469.414764	855.967285	18194.431641	1712.083374	4.937669
469.769653	853.589661	18177.267578	1700.640747	4.889557
470.124451	858.716614	18270.666016	1704.207153	4.855806
470.479248	848.908691	18314.804688	1714.906860	4.958223
470.834015	844.599060	18370.976563	1723.005859	5.011913
471.188721	839.695068	18596.337891	1741.284180	5.077475
471.543365	845.936340	18904.248047	1752.652344	5.021045
471.898010	849.725830	19208.591797	1772.045532	5.023839
472.252625	848.611328	19529.058594	1780.441772	4.988266
472.607178	859.236633	19803.234375	1799.017212	4.960835
472.961700	858.493652	19927.767578	1803.252563	4.954352
473.316193	863.100342	19943.220703	1802.063843	4.921161
473.670654	859.756775	19887.939453	1793.742065	4.908431
474.025055	858.344971	19968.630859	1797.159790	4.912615
474.379456	856.487366	20032.904297	1803.995728	4.941009
474.733795	855.670105	20156.171875	1803.847168	4.912707
475.088104	859.162354	20449.296875	1811.277466	4.860177
475.442383	854.109802	20823.337891	1819.970825	4.836747
475.796570	849.057129	21219.000000	1844.713501	4.887870
476.150787	845.490662	21685.324219	1867.896118	4.906015
476.504944	847.051025	22099.710938	1901.555298	4.961752
476.859070	847.794128	22565.958984	1920.205200	4.937853
477.213135	851.509216	22854.404297	1939.821167	4.946222
477.567200	859.385254	23188.244141	1945.319458	4.863366
477.921173	850.320313	23484.490234	1965.009766	4.924808
478.275146	847.868347	23788.312500	1975.560913	4.915740
478.629089	838.506165	24082.998047	2004.093140	5.014465
478.983002	846.530823	24544.712891	2022.297241	4.961420
479.336823	841.701172	25130.218750	2050.458008	4.976660
479.690643	844.153259	25928.083984	2077.429688	4.916599
480.044403	841.404053	26871.650391	2115.472656	4.894570
480.398163	842.518555	28170.615234	2189.404053	4.928574
480.751862	844.153259	29973.794922	2275.000732	4.911998
481.105499	841.404053	32390.117188	2399.755127	4.939507
481.459137	844.821960	35807.746094	2567.679199	4.927669
481.812744	847.422546	40251.339844	2800.617920	4.956856
482.166290	858.345032	45601.136719	3094.708252	4.998265
482.519806	852.252197	50804.410156	3392.439453	5.085240
482.873291	836.945801	54928.511719	3677.985107	5.252278
483.226715	835.162598	57529.402344	3881.500000	5.373275
483.580139	839.620789	58557.156250	3963.455811	5.412281
483.933502	848.016907	58309.957031	3914.416016	5.336400
484.286804	843.633118	56899.839844	3775.989990	5.231101
484.640106	843.558838	54705.675781	3590.976318	5.100834
484.993347	848.314209	52113.105469	3395.857422	4.969382
485.346558	852.326599	49914.636719	3239.078857	4.864737
485.699738	860.722717	48662.261719	3179.710938	4.851284
486.052887	855.893066	48658.546875	3202.298828	4.908526
486.405975	850.840515	49440.656250	3255.202393	4.948283
486.759064	852.475098	50494.871094	3304.836670	4.940055
487.112061	858.493591	51113.062500	3330.916748	4.919797
487.464996	862.877441	50936.449219	3329.876221	4.926748
487.817963	855.818665	49931.875000	3262.038086	4.903042
488.170868	856.041687	48194.082031	3152.292969	4.850753
488.523743	862.728943	46121.113281	3028.058594	4.784372
488.876587	861.019958	43976.144531	2931.019531	4.801098
489.229401	865.329529	42457.839844	2862.586670	4.801963
489.582153	854.109863	41901.164063	2847.651611	4.856723
489.934845	853.143860	42329.519531	2877.372803	4.880439
490.287537	839.026367	43519.996094	2944.542236	4.933149
490.640198	843.558838	44877.730469	3007.922852	4.915192
490.992798	844.821960	45855.703125	3050.275391	4.899823
491.345337	852.326477	45889.808594	3044.999756	4.868552
491.697876	851.434875	44721.769531	2985.854492	4.865292
492.050354	855.521545	42692.781250	2872.691650	4.821468
492.402832	855.224365	39939.125000	2730.030518	4.796875
492.755219	858.790833	37024.746094	2572.211426	4.737661
493.107605	850.691895	34171.894531	2430.590576	4.741422
493.459930	850.320313	31871.037109	2331.396484	4.774474
493.812225	844.821960	30184.587891	2272.548828	4.866183
494.164490	852.400879	29164.265625	2233.985596	4.879879
494.516724	852.475159	28548.443359	2205.676514	4.885915
494.868896	848.537109	28359.193359	2191.484375	4.881553
495.221039	844.747620	28462.177734	2195.422607	4.890662
495.573120	847.125305	28775.287109	2208.351318	4.874027
495.925201	860.128235	29112.546875	2224.251953	4.828343
496.277222	859.756836	29390.142578	2246.096924	4.859170
496.629211	858.196472	29470.537109	2258.059570	4.892515
496.981140	852.772400	29359.904297	2245.948242	4.887113
497.333069	858.567932	29063.140625	2231.459229	4.867620
497.684967	857.527649	28672.677734	2208.499756	4.856965
498.036804	858.493591	28161.250000	2186.803467	4.865113
498.388580	851.063293	27622.484375	2153.144287	4.863698
498.740326	851.360596	27081.263672	2116.290039	4.822471
499.092072	847.348328	26571.992188	2094.965088	4.849889
499.443756	855.521545	26077.208984	2068.736084	4.810204
499.795410	854.704285	25667.578125	2060.042969	4.857715
500.147003	860.351257	25359.515625	2042.433228	4.824989
500.498566	862.060120	25051.087891	2030.247559	4.829411
500.850098	869.341797	24812.576172	2013.900879	4.780303
501.201599	861.911560	24545.162109	2002.532593	4.816151
501.553009	856.710388	24421.521484	1987.671875	4.799366
501.904449	851.657715	24364.828125	1982.025024	4.807380
502.255859	849.577332	24447.228516	1986.186157	4.816619
502.607178	850.914734	24582.609375	2006.099243	4.867687
502.958405	846.307922	24688.193359	2013.306519	4.894741
503.309692	855.595886	24745.257813	2021.851196	4.881841
503.660919	853.812561	24782.484375	2023.188843	4.886925
504.012115	862.357361	24751.720703	2024.749146	4.865730
504.363251	859.459534	24730.916016	2027.869995	4.894592
504.714294	854.406921	24646.437500	2019.250854	4.895942
505.065369	848.016907	24606.833984	2018.061890	4.924677
505.416443	850.320313	24438.687500	2004.315796	4.892223
505.767395	854.852844	24382.587891	1997.108521	4.854932
506.118317	851.955017	24318.908203	1981.876465	4.814947
506.469238	842.295593	24460.755859	1978.235474	4.809543
506.820160	844.376038	24680.093750	2000.823608	4.851742
507.170929	853.292480	24972.326172	2029.504517	4.876697
507.521729	863.546204	25293.015625	2045.331055	4.837538
507.872498	863.917786	25556.568359	2039.535522	4.761003
508.223236	859.162354	25847.687500	2041.467285	4.731391
508.573883	856.413147	26062.867188	2065.541260	4.796899
508.924500	855.818665	26292.314453	2098.903320	4.887012
509.275116	849.280090	26483.197266	2119.782227	4.956333
509.625702	848.982910	26750.390625	2128.921631	4.941580
509.976196	850.691833	26921.806641	2131.670898	4.913403
510.326660	854.406921	27120.271484	2138.655273	4.889420
510.677124	854.555603	27275.490234	2145.119385	4.884625
511.027557	848.982910	27479.375000	2160.648682	4.925447
511.377869	854.481262	27680.736328	2166.295898	4.890040
511.728180	850.171692	27785.054688	2172.685791	4.910042
512.078430	851.732117	27748.943359	2159.608643	4.862498
512.428650	850.989075	27621.291016	2150.766602	4.855297
512.778931	852.846619	27451.138672	2149.131836	4.873565
513.129028	855.670105	27289.458984	2154.704834	4.914296
513.479126	853.738281	27139.365234	2154.853271	4.949911
513.829285	859.459534	27018.103516	2142.370361	4.904348
514.179382	854.704163	26905.681641	2128.104004	4.888108
514.529297	856.710388	26864.072266	2127.881104	4.887734
514.879272	852.029297	26974.710938	2126.692627	4.879527
515.229187	856.933289	27123.912109	2139.323975	4.882140
515.579163	854.481262	27537.109375	2163.695313	4.906616
515.928955	850.691833	28049.720703	2191.187256	4.928468
516.278748	850.097473	28823.880859	2222.468750	4.905920
516.628540	844.599060	29667.140625	2263.409424	4.922572
516.978333	843.781738	30703.890625	2322.480225	4.952086
517.327942	839.472168	31783.509766	2369.216553	4.943584
517.677612	844.599060	32690.671875	2401.538330	4.888952
518.027222	842.815735	33283.605469	2421.154297	4.865291
518.376831	839.100647	33518.328125	2420.931396	4.840478
518.726379	840.883850	33343.046875	2412.014893	4.833928
519.075867	845.639221	32732.875000	2372.337158	4.787803
519.425293	850.171692	31944.228516	2345.068115	4.807660
519.774658	845.193420	31081.500000	2305.018799	4.828055
520.124084	844.450439	30397.689453	2282.282471	4.865227
520.473389	854.184082	29796.060547	2256.647705	4.845794
520.822693	859.533875	29364.361328	2231.979248	4.814782
521.171997	860.054016	29088.177734	2206.716553	4.770642
521.521240	850.840515	28952.576172	2204.190186	4.815893
521.870361	847.051025	29043.744141	2201.292480	4.802838
522.219482	851.732117	29226.380859	2228.635742	4.852584
522.568604	851.211975	29620.703125	2233.093994	4.803290
522.917664	854.927063	30095.572266	2269.650879	4.838210
523.266724	850.691895	30839.865234	2293.130615	4.809865
523.615662	858.642273	31781.130859	2346.851563	4.812708
523.964600	862.283142	33059.957031	2413.278076	4.817102
524.313538	862.877502	34415.089844	2486.020508	4.837664
524.662354	854.035461	35919.718750	2560.991943	4.867883
525.011169	846.307922	37373.527344	2635.368896	4.897885
525.359985	846.382324	38898.886719	2708.780029	4.894284
525.708740	846.976746	40453.597656	2782.042236	4.885712
526.057434	850.766113	42203.351563	2868.679443	4.879776
526.406067	852.698059	44367.562500	2979.762451	4.888133
526.754700	861.911560	47206.375000	3148.652344	4.934226
527.103333	867.484192	50439.437500	3340.279053	4.988294
527.451782	859.310974	53633.488281	3552.413086	5.103068
527.800293	851.583435	55972.761719	3718.256836	5.200675
528.148743	840.363770	57366.605469	3812.770264	5.258454
528.497131	844.821960	57588.769531	3823.915283	5.250063
528.845642	844.004578	56727.453125	3731.408203	5.166831
529.193909	842.890076	54871.000000	3564.301514	5.037029
529.542175	845.267761	52071.792969	3356.179688	4.901586
529.890503	840.066589	48702.906250	3145.531494	4.816816
530.238770	855.893066	45355.574219	2967.353516	4.744889
530.586914	861.688660	42761.589844	2839.330078	4.719919
530.934998	867.707092	41243.433594	2774.983643	4.723820
531.283142	861.391418	40921.847656	2778.104248	4.784551
531.631226	855.818787	41428.000000	2818.227783	4.836834
531.979248	855.447266	42581.550781	2899.069092	4.897706
532.327148	855.967285	43891.359375	2965.496094	4.901846
532.675110	853.961182	44987.250000	2998.114990	4.858359
533.023071	853.663879	45404.687500	2993.731201	4.803632
533.370850	852.326477	44798.593750	2953.161865	4.780464
533.718689	848.388489	43478.605469	2896.691406	4.804815
534.066467	839.695007	41767.417969	2815.032959	4.826406
534.414246	835.905579	40062.324219	2730.104980	4.828887
534.761963	840.809570	38693.886719	2673.708984	4.842141
535.109619	855.893005	37823.281250	2643.022217	4.834340
535.457153	860.202637	37446.937500	2632.099854	4.843005
535.804749	867.632813	37308.882813	2621.920166	4.814015
536.152344	867.112793	37224.847656	2604.384766	4.778274
536.499817	857.750549	36916.414063	2579.270508	4.774220
536.847229	851.286194	36319.691406	2545.314209	4.776161
537.194641	846.382263	35391.277344	2501.252686	4.790492
537.542114	856.413086	34337.816406	2463.061279	4.798629
537.889404	849.577332	33472.410156	2423.234619	4.823791
538.236694	846.679504	32948.277344	2403.172852	4.848648
538.583984	833.007813	33093.687500	2412.906494	4.897289
538.931213	836.500000	33873.941406	2451.246826	4.887627
539.278381	838.877686	35398.933594	2533.871582	4.904489
539.625488	846.233704	37459.570313	2644.656738	4.911934
539.972595	848.537109	40200.152344	2783.231201	4.916429
540.319641	847.942688	42976.468750	2914.747070	4.905950
540.666687	850.320313	45296.421875	3024.269287	4.891203
541.013611	855.224304	46608.015625	3088.615234	4.881431
541.360596	854.629883	46932.496094	3101.469971	4.876181
541.707458	858.493652	46275.808594	3058.522705	4.844031
542.054260	862.506042	44816.050781	2979.613281	4.816693
542.401062	872.908386	42955.074219	2880.567627	4.770808
542.747864	866.295410	40929.652344	2773.497803	4.760466
543.094666	861.242859	38897.843750	2663.529541	4.738296
543.441284	852.177917	36807.042969	2574.143311	4.789242
543.787903	858.790833	35028.527344	2500.732178	4.805250
544.134460	854.778503	33489.574219	2447.457275	4.880309
544.481079	852.029297	32497.259766	2396.336914	4.880064
544.827637	847.571106	31737.962891	2352.795654	4.872792
545.174072	852.846619	31359.015625	2341.353027	4.879362
545.520508	859.608215	31194.138672	2337.117920	4.870719
545.866943	862.728821	31125.259766	2343.730713	4.893847
546.213318	858.790833	31068.642578	2325.080811	4.853682
546.559631	854.406982	30740.523438	2302.864502	4.846590
546.905823	849.874512	30250.718750	2275.818115	4.850009
547.252136	850.617493	29378.107422	2237.329346	4.860967
547.598389	853.441101	28379.179688	2189.775391	4.854853
547.944458	854.332703	27307.437500	2139.472656	4.858181
548.290588	850.097473	26244.462891	2083.745361	4.857959
548.636658	848.239929	25216.634766	2035.894531	4.873750
548.982727	849.502991	24326.562500	1998.223022	4.892947
549.328735	853.886780	23653.900391	1968.947754	4.890615
549.674622	855.149963	23143.142578	1935.065796	4.845281
550.020569	858.939453	22815.914063	1912.626343	4.798871
550.366455	861.540039	22574.501953	1899.251953	4.779228
550.712280	861.540039	22506.294922	1905.047485	4.821064
551.058044	854.332703	22530.890625	1896.577026	4.808164
551.403748	846.159424	22627.556641	1909.951294	4.883947
551.749512	847.645447	22818.736328	1918.644897	4.874585
552.095154	846.828125	22993.126953	1927.784180	4.880979
552.440735	853.961243	23166.251953	1932.019531	4.831679
552.786316	850.989075	23140.765625	1934.842896	4.862560
553.131897	848.462830	22963.255859	1927.412720	4.878861
553.477417	841.701172	22624.431641	1913.443726	4.920148
553.822815	842.221375	22228.546875	1883.796875	4.870287
554.168213	850.766113	21836.455078	1873.245972	4.872272
554.513672	852.772278	21466.947266	1851.772461	4.846180
554.859009	850.246033	21103.904297	1846.051147	4.916668
555.204285	843.781738	20810.929688	1831.562134	4.947028
555.549500	840.215149	20604.070313	1820.936890	4.962199
555.894714	840.289490	20407.541016	1806.150513	4.936110
556.239990	841.849792	20214.947266	1799.983398	4.945691
556.585022	849.874512	20037.662109	1796.045410	4.931110
556.930115	856.264465	19932.298828	1793.519043	4.913257
557.275146	855.893066	19776.933594	1784.900024	4.909914
557.620178	847.719788	19661.466797	1776.875366	4.938706
557.965149	840.512390	19544.068359	1773.754517	4.989651
558.310059	837.094421	19514.421875	1763.277832	4.958865
558.654968	843.112976	19420.353516	1760.900024	4.940384
558.999756	846.159363	19454.384766	1753.990112	4.878653
559.344604	853.218079	19471.697266	1755.476196	4.846035
559.689331	849.948730	19550.531250	1753.990112	4.834295
560.033997	846.679504	19550.976563	1753.841431	4.850019
560.378723	849.354492	19678.033203	1764.095093	4.858230
560.723389	856.116028	19757.613281	1764.466675	4.805707
561.067932	855.818787	19864.164063	1763.574829	4.775566
561.412476	849.800232	19800.857422	1764.541016	4.826859
561.757019	846.679504	19761.031250	1764.838257	4.854297
562.101501	849.354431	19666.591797	1760.305786	4.841047
562.445862	849.874512	19621.267578	1750.052124	4.795476
562.790222	849.725891	19563.162109	1746.559937	4.792461
563.134644	854.481262	19554.470703	1761.494629	4.850341
563.478943	856.933289	19595.039063	1774.348999	4.895990
563.823181	855.150085	19703.966797	1788.689453	4.952775
564.167358	844.524719	19901.462891	1801.840942	5.023453
564.511536	841.701233	20232.185547	1818.261841	5.036288
564.855774	842.815735	20612.986328	1838.843750	5.038034
565.199768	848.165710	21052.115234	1856.453491	4.990548
565.543823	845.565002	21397.845703	1867.375977	4.971764
565.887817	844.004639	21712.517578	1873.765991	4.934522
566.231812	844.301758	21765.794922	1867.301636	4.889708
566.575745	855.967285	21704.939453	1855.784790	4.795524
566.919617	860.871277	21482.552734	1853.630005	4.814150
567.263428	864.586426	21152.574219	1839.363892	4.804702
567.607239	857.750549	20821.183594	1828.664185	4.863460
567.950989	858.047852	20478.201172	1811.871948	4.861451
568.294678	861.242859	20329.447266	1808.676758	4.866570
568.638367	865.552429	20194.363281	1799.166016	4.830166
568.981995	858.345032	20187.900391	1795.896851	4.850354
569.325623	851.137695	20227.355469	1801.766602	4.906163
569.669128	850.840515	20327.962891	1817.741699	4.964292
570.012573	857.304688	20530.732422	1831.562012	4.952148
570.356140	865.700989	20815.460938	1837.060425	4.869028
570.699524	858.047791	21128.718750	1841.146973	4.849860
571.042908	856.933289	21495.851563	1851.029297	4.816609
571.386230	856.561768	21792.988281	1862.397827	4.804240
571.729492	860.945618	22028.007813	1881.642090	4.822098
572.072815	859.608215	22040.492188	1881.567749	4.824914
572.416016	850.989075	21900.353516	1880.378906	4.890361
572.759094	854.555603	21647.875000	1864.626831	4.857672
573.102234	849.800232	21413.748047	1851.995239	4.873554
573.445374	857.824890	21224.794922	1834.979858	4.797743
573.788391	854.778503	21117.130859	1826.880981	4.797580
574.131409	856.041687	21025.144531	1822.348633	4.791026
574.474365	851.657776	20972.759766	1820.268188	4.813903
574.817261	851.063293	20867.771484	1816.107056	4.821191
575.160156	855.447266	20654.445313	1805.036133	4.796146
575.502930	855.224304	20322.833984	1795.971069	4.832369
575.845703	855.298645	19985.794922	1784.082642	4.854992
576.188477	859.756836	19641.626953	1776.132446	4.879043
576.531250	856.710388	19277.765625	1754.361694	4.872964
576.873901	852.846680	18888.644531	1736.454712	4.899190
577.216431	848.908508	18525.378906	1719.290649	4.923959
577.559082	849.651611	18152.601563	1704.504517	4.940504
577.901611	857.824890	17768.826172	1689.495239	4.917925
578.244080	854.555664	17371.380859	1659.625610	4.874242
578.586487	858.047852	17094.306641	1649.223267	4.872892
578.928955	895.199219	16923.632813	1659.179688	4.766407
579.271301	895.422058	16795.312500	1657.916626	4.795596
579.613647	896.090820	16609.927734	1652.195313	4.811711
579.955872	855.521545	16372.606445	1614.300903	4.889961
580.298157	866.369812	16201.485352	1606.944946	4.829277
580.640320	867.484314	16066.031250	1590.003906	4.753873
580.982483	863.471985	15987.418945	1595.799683	4.842173
581.324524	857.824890	15923.370117	1592.679077	4.877714
581.666626	858.493652	15846.838867	1589.632446	4.878048
582.008728	866.072571	15734.789063	1574.103149	4.761881
582.350647	860.425537	15657.438477	1566.672852	4.772905
582.692566	858.642273	15568.054688	1566.524292	4.812443
583.034424	852.400879	15535.956055	1558.276733	4.807255
583.376343	855.521484	15416.179688	1546.388306	4.744750
583.718201	848.314148	15371.151367	1542.673218	4.781153
584.059937	854.406921	15273.964844	1548.319946	4.812304
584.401611	843.707336	15207.464844	1546.982544	4.896178
584.743347	843.410156	15153.745117	1544.976440	4.902515
585.085022	833.825195	15104.704102	1545.868164	4.989482
585.426514	842.518555	15088.059570	1553.818481	4.993141
585.768127	852.400818	15100.020508	1564.815430	5.000236
586.109619	853.738281	15148.317383	1561.620483	4.952103
586.451172	854.406921	15188.887695	1561.620483	4.933653
586.792542	848.239929	15232.057617	1558.350952	4.936874
587.133850	856.190247	15255.909180	1565.929810	4.928843
587.475220	852.623718	15273.741211	1570.388062	4.977176
587.816589	856.710388	15343.140625	1572.691406	4.942425
588.157776	854.704285	15465.739258	1582.499390	4.981133
588.498962	855.075684	15612.041992	1581.607788	4.923316
588.840210	849.205811	15685.082031	1579.155640	4.920166
589.181335	852.846680	15750.988281	1573.657227	4.838258
589.522400	861.242859	15774.245117	1579.824585	4.818491
589.863403	861.465820	15805.155273	1586.883301	4.854340
590.204407	859.608154	15734.195313	1582.053589	4.856911
590.545410	854.927063	15653.055664	1576.926758	4.878993
590.886353	854.778503	15477.924805	1569.496460	4.887580
591.227112	852.252197	15366.545898	1566.449829	4.920650
591.567932	847.273926	15249.890625	1565.483887	4.986663
591.908752	847.719727	15180.714844	1549.880493	4.898911
592.249512	841.998474	15174.325195	1542.673218	4.888772
592.590149	844.524719	15141.409180	1541.261353	4.873346
592.930786	848.908630	15239.786133	1548.617310	4.862168
593.271423	852.177917	15368.700195	1562.660522	4.894303
593.612000	845.787842	15603.645508	1562.660645	4.857567
593.952576	846.828064	15778.851563	1574.400391	4.872563
594.292969	846.307922	15927.307617	1578.561401	4.855470
594.633484	848.834290	16105.561523	1590.598267	4.861881
594.973877	841.181152	16339.391602	1604.567383	4.925641
595.314209	844.450439	16667.068359	1620.839722	4.906832
595.654480	846.307922	17016.585938	1649.966187	4.969972
595.994812	854.035461	17401.474609	1668.318970	4.920903
596.335022	856.041687	17695.341797	1683.030884	4.911066
596.675171	859.236633	17816.529297	1687.489136	4.884344
597.015320	857.304871	17741.556641	1680.950317	4.878187
597.355408	852.995300	17431.937500	1665.198242	4.899004
597.695496	852.995300	17043.259766	1639.043579	4.855068
598.035461	847.719727	16456.046875	1616.232788	4.923738
598.375366	845.639343	15905.090820	1596.319702	4.984779
598.715271	849.057190	15391.288086	1568.827637	4.949519
599.055176	862.803223	15012.046875	1553.001099	4.877984
599.395081	862.580261	14694.774414	1524.320313	4.784057
599.734802	859.979736	14447.495117	1516.072754	4.828646
600.074524	851.583435	14318.655273	1506.116211	4.860246
600.414246	860.945618	14244.128906	1510.054199	4.850181
600.753906	865.478088	14264.338867	1520.679321	4.889977
601.093506	864.363586	14308.846680	1523.948853	4.905992
601.433044	862.877502	14483.605469	1527.663940	4.880697
601.772583	855.447266	14678.799805	1530.115845	4.880644
602.112122	855.372864	15004.692383	1551.292358	4.918396
602.451538	848.091248	15412.985352	1569.496460	4.953041
602.790894	857.304749	15879.679688	1581.756226	4.822483
603.130310	859.608154	16385.607422	1596.765503	4.747890
603.469604	863.249023	16859.435547	1624.405884	4.758365
603.808838	859.236633	17279.392578	1655.464478	4.849088
604.148010	863.174622	17577.275391	1675.526367	4.860278
604.487305	862.431641	17698.833984	1678.052612	4.844390
604.826416	853.664001	17639.318359	1663.786499	4.826279
605.165527	848.388489	17335.642578	1645.285156	4.833411
605.504456	845.862244	16895.546875	1628.195679	4.874447
605.843445	855.967285	16346.895508	1605.384399	4.837780
606.182434	847.199646	15779.074219	1583.019531	4.927846
606.521423	852.698059	15281.023438	1559.539673	4.898986
606.860229	845.044861	14882.463867	1540.072632	4.951251
607.199036	854.258484	14677.758789	1515.775391	4.785451
607.537903	850.840515	14587.854492	1504.109985	4.755542
607.876648	857.156189	14682.885742	1502.921021	4.670747
608.215271	854.035461	14884.247070	1512.729126	4.694823
608.553955	852.400818	15118.597656	1525.880737	4.720809
608.892578	846.753845	15323.153320	1551.663696	4.869373
609.231140	844.599060	15476.588867	1563.700806	4.914586
609.569641	840.883972	15500.811523	1568.679077	4.964520
609.908081	846.308044	15418.707031	1560.059937	4.897971
610.246521	851.583496	15179.081055	1552.481079	4.891975
610.584961	859.088074	14856.606445	1535.837280	4.834780
610.923340	857.527649	14503.296875	1512.877563	4.802587
611.261597	854.184082	14094.484375	1498.462891	4.866044
611.599854	849.502991	13773.348633	1483.899414	4.908728
611.938110	848.016907	13451.393555	1470.971069	4.942756
612.276245	845.787842	13200.695313	1456.036133	4.939319
612.614319	852.029297	12961.664063	1448.308716	4.924008
612.952393	852.920898	12753.022461	1436.494507	4.903938
613.290466	856.487488	12577.073242	1422.451172	4.828800
613.628479	856.487488	12438.351563	1411.528809	4.792331
613.966370	862.060120	12319.465820	1414.500977	4.821692
614.304260	868.747375	12225.843750	1422.451294	4.875400
614.642151	866.221191	12106.067383	1421.559692	4.940802
614.979980	860.202637	11994.836914	1418.884766	5.017517
615.317749	852.400879	11908.274414	1400.680664	4.959172
615.655396	851.509216	11882.862305	1390.055298	4.881958
615.993164	847.571106	11886.355469	1382.104980	4.842326
616.330811	853.143860	11897.351563	1389.015015	4.852056
616.668396	843.484558	11872.981445	1395.925171	5.008756
617.005859	843.707458	11892.522461	1407.590698	5.103563
617.343445	839.546448	11908.497070	1414.203613	5.191614
617.680908	850.914734	11942.378906	1423.045776	5.158300
618.018311	851.211914	11933.536133	1422.525757	5.155181
618.355652	851.360535	11925.215820	1408.333862	5.029624
618.692993	847.051025	11896.014648	1401.646484	5.019434
619.030273	848.685730	11861.835938	1392.433105	4.937255
619.367554	840.215149	11797.117188	1400.383423	5.112469
619.704712	844.747620	11743.471680	1389.906738	5.002046
620.041870	844.004639	11692.276367	1386.711548	5.002704
620.379028	846.530945	11647.100586	1378.984253	4.929863
620.716064	840.512390	11567.819336	1383.442383	5.061196
621.053040	843.261536	11541.739258	1379.355835	5.010940
621.389954	846.679504	11481.479492	1388.123413	5.091247
621.726929	851.286316	11469.813477	1384.928345	5.025575
622.063843	851.137695	11441.726563	1380.618774	4.999543
622.400635	846.679504	11443.733398	1373.485840	4.971253
622.737427	838.134766	11456.958008	1374.377441	5.049926
623.074219	836.128601	11465.355469	1382.104858	5.136557
623.410889	838.729065	11541.291992	1384.259644	5.097196
623.747559	848.314148	11625.776367	1376.680786	4.902514
624.084167	856.784668	11693.835938	1376.606445	4.796709
624.420715	860.871338	11775.495117	1380.470215	4.760575
624.757324	858.790833	11883.085938	1394.439087	4.858799
625.093750	845.193420	12058.143555	1392.358765	4.879763
625.430176	842.295654	12253.929688	1393.621704	4.831263
625.766602	838.283264	12423.266602	1409.671265	4.932144
626.102905	846.010803	12628.416992	1430.847290	4.963642
626.439209	842.444275	12780.811523	1452.023804	5.106054
626.775452	845.936523	12948.363281	1451.726563	5.005525
627.111694	849.651672	12959.360352	1452.172363	4.975517
627.447876	856.264587	12879.113281	1448.680176	4.927414
627.783997	855.595886	12690.383789	1446.376831	4.991901
628.120056	855.224304	12535.834961	1435.454224	4.967463
628.456055	851.732117	12354.758789	1419.033325	4.931756
628.792053	854.778503	12181.782227	1406.104614	4.867361
629.128052	848.908508	11993.127930	1399.566040	4.941194
629.463928	854.109802	11859.903320	1394.141968	4.906799
629.799744	850.691895	11743.840820	1390.426758	4.954811
630.135559	850.023132	11622.284180	1378.241211	4.903502
630.471375	849.057190	11463.645508	1371.331055	4.920341
630.807068	850.840515	11316.229492	1353.201050	4.800209
631.142700	851.063293	11211.090820	1360.259888	4.915012
631.478333	853.218201	11155.215820	1349.857422	4.820805
631.813965	854.184082	11079.278320	1356.470581	4.912292
632.149475	860.425537	11011.291992	1341.387085	4.738133
632.484924	855.521545	10963.737305	1352.606812	4.917636
632.820435	857.973633	10978.820313	1356.247559	4.923244
633.155884	854.109863	11019.315430	1357.436401	4.951465
633.491150	864.214905	11067.612305	1359.145386	4.850644
633.826477	863.546204	11076.083008	1351.417847	4.777184
634.161804	868.227234	11054.015625	1354.464355	4.773682
634.497009	868.747375	11002.969727	1337.374634	4.624205
634.832153	863.843445	10923.094727	1339.380859	4.727364
635.167297	863.769104	10774.636719	1338.712036	4.792143
635.502380	854.332703	10636.583008	1335.665649	4.920473
635.837463	862.431641	10495.184570	1325.560547	4.807856
636.172424	857.081848	10395.098633	1315.975464	4.811206
636.507324	858.122131	10287.508789	1309.659668	4.788620
636.842224	853.812561	10216.401367	1308.767944	4.859291
637.177124	857.899231	10115.348633	1304.309814	4.822177
637.511963	860.054016	10052.563477	1302.080811	4.808554
637.846741	857.379089	9956.192383	1292.272949	4.779676
638.181396	850.468933	9897.493164	1286.328613	4.817713
638.516113	848.314209	9824.083008	1286.551636	4.882450
638.850769	850.171692	9752.009766	1283.133667	4.863737
639.185303	858.939453	9678.078125	1289.449341	4.881541
639.519836	855.224304	9572.493164	1278.898560	4.860172
639.854370	857.676270	9503.318359	1277.709595	4.858324
640.188843	849.651672	9410.885742	1263.220581	4.830716
640.523254	855.893066	9333.090820	1267.975952	4.861074
640.857605	852.995178	9276.397461	1267.753052	4.923876
641.191895	851.063293	9239.246094	1265.821167	4.944550
641.526184	847.273926	9212.274414	1262.180298	4.960028
641.860413	845.564941	9151.198242	1244.942017	4.808509
642.194580	842.444275	9108.472656	1248.211426	4.908853
642.528748	839.917969	9081.723633	1241.449829	4.871892
642.862793	844.673340	9058.616211	1251.703613	4.955358
643.196838	851.583496	9033.426758	1246.205200	4.823139
643.530823	865.032227	8990.628906	1247.022461	4.701073
643.864746	862.431641	8960.165039	1243.901855	4.710827
644.198669	861.614441	8940.250977	1245.759399	4.755072
644.532532	849.800293	8914.618164	1247.171265	4.927216
644.866333	842.890076	8913.577148	1246.353882	4.999126
645.200073	840.140808	8919.297852	1245.610718	5.018715
645.533813	844.896301	8917.886719	1244.570679	4.950760
645.867554	851.063416	8913.280273	1246.205200	4.901155
646.201172	852.475098	8902.208984	1244.942139	4.875528
646.534729	847.348206	8907.855469	1249.103027	4.984237
646.868225	850.097412	8941.440430	1251.406372	4.959733
647.201782	849.651611	8954.815430	1254.452881	4.994362
647.535217	855.595886	9004.523438	1253.338257	4.880917
647.868591	851.583496	8975.397461	1255.715820	4.974662
648.201965	853.961243	8940.995117	1251.852173	4.920110
648.535278	853.812561	8882.518555	1257.127808	5.023415
648.868591	852.549500	8898.196289	1256.682007	5.022996
649.201782	853.366699	8898.567383	1265.226685	5.119325
649.534912	850.691895	8905.776367	1266.341187	5.160086
649.868103	848.091309	8869.589844	1265.895386	5.208554
650.201172	848.537109	8880.512695	1264.557983	5.179558
650.534180	844.524719	8892.996094	1259.728271	5.158788
650.867188	841.255371	8897.973633	1254.824341	5.133219
651.200134	835.979980	8907.335938	1247.096802	5.093529
651.533020	832.636414	8879.546875	1244.867676	5.122851
651.865845	840.660950	8838.308594	1239.740723	4.989964
652.198608	848.165527	8784.067383	1238.552002	4.919245
652.531433	852.623718	8721.653320	1227.257935	4.760869
652.864136	850.097412	8707.239258	1232.310669	4.864533
653.196777	1004.795715	8814.234375	1394.587769	4.991294
653.529358	1007.990723	8772.848633	1410.339966	5.181669
653.861938	1008.585144	8682.868164	1411.528809	5.250571
654.194519	853.812500	8464.714844	1245.833740	5.150785
654.526978	855.372864	8409.878906	1231.121704	4.973837
654.859375	863.323303	8379.118164	1230.155884	4.880822
655.191833	864.363464	8367.824219	1226.812378	4.830423
655.524170	864.066345	8369.680664	1228.818481	4.859724
655.856445	857.824890	8359.353516	1222.651245	4.863360
656.188660	857.156189	8391.377930	1230.973145	4.961587
656.520874	855.967285	8410.473633	1229.041382	4.938431
656.853088	855.521484	8487.674805	1226.217773	4.857034
657.185181	849.577332	8559.301758	1224.583130	4.864062
657.517212	848.982910	8701.368164	1237.734741	4.950748
657.849243	850.766113	8868.772461	1257.127563	5.068111
658.181274	852.772278	9070.430664	1273.028442	5.114062
658.513123	849.503113	9260.719727	1278.006836	5.094432
658.844971	848.462830	9472.778320	1289.598022	5.115017
659.176819	850.691833	9633.868164	1290.935425	5.012351
659.508667	852.772278	9731.873047	1290.341064	4.928076
659.840393	844.004578	9719.463867	1289.375122	5.018000
660.172058	840.512390	9605.334961	1287.220337	5.096600
660.503662	843.112976	9458.736328	1282.910767	5.104654
660.835266	853.441101	9291.183594	1264.780884	4.874998
661.166931	856.859070	9086.182617	1255.715942	4.846776
661.498413	853.664001	8893.960938	1246.205200	4.882173
661.829773	841.329773	8656.489258	1237.957642	5.075109
662.161194	836.277039	8476.825195	1218.490356	5.002433
662.492615	838.283203	8298.424805	1212.397583	5.014843
662.823975	853.589600	8146.178223	1206.527710	4.839682
663.155212	853.589661	8032.867188	1205.710327	4.904681
663.486450	850.468933	7931.592285	1193.524658	4.844651
663.817627	850.097473	7867.543457	1183.790894	4.755198
664.148743	846.233704	7773.030762	1182.007690	4.847464
664.479858	849.131531	7710.838379	1187.134644	4.925933
664.810913	843.856018	7652.288574	1193.227417	5.131451
665.141907	851.286316	7630.666016	1186.763062	4.948487
665.472778	848.908630	7591.137207	1180.818848	4.922856
665.803711	840.809631	7582.890137	1180.744507	5.041988
666.134583	843.038757	7582.221191	1190.106689	5.150001
666.465454	844.673340	7582.740723	1192.633057	5.164088
666.796143	849.874512	7572.264160	1185.945801	4.999283
667.126831	858.196472	7563.199219	1175.617676	4.734095
667.457458	872.388184	7559.484375	1181.041748	4.615659
667.788147	878.183838	7574.419434	1191.518433	4.679265
668.118774	863.471863	7566.840332	1195.382080	4.951395
668.449219	854.406982	7571.224121	1193.152954	5.043251
668.779663	856.115906	7567.583496	1183.567993	4.878994
669.110107	867.187012	7589.502441	1190.701050	4.812539
669.440552	862.877441	7607.781250	1193.227417	4.897771
669.770874	858.567871	7573.898926	1193.301636	4.984621
670.101135	844.524719	7535.707520	1187.654785	5.128093
670.431396	837.688904	7462.964844	1181.859009	5.194804
670.761597	835.385498	7400.105469	1173.685791	5.153309
671.091797	843.484558	7331.523438	1167.667358	4.996622
671.421875	847.273926	7260.638672	1159.642578	4.870589
671.751892	848.239929	7227.276855	1157.859253	4.853700
672.081909	850.989014	7168.058105	1153.178345	4.783695
672.411865	847.719727	7151.934082	1156.447632	4.897167
672.741821	853.440979	7113.519531	1162.540405	4.937629
673.071716	853.366699	7098.807129	1165.586792	4.999168
673.401550	860.797058	7036.170410	1157.487793	4.804418
673.731262	856.487488	7015.365723	1155.555908	4.855891
674.060974	854.704163	6990.103027	1159.493896	4.967725
674.390625	856.115967	6996.938965	1172.496948	5.152094
674.720276	855.447266	6963.501953	1164.769531	5.064170
675.049927	861.094238	6928.580078	1160.162720	4.929035
675.379395	855.893066	6891.428223	1147.011108	4.823400
675.708923	849.651672	6850.413574	1153.029663	5.055658
676.038330	840.215149	6844.320313	1151.394897	5.182783
676.367737	835.757019	6830.871582	1153.401123	5.298382
676.697083	841.329773	6850.041504	1143.890381	5.035366
677.026428	851.732117	6855.614746	1140.026733	4.801803
677.355652	863.843445	6873.670410	1139.655151	4.589345
677.684875	870.084900	6910.003906	1145.376587	4.557870
678.013977	866.221191	6948.270020	1150.280640	4.670456
678.343079	863.323303	7018.783203	1151.246460	4.677525
678.672180	867.781433	7113.147949	1158.750977	4.658967
679.001221	859.459473	7215.982910	1161.500122	4.751664
679.330139	853.738281	7311.610840	1176.212158	4.993500
679.659058	843.707336	7346.310059	1184.385376	5.239103
679.987976	843.261536	7401.517090	1190.626831	5.296611
680.316772	845.490723	7436.066895	1183.791016	5.133091
680.645630	848.091248	7480.351563	1186.763062	5.106431
680.974304	855.150085	7474.853516	1184.682495	4.978054
681.302979	857.899231	7459.622559	1186.168579	4.972480
681.631653	860.128235	7407.907715	1173.091309	4.779683
681.960266	859.459656	7342.892090	1169.896240	4.788152
682.288757	860.053955	7284.416016	1167.667114	4.788229
682.617249	856.858887	7227.796875	1161.500122	4.781733
682.945679	855.447205	7153.717285	1155.481567	4.763758
683.274109	850.097351	7055.042969	1148.422974	4.807868
683.602478	848.834229	6923.007813	1143.741821	4.855106
683.930725	848.165527	6796.023926	1138.317749	4.878264
684.259033	846.382324	6680.855469	1134.974121	4.946321
684.587280	842.444275	6586.713379	1134.676880	5.087377
684.915344	844.747620	6511.443848	1132.893677	5.084904
685.243469	851.286316	6435.061035	1120.039185	4.813104
685.571533	855.595764	6398.579590	1117.289917	4.721179
685.899536	858.716553	6399.544922	1114.986572	4.625121
686.227539	856.636047	6421.315918	1125.983398	4.840303
686.555420	856.338867	6458.095215	1127.840942	4.846731
686.883301	855.001465	6469.240723	1128.361206	4.869043
687.211121	856.933289	6480.460938	1125.463257	4.775116
687.538940	858.865173	6479.717285	1128.360962	4.794572
687.866638	858.567871	6487.593262	1127.915161	4.784972
688.194336	857.230469	6477.339844	1119.964844	4.674898
688.521973	857.750549	6430.306152	1118.924683	4.686793
688.849609	861.688660	6372.869629	1112.757446	4.555626
689.177063	856.041687	6307.855469	1118.553101	4.815121
689.504578	852.995178	6210.444824	1108.076416	4.761244
689.832031	846.085144	6113.404785	1111.345825	5.035971
690.159485	851.434875	6034.123535	1108.448120	4.959072
690.486816	856.115906	6004.253906	1114.466431	5.018329
690.814087	857.230469	5948.230469	1114.243530	5.048381
691.141296	851.286194	5884.181152	1112.906250	5.198202
691.468506	845.193359	5807.351563	1105.253052	5.240859
691.795715	849.502991	5739.959473	1099.457520	5.111067
692.122803	851.063416	5688.541504	1090.838379	4.956611
692.449829	854.778503	5658.226074	1093.587402	4.971614
692.776855	851.137695	5629.991699	1090.912476	5.017412
693.103821	850.543274	5585.707031	1085.339844	4.958573
693.430664	852.103577	5548.183594	1081.476074	4.884340
693.757568	845.416321	5519.652344	1080.733032	5.034336
694.084351	841.478333	5504.865723	1085.042603	5.222905
694.411133	840.066589	5497.212402	1081.699097	5.188425
694.737854	845.119141	5494.091797	1085.265503	5.165579
695.064575	851.211975	5507.392090	1083.185059	4.982047
695.391174	847.868347	5524.556152	1081.624756	4.998333
695.717773	844.376160	5543.131348	1077.389526	4.959044
696.044250	844.673340	5584.369629	1085.488403	5.080812
696.370789	843.930359	5654.213379	1096.336670	5.247223
696.697205	843.855957	5770.794434	1101.240601	5.224028
697.023621	846.605225	5912.861816	1103.618286	5.073037
697.349915	849.577332	6071.052246	1110.677124	5.000499
697.676208	849.280029	6252.648438	1122.268311	5.052187
698.002380	849.131531	6454.974609	1132.373413	5.052619
698.328674	848.165588	6675.653809	1138.540649	4.982851
698.654724	855.372986	6884.295410	1148.571411	4.863198
698.980896	854.109802	7011.947754	1155.481567	4.894116
699.306946	858.047852	7046.646973	1165.586792	4.969443
699.632935	857.453430	6980.740723	1159.568237	4.933867
699.958862	853.366760	6847.589844	1147.308350	4.903748
700.284729	841.849854	6674.242188	1128.212524	4.909866
700.610596	839.695068	6462.553223	1114.243652	4.882723
700.936340	849.280090	6246.629395	1105.104370	4.739813
701.262146	860.276855	6003.585938	1096.856812	4.599761
701.587830	855.744446	5812.404297	1088.534912	4.696519
701.913513	848.834290	5625.384277	1082.516479	4.892280
702.239075	843.855957	5495.800781	1083.333740	5.147907
702.564697	848.165527	5358.415039	1082.219238	5.189374
702.890137	847.125305	5258.923828	1075.457520	5.175491
703.215698	848.091248	5177.190918	1061.860229	4.937955
703.541016	846.307922	5112.175293	1053.092407	4.847420
703.866455	851.880676	5039.136230	1054.132690	4.830181
704.191711	853.366760	4984.672363	1055.098633	4.883005
704.517029	857.007629	4934.740723	1054.429810	4.841469
704.842163	854.704285	4897.217773	1048.188477	4.786235
705.167419	857.007629	4861.552246	1045.736450	4.712866
705.492493	853.515320	4830.122559	1050.269043	4.947779
705.817566	852.846680	4802.258789	1050.937622	5.015707
706.142578	855.075684	4770.828613	1054.355591	5.089185
706.467590	857.379089	4754.853516	1047.594116	4.880469
706.792480	855.893066	4767.560059	1049.823120	4.957734
707.117371	858.493652	4778.110840	1045.810791	4.778965
707.442200	859.831055	4800.104004	1052.200806	4.882143
707.766907	860.128357	4822.023438	1051.903687	4.840495
708.091675	854.109802	4843.348145	1054.132690	5.014062
708.416321	852.698059	4856.425781	1053.835449	5.023753
708.741028	852.920959	4851.818848	1050.417603	4.938777
709.065552	852.177917	4860.735352	1050.789185	4.954682
709.390137	853.961121	4858.134766	1048.337036	4.854333
709.714600	854.629883	4893.057129	1058.293701	5.043147
710.039063	849.651550	4941.725098	1064.832397	5.258480
710.363403	854.704163	5017.439941	1067.209961	5.104955
710.687744	859.459473	5069.674316	1065.798340	4.900911
711.012085	861.911560	5095.160645	1062.157349	4.730309
711.336304	853.069519	5117.748047	1061.042847	4.876647
711.660461	847.125305	5138.701660	1066.244019	5.105786
711.984619	846.605164	5163.072754	1059.705444	4.936913
712.308716	849.280090	5136.472168	1055.990356	4.821577
712.632751	849.725891	5091.370605	1052.869629	4.789268
712.956726	847.942688	5015.062012	1053.761230	4.939109
713.280701	849.725891	4952.871094	1054.504272	4.990767
713.604553	856.858948	4879.533691	1044.473389	4.663923
713.928467	857.379089	4819.869141	1041.129761	4.637253
714.252258	846.530945	4792.451172	1040.015259	4.903402
714.575989	837.986145	4782.345703	1044.250488	5.229349
714.899719	842.667175	4793.342773	1050.120239	5.251078
715.223267	846.753723	4777.664551	1052.720947	5.239682
715.546936	848.908508	4784.129395	1051.977905	5.160305
715.870422	850.246094	4790.965332	1042.095581	4.868388
716.193970	847.199646	4786.655762	1041.055298	4.920874
716.517395	838.877686	4766.965332	1041.798462	5.165892
716.840820	837.837463	4716.811035	1043.061646	5.290683
717.164124	839.323547	4673.715332	1040.758301	5.253369
717.487488	848.685730	4600.378906	1035.259888	4.973065
717.810730	849.280029	4523.698730	1028.572632	4.879482
718.133972	857.007629	4450.658691	1016.015320	4.424684
718.457092	860.054016	4375.464355	1014.306396	4.387891
718.780212	860.945618	4307.402832	1014.232117	4.447654
719.103210	853.812500	4238.747070	1022.405457	4.980686
719.426208	849.651550	4169.199707	1020.324951	5.141465
719.749207	846.233643	4124.395020	1026.343628	5.494238
720.072083	849.800232	4063.021484	1020.622253	5.316224
720.394958	852.698059	4045.411377	1008.733704	4.887242
720.717773	859.608154	3994.291748	998.851379	4.442019
721.040527	857.676270	3978.985107	990.826721	4.265853
721.363281	860.128235	3940.867920	996.250793	4.418502
721.685913	851.211914	3935.740967	997.291077	4.735866
722.008545	852.252258	3915.010498	1008.362244	5.097039
722.331055	847.348328	3885.735352	1009.253906	5.328669
722.653503	849.651672	3852.967773	1011.482910	5.388418
722.976013	854.035461	3827.555908	1004.275574	5.052600
723.298401	854.555664	3826.441406	1006.504639	5.112881
723.620789	848.982910	3824.361084	1009.848328	5.406554
723.943115	843.038635	3843.754150	1015.495300	5.747185
724.265381	833.602234	3844.348389	1008.362244	5.804542
724.587585	844.301758	3852.224609	995.879395	5.039279
724.909790	848.091248	3847.394531	986.517273	4.615273
725.231873	857.156189	3865.524658	992.387146	4.495160
725.553894	847.794128	3886.180908	1004.052673	5.142813
725.875916	891.261047	3929.796631	1043.061646	4.995847
726.197937	893.490234	3949.709961	1042.615845	4.879414
726.519775	897.799744	3956.694092	1026.937988	4.221730
726.841675	849.280090	3941.536377	989.117859	4.522192
727.163513	844.821960	3953.201904	987.260315	4.582398
727.485291	841.478333	3985.597900	992.164246	4.792626
727.806946	847.571106	4014.204346	998.851563	4.777328
728.128662	846.382324	4035.826904	1004.721375	4.964471
728.450256	846.976746	4046.749023	1012.374573	5.169050
728.771790	848.165527	4048.309814	1018.690247	5.328657
729.093323	855.447266	4054.551025	1017.129883	5.053998
729.414795	865.180908	4049.424072	1020.993652	4.893243
729.736145	866.741211	4035.083252	1016.461243	4.725501
730.057495	864.958008	4016.433594	1014.455078	4.743717
730.378845	855.521484	4022.229248	1011.260071	4.917997
730.700134	851.806335	4018.291016	1008.065002	4.934768
731.021301	850.691833	4044.891602	1011.780090	5.043149
731.342468	854.184082	4060.495117	1013.637695	4.973117
731.663574	849.577332	4107.157715	1023.148499	5.328224
731.984680	848.685730	4108.940430	1025.451782	5.421848
732.305664	847.125305	4116.965332	1025.006104	5.440046
732.626648	855.818787	4111.392578	1022.108215	5.107838
732.947571	855.521484	4122.761230	1015.272278	4.889472
733.268433	862.208801	4104.185059	1010.071106	4.560869
733.589233	854.109680	4074.018311	1002.863770	4.619823
733.909973	855.372864	4024.458008	1006.356018	4.764250
734.230713	854.927185	3971.926025	1008.808044	4.936828
734.551331	856.710388	3922.514893	1003.532532	4.789025
734.871948	847.942627	3876.595947	999.445862	5.002330
735.192505	837.688904	3822.428955	995.507813	5.287526
735.513062	830.853027	3771.383057	998.331299	5.695513
735.833435	840.512390	3698.046143	996.027893	5.442298
736.153931	848.685730	3650.567139	996.399414	5.271946
736.474304	852.549377	3605.985596	993.724609	5.127238
736.794617	852.475098	3605.242432	991.941406	5.066404
737.114807	850.097473	3591.942139	987.111633	4.997152
737.434998	855.893066	3599.818359	982.727783	4.622382
737.755188	860.054016	3606.431396	983.545105	4.496508
738.075256	853.961243	3635.186279	990.158020	4.897007
738.395325	852.698059	3666.467773	1001.006165	5.270797
738.715271	851.732117	3682.962891	1010.888489	5.621455
739.035278	851.955017	3699.532471	1005.464355	5.390875
739.355164	856.041687	3707.780029	1000.560364	5.067740
739.675049	850.023132	3692.622314	988.300476	4.864469
739.994873	856.710449	3660.374756	999.148682	5.080431
740.314636	850.617615	3615.570313	1000.411804	5.417604
740.634277	851.434875	3580.350830	997.439636	5.350284
740.953979	852.623718	3548.326172	982.727783	4.826351
741.273499	854.258362	3518.976807	980.795898	4.748627
741.593140	860.351257	3481.082764	981.390320	4.618522
741.912598	859.533875	3436.946533	979.309875	4.647141
742.232117	859.608154	3393.108154	973.291321	4.487198
742.551453	853.886902	3363.312744	975.743347	4.855949
742.870850	853.961121	3336.117920	974.926025	4.873379
743.190063	855.521484	3314.272705	972.622559	4.762624
743.509338	852.177917	3282.768555	965.861023	4.677180
743.828552	848.314209	3254.533447	969.501770	5.036430
744.147705	849.057190	3232.837158	968.758789	5.021503
744.466797	850.691895	3224.812500	964.895203	4.810341
744.785828	845.564941	3214.335693	968.684570	5.197617
745.104858	844.227539	3179.041748	968.387390	5.317761
745.423706	845.713623	3165.295898	969.501892	5.336662
745.742615	855.893066	3151.846924	961.997314	4.621358
746.061401	851.583496	3156.973877	966.752686	4.995648
746.380249	853.366699	3153.481689	967.792969	4.974806
746.698975	848.537109	3156.082275	967.867249	5.171302
747.017639	848.537109	3149.766602	959.916809	4.840008
747.336304	847.719727	3121.308594	963.632019	5.098208
747.654907	853.218201	3107.860107	968.164368	5.098201
747.973389	856.115967	3105.110596	968.907410	5.015194
748.291931	852.326477	3119.079834	966.455383	5.034906
748.610352	843.707458	3133.197021	962.071594	5.169892
748.928711	844.821960	3135.723389	964.597839	5.228330
749.247070	848.165527	3142.559326	966.083984	5.139417
749.565308	850.691833	3136.912354	961.031433	4.826289
749.883545	849.948730	3140.330078	962.517395	4.914844
750.201782	857.304749	3139.884521	959.768250	4.488934
750.519836	857.601990	3132.008545	966.084045	4.769686
750.837952	861.094238	3112.318115	962.368835	4.498646
751.155884	858.865173	3094.485352	965.341003	4.762698
751.473877	857.379089	3083.191406	960.734192	4.643478
751.791809	855.670166	3077.693115	963.854919	4.868751
752.109619	851.360596	3072.640625	960.734131	4.923897
752.427490	858.270691	3061.569336	961.551514	4.687554
752.745300	854.332703	3060.157471	967.347107	5.123454
753.062988	856.115967	3055.179443	967.570007	5.068250
753.380615	851.955017	3054.584961	968.387390	5.286062
753.698303	852.549377	3038.089844	966.083984	5.194807
754.015808	844.970520	3031.922607	965.638184	5.517618
754.333374	843.112976	3026.424561	961.031433	5.400899
754.650757	842.444153	3035.934814	956.424622	5.196305
754.968262	850.691833	3023.526367	952.709473	4.695141
755.285583	857.750549	3028.207275	955.161438	4.488036
755.602905	863.026062	3009.185791	953.601074	4.220330
755.920105	860.945618	3013.272705	963.780579	4.777850
756.237305	856.264587	2999.452393	962.963196	4.978500
756.554443	853.366699	3010.597656	963.929199	5.125205
756.871582	847.794006	3025.383789	954.121277	4.882796
757.188599	845.267761	3046.411377	951.297668	4.817038
757.505615	850.320313	3065.656006	943.644531	4.212645
757.822510	853.366760	3082.225586	938.591980	3.823715
758.139465	849.131531	3100.503906	939.260681	4.003298
758.456238	848.685730	3123.463623	948.771423	4.399801
758.773010	856.115967	3143.302490	954.715637	4.310959
759.089783	863.843445	3157.197021	965.935364	4.451643
759.406433	856.784668	3165.890381	964.672180	4.672264
759.723145	849.131531	3170.497314	968.684570	5.150116
760.039673	853.589661	3179.933594	964.375000	4.762208
760.356201	857.304749	3165.667236	964.895203	4.660899
760.672668	859.236633	3151.921143	963.260437	4.537205
760.989136	858.865173	3146.422852	970.096252	4.862438
761.305481	856.264465	3175.401123	971.062195	4.950020
761.621826	856.858948	3197.097656	975.966248	5.089536
761.938049	852.623718	3206.385498	973.662903	5.142372
762.254333	852.698059	3224.812256	970.467773	4.964757
762.570496	854.927063	3299.486328	974.331543	4.884499
762.886597	849.205811	3455.968018	975.743347	4.854203
763.202637	850.097412	3675.086914	988.523376	4.900053
763.518677	847.496826	3931.059814	997.662659	4.869881
763.834656	853.292480	4180.865723	1017.352844	4.930331
764.150574	855.893066	4338.535645	1027.309448	4.922020
764.466370	853.738281	4375.464355	1029.687012	4.996094
764.782288	855.075684	4287.118652	1021.959534	4.862522
765.097961	857.899231	4129.373535	1014.603699	4.790026
765.413696	858.270752	3950.675781	1005.613037	4.764650
765.729309	852.326477	3764.324219	992.684387	4.819987
766.044861	849.577332	3617.576904	985.922852	4.925778
766.360474	854.778503	3472.835205	982.207703	4.867320
766.675903	857.973450	3375.275391	975.891907	4.684319
766.991394	850.914795	3275.338135	966.604187	4.771832
767.306763	849.577332	3223.697510	955.978821	4.481723
767.622131	846.605286	3150.435303	959.842529	4.915174
767.937378	845.193420	3099.166260	963.260437	5.238174
768.252625	841.106750	3043.662109	970.616455	5.879975
768.567810	844.599060	3000.417969	965.192322	5.593850
768.882996	848.462708	2956.208008	963.854919	5.474675
769.197998	848.537048	2900.183594	953.526855	5.117344
769.513062	849.725891	2853.447266	950.926270	5.050621
769.828064	851.137695	2819.119385	952.783875	5.164996
770.142944	848.760010	2800.692383	956.573242	5.523410
770.457825	855.298645	2790.884521	958.505127	5.332054
770.772705	861.614319	2764.284180	948.548584	4.569067
771.087402	863.694824	2732.556641	951.149109	4.679548
771.402100	856.413147	2699.417725	944.610535	4.785522
771.716736	852.995300	2679.802002	949.663086	5.291626
772.031372	856.041565	2665.238525	945.650696	4.952978
772.345947	854.927063	2654.018799	950.851868	5.331846
772.660461	856.413086	2646.737061	939.929382	4.664871
772.974854	853.961121	2632.545166	933.465088	4.470071
773.289246	857.007568	2602.155518	933.985168	4.410950
773.603638	851.434875	2576.223877	941.564148	5.225524
773.917908	850.989014	2563.220947	944.313293	5.450446
774.232178	848.091248	2551.258545	935.174072	5.112993
774.546265	853.515320	2547.468994	939.483582	5.075007
774.860474	851.583496	2534.688477	938.963440	5.191592
775.174561	851.434875	2528.818848	944.164734	5.528243
775.488586	844.970520	2507.865479	941.266846	5.790884
775.802551	849.354431	2497.537354	944.907715	5.797493
776.116516	846.530945	2481.264893	940.375244	5.740647
776.430359	851.732117	2483.345459	930.641602	4.836286
776.744202	852.400879	2477.846924	925.217529	4.479795
777.057922	863.471924	2479.110107	923.954407	3.743566
777.371704	855.224365	2470.565430	927.149414	4.452623
777.685303	855.521545	2456.596680	924.400085	4.302018
777.998962	845.193542	2442.256104	929.749939	5.294495
778.312500	852.029297	2419.668213	928.561035	4.881975
778.626038	847.942566	2427.247070	931.756104	5.306991
778.939453	851.360535	2431.333740	924.028625	4.599324
779.252869	849.428711	2443.890869	923.805664	4.664705
779.566223	842.444275	2416.844727	931.756104	5.672752
779.879578	845.416321	2407.259521	935.694092	5.780207
780.192749	846.976746	2398.863281	942.232849	6.138084
780.505920	852.698059	2415.061523	933.465027	5.169538
780.819031	844.153259	2412.980957	936.957275	5.915501
781.132141	847.422546	2420.634033	938.443359	5.785669
781.445190	851.509216	2407.779785	936.362854	5.452371
781.758118	850.171692	2403.915771	936.214294	5.537759
782.071045	844.599060	2395.668213	934.653992	5.805991
782.383911	846.679504	2386.826416	936.585876	5.837519
782.696838	851.509216	2370.182617	929.750000	5.151917
783.009583	853.441101	2335.334717	922.542542	4.663050
783.322266	855.447266	2314.901611	919.570496	4.393644
783.634888	850.914795	2294.171143	921.427979	4.885701
783.947510	852.549500	2290.158691	924.474426	5.003093
784.260132	846.530945	2273.514893	927.298035	5.659986
784.572571	854.332703	2273.068848	920.387878	4.655917
784.885010	853.440979	2257.910889	916.598328	4.496881
785.197449	859.533875	2252.709961	913.774841	3.893332
785.509766	869.341797	2248.548828	919.941895	3.668782
785.822083	875.657532	2253.973145	922.022461	3.363883
786.134277	870.902283	2245.428467	928.040955	4.156972
786.446533	860.499817	2227.446777	926.183411	4.805131
786.758606	853.664001	2210.728760	918.455872	4.774413
787.070740	859.459656	2220.833984	917.341370	4.251712
787.382690	859.088074	2235.100342	919.124695	4.363088
787.694641	859.756836	2271.731445	924.697327	4.599267
788.006653	851.063416	2306.356445	922.171082	4.886141
788.318481	846.753845	2351.384033	924.474426	5.165428
788.630310	839.992188	2387.717773	927.818054	5.674511
788.942017	841.626892	2412.237549	937.626038	6.112218
789.253784	842.221375	2440.770020	939.186340	6.065813
789.565430	852.846619	2434.974365	941.861328	5.626266
789.877014	854.927063	2420.931152	930.418640	4.820650
790.188538	858.270691	2380.361816	937.403137	5.198930
790.500061	853.441101	2342.095947	932.201965	5.290740
790.811462	852.475098	2308.510986	928.486816	5.220457
791.122925	853.738281	2269.576416	920.239258	4.696934
791.434204	854.332703	2233.911133	920.982239	4.831152
791.745483	850.766113	2206.196289	922.765442	5.311917
792.056702	854.332703	2192.524658	913.403320	4.414211
792.367920	852.400818	2174.617920	907.979248	4.203427
792.678955	857.676270	2154.704590	906.938965	3.798120
792.990112	853.366760	2129.738770	911.991638	4.593087
793.301086	852.995300	2121.416992	911.694336	4.627723
793.612122	850.543274	2101.355225	913.254700	5.013657
793.922974	850.766174	2097.491455	918.901672	5.465157
794.233826	855.893066	2094.073486	926.480652	5.700913
794.544556	858.419250	2109.008545	923.805664	5.228448
794.855286	855.595886	2118.965088	915.186584	4.716808
795.166016	848.759949	2129.070068	915.929688	5.246365
795.476624	849.800232	2152.475586	916.078308	5.087843
795.787292	851.137634	2171.496826	917.564270	5.030952
796.097778	857.601990	2208.351318	916.375427	4.351173
796.408264	858.270691	2226.406982	920.387756	4.540269
796.718689	854.184082	2254.716064	925.514648	5.093105
797.029053	847.868347	2255.236328	919.421875	5.084209
797.339355	841.998352	2253.304443	920.610657	5.570181
797.649658	851.509094	2232.573975	914.072083	4.530054
797.959839	857.081848	2208.648438	919.124695	4.590439
798.270020	864.957947	2181.230713	908.647949	3.319221
798.580078	860.722656	2169.119385	913.923523	4.066111
798.890137	855.893066	2159.906006	912.065857	4.307687
799.200195	843.633057	2151.063721	922.542542	6.035462
799.510071	838.803406	2130.927734	918.827454	6.193216
799.820007	835.905579	2111.906250	919.124695	6.521871
800.129883	841.181152	2096.674072	909.539612	5.444751
800.439575	841.478271	2083.002441	906.493164	5.236700
800.749329	848.982910	2086.049072	905.824463	4.594868
801.058960	858.270752	2077.949951	910.579834	4.288757
801.368591	861.540039	2063.832520	912.140137	4.208635
801.678162	860.574158	2042.656250	910.951355	4.261734
801.987671	853.515381	2028.910156	914.815125	5.215247
802.297119	857.601990	2026.978149	914.443604	4.860849
802.606506	853.886902	2005.579102	914.443604	5.258063
802.915894	850.246094	1999.337524	910.356934	5.231163
803.225159	846.679443	1989.752563	911.694336	5.687728
803.534424	849.874512	1990.718384	909.613953	5.236425
803.843628	848.834229	1985.145874	911.471497	5.512332
804.152771	853.812561	1980.167603	908.276550	4.835420
804.461792	847.794128	1984.699829	903.298157	4.882025
804.770874	859.905457	1986.631836	894.233215	3.046681
805.079773	852.252258	1995.399536	896.016541	3.828403
805.388733	859.236633	2003.349976	897.948425	3.383563
805.697571	858.865173	2014.941040	904.338379	3.933410
806.006470	859.459656	2027.943970	901.960754	3.637284
806.315125	860.425537	2046.148315	910.728455	4.242384
806.623901	861.614319	2043.993530	911.768738	4.241822
806.932495	863.323425	2035.820190	909.911133	3.973376
807.241150	859.831116	2015.461304	895.645020	3.099080
807.549622	859.236633	2010.631470	897.056702	3.284718
807.858154	858.642273	1990.792969	902.555176	3.878716
808.166565	857.453369	1971.177124	915.483826	5.210489
808.474915	848.685730	1955.424805	917.638611	6.230275
808.783264	850.097412	1949.851929	920.016296	6.357681
809.091492	848.537048	1938.260742	910.951355	5.727535
809.399719	849.280090	1934.619995	899.954590	4.668998
809.707825	850.914734	1925.777954	899.731628	4.541684
810.015930	855.447266	1927.264038	908.425110	4.942808
810.323975	857.602051	1906.830688	912.437317	5.226246
810.632080	854.927063	1897.022827	908.053528	5.098041
810.939880	846.456543	1878.892944	898.542786	5.044983
811.247864	846.456543	1879.784546	899.285889	5.112544
811.555664	844.153137	1867.896118	903.446838	5.791854
811.863464	853.292419	1870.942383	906.270325	5.205906
812.171143	847.125305	1855.413208	903.892578	5.630066
812.478882	856.190186	1850.286255	897.948425	4.200624
812.786438	855.149963	1841.890137	904.709961	5.022599
813.094055	860.499817	1837.134766	908.945251	4.960444
813.401489	850.914795	1834.385376	912.288818	6.240555
813.708984	851.657898	1829.333008	908.573669	5.821542
814.016357	848.908630	1835.945923	904.858459	5.668461
814.323730	852.772400	1822.868652	908.499329	5.744474
814.630981	848.982910	1815.884155	910.208313	6.332126
814.938232	847.868347	1804.441528	910.356934	6.532547
815.245361	850.097412	1808.751099	904.264160	5.650294
815.552490	855.075684	1808.751099	894.604736	4.144917
815.859619	855.893066	1812.317749	895.942200	4.187380
816.166565	853.589661	1816.850220	892.004211	3.987971
816.473572	852.549500	1819.525024	902.109375	5.125246
816.780457	851.509094	1819.450806	903.223877	5.342758
817.087341	853.812561	1815.735718	913.180481	6.171794
817.394043	842.889954	1838.769409	906.864746	6.423949
817.700806	846.976746	1850.360718	900.103210	5.294729
818.007507	841.626953	1864.849609	894.233215	5.141233
818.314209	849.577332	1857.196411	896.908142	4.697292
818.620667	843.856018	1868.416138	895.347839	5.025749
818.927246	843.484558	1888.255005	896.982422	5.120537
819.233704	849.800293	1929.344360	903.669678	4.990013
819.540161	856.933289	1985.814453	917.415710	5.357732
819.846497	862.283020	2062.866455	921.948242	4.969686
820.152832	854.852844	2143.707764	922.765442	5.269219
820.458984	850.691895	2237.997803	927.372314	5.527290
820.765259	847.942688	2349.823730	928.338196	5.352987
821.071350	845.342041	2474.503662	935.916992	5.559605
821.377502	847.348206	2663.975830	944.164612	5.329458
821.683472	843.335754	3027.464600	967.941589	5.705059
821.989441	846.828125	3783.569092	1008.139343	5.492865
822.295349	847.199646	4974.790039	1067.655762	5.341037
822.601196	855.298584	6465.228516	1147.976929	5.217148
822.907043	858.345032	7840.423340	1210.168335	5.038948
823.212769	852.623718	8659.610352	1255.715942	5.163224
823.518494	851.509216	8725.814453	1251.257813	5.076621
823.824097	843.410217	8072.693848	1214.552368	5.133872
824.129700	848.760010	7043.898438	1158.676636	5.002578
824.435242	844.970520	5934.187012	1094.182007	4.896854
824.740723	845.936523	5011.718750	1050.640503	4.913939
825.046082	845.267822	4308.740234	1010.739929	4.777636
825.351501	844.821960	3793.971436	987.408875	4.834849
825.656799	844.599121	3425.503906	974.182922	5.020867
825.962036	844.376160	3196.354492	961.551514	4.981991
826.267212	848.091309	3084.974854	963.260437	5.148642
826.572449	854.629883	3084.751953	961.477112	4.791093
826.877502	855.595764	3218.051025	972.325378	4.941030
827.182495	855.670105	3508.128906	990.232361	5.073114
827.487488	853.515381	3865.153564	1007.024719	5.097204
827.792419	852.400818	4155.008301	1022.702637	5.156587
828.097290	849.057190	4256.208496	1030.801636	5.334205
828.402100	852.103577	4123.429688	1018.690369	5.092332
828.706848	851.732117	3823.321045	1002.863770	5.085887
829.011597	856.561768	3420.080078	977.452332	4.715806
829.316223	852.326477	3030.362305	956.201721	4.769217
829.620789	855.224304	2706.030518	937.105957	4.424108
829.925354	849.577393	2466.255859	924.623108	4.641969
830.229797	853.812561	2284.883057	920.759338	4.678091
830.534302	851.509216	2142.073486	917.415710	5.106797
830.838562	856.115967	2038.718140	906.790344	4.284989
831.142944	856.858948	1969.096313	909.688171	4.749816
831.447144	859.310974	1920.948242	912.585938	5.018189
831.751404	852.400818	1881.567871	915.409485	6.122298
832.055542	853.886902	1858.682495	911.768616	5.760546
832.359619	851.880676	1857.122070	908.127869	5.595392
832.663635	853.218079	1881.419067	912.140198	5.730604
832.967651	853.292480	1950.595093	918.084412	5.904655
833.271545	851.360596	2062.940674	920.462097	5.703420
833.575439	867.781433	2249.143311	927.818054	4.346191
833.879211	864.289246	2499.692139	938.889160	4.561562
834.183044	865.478088	2777.733154	956.350281	4.752096
834.486694	859.459534	3001.384033	963.111816	4.839212
834.790344	862.357361	3079.625000	961.403015	4.467014
835.093933	857.824890	3005.098877	949.588806	4.273508
835.397522	849.205811	2813.546875	941.341125	4.690393
835.700928	845.416321	2598.737549	934.876770	5.102342
836.004395	850.840515	2385.191406	932.276306	5.307508
836.307739	847.348328	2213.031982	923.805725	5.598471
836.611023	854.258362	2050.606445	911.099915	4.751255
836.914307	854.704163	1933.802734	902.852356	4.461890
837.217529	856.933289	1839.512573	902.034973	4.590132
837.520691	853.218079	1772.937378	905.378601	5.671352
837.823730	855.224304	1716.838501	902.109375	5.441539
838.126831	860.351257	1681.099121	897.651184	4.544627
838.429749	857.750671	1646.028198	897.948425	5.099442
838.732727	853.961121	1625.594849	896.462402	5.507961
839.035522	848.834290	1595.502319	887.843262	5.224406
839.338379	849.428711	1587.180542	883.310852	4.592620
839.641113	852.177917	1579.973145	882.196289	4.124563
839.943848	854.704163	1620.245239	889.032043	4.484133
840.246460	853.515320	1672.628540	887.545959	4.154571
840.549072	850.840515	1747.674316	892.524231	4.647875
840.851563	851.732117	1778.732788	896.759583	4.857328
841.154053	851.955078	1788.540649	897.799805	4.894878
841.456482	857.081848	1740.986938	891.855530	3.934097
841.758850	854.109802	1690.461060	884.053711	3.580303
842.061157	851.806396	1632.802246	882.716309	3.957756
842.363403	841.403992	1584.579712	883.607910	5.678861
842.665588	849.354431	1526.326538	886.134216	5.432984
842.967712	849.280090	1488.580688	886.802979	5.869365
843.269775	851.583435	1459.454102	882.790588	5.133848
843.571777	845.193359	1440.284058	878.852539	5.656143
843.873840	844.896179	1417.993164	872.908386	4.887865
844.175659	850.394592	1398.377319	866.072510	2.861024
844.477600	853.218079	1399.491821	869.416199	2.965202
844.779297	858.122131	1383.516602	865.403809	1.385945
845.081116	855.744446	1374.971802	868.598816	2.475673
845.382751	854.778503	1344.359009	871.199402	3.354075
845.684387	850.023132	1334.848389	875.063171	5.164755
845.985962	849.205811	1323.034302	873.948547	5.221876
846.287537	853.069580	1314.117920	867.484314	3.126513
846.588989	855.224365	1300.297607	870.753601	3.489142
846.890381	855.595886	1296.508179	878.258118	5.139850
847.191711	846.382324	1302.080933	884.128113	8.283060
847.493042	847.868347	1302.675293	884.573914	8.070581
847.794250	847.050964	1291.529907	879.298401	7.255110
848.095459	846.382324	1284.768433	878.778320	7.389832
848.396606	838.134766	1277.932617	874.245850	8.210836
848.697693	836.871582	1273.325806	871.868164	8.018386
848.998657	841.255371	1264.929565	866.221130	5.892679
849.299622	845.119141	1265.523926	862.728821	4.188744
849.600464	848.239929	1260.545654	863.100403	3.604237
849.901367	847.422546	1259.876953	863.174805	3.819151
850.202087	853.366699	1248.954468	866.221191	3.249467
850.502808	848.834229	1248.880249	870.159180	5.330625
850.803467	853.440918	1237.363281	876.474915	5.999650
851.104065	853.961121	1235.580078	884.573914	8.021822
851.404663	857.527649	1235.505737	884.722473	7.194815
851.705139	857.379089	1238.849365	882.567688	6.603031
852.005615	854.629883	1227.703857	878.703918	6.452885
852.306030	861.168457	1228.892700	879.446960	4.970709
852.606384	863.100403	1227.406616	870.456360	2.019169
852.906616	865.255188	1239.963745	862.060120	-0.852681
853.206909	857.007629	1234.316772	861.465759	1.181559
853.506958	852.400879	1237.511719	864.363586	3.106302
853.807129	847.942627	1230.007202	872.091064	6.320512
854.107178	846.679443	1228.595581	868.747375	5.778214
854.407166	840.586731	1220.942261	873.577087	8.673557
854.707092	845.119202	1216.335571	863.992004	5.084044
855.007019	852.549500	1211.357300	866.146790	3.789575
855.306763	852.698059	1197.165405	861.837219	2.653128
855.606567	858.345032	1203.258301	870.753601	3.597591
855.906250	853.366699	1199.765991	871.422302	5.212367
856.205933	854.481262	1208.756714	871.199402	4.718966
856.505493	844.376160	1208.756714	867.855774	6.443707
856.805054	845.564941	1219.827759	867.038391	5.737532
857.104492	847.199524	1219.753540	861.911621	3.948984
857.403931	844.747559	1219.530518	866.072571	5.689963
857.703308	842.444153	1214.849487	863.397644	5.626528
858.002563	841.924072	1214.329468	863.026123	5.666419
858.301819	841.255371	1209.945435	864.512146	6.307947
858.601013	844.747559	1206.973389	865.032227	5.600006
858.900208	849.800110	1198.874390	873.056946	6.662432
859.199219	847.348206	1190.032349	869.564758	6.483099
859.498291	846.010803	1176.955078	869.861877	7.206976
859.797302	839.546387	1184.311157	862.951843	6.788819
860.096191	852.400879	1181.487549	866.666931	4.335044
860.395020	856.264587	1186.837402	867.261414	3.326597
860.693787	860.128357	1180.744629	874.765930	4.565449
860.992554	858.419373	1183.939575	871.422363	3.994526
861.291260	848.388489	1176.732300	876.326355	8.508723
861.589844	844.153259	1177.177979	876.994934	9.861632
861.888428	846.976746	1169.376343	875.360352	8.803859
862.186890	859.088074	1180.744629	870.679260	3.603591
862.485413	865.849609	1183.196533	860.648438	-1.638955
862.783813	866.666992	1190.923950	861.762939	-1.512397
863.082153	859.236633	1184.311035	864.809326	1.714282
863.380371	853.441101	1185.276978	874.022949	6.202418
863.678589	844.153137	1185.648560	868.598816	7.158421
863.976746	844.673340	1180.373169	868.747375	7.171298
864.274902	843.781738	1173.834351	863.546204	5.988277
864.572937	852.995300	1166.775513	871.793762	5.990965
864.870911	860.202637	1172.496948	868.004395	2.498207
865.168884	863.026184	1173.685669	877.812317	4.759595
865.466736	855.670166	1170.490723	881.973328	8.354970
865.764587	847.794006	1173.314331	887.471680	12.189000
866.062317	857.007507	1176.137817	881.007385	7.520401
866.360107	859.088074	1179.332642	879.892822	6.496519
866.657715	861.465637	1174.800293	878.332520	5.383025
866.955322	850.840393	1176.955078	879.447083	8.771973
867.252808	851.583496	1177.103638	867.484314	4.884742
867.550293	845.044861	1180.893188	868.673035	7.035370
867.847717	847.942688	1164.695190	864.066345	5.090302
868.145081	846.010803	1168.410278	870.382019	7.559322
868.442383	854.555603	1159.939819	861.465759	2.262774
868.739624	855.818665	1158.750977	863.174744	2.428291
869.036804	851.509094	1151.840820	861.614319	3.364688
869.333984	847.571106	1154.664307	863.100403	5.056868
869.631042	851.732117	1160.385742	857.081848	1.733248
869.928101	855.150085	1165.958374	851.880676	-1.051905
870.224976	863.620422	1169.450562	857.081970	-2.137936
870.521851	858.196472	1171.159546	871.347961	4.202250
870.818726	864.660706	1171.976807	879.298401	4.763075
871.115479	859.088074	1168.113159	874.988831	5.145458
871.412231	860.871338	1167.815918	868.153015	2.372310
871.708862	856.784668	1160.980103	860.648438	1.270160
872.005493	851.063293	1165.735352	860.054016	2.857172
872.302063	855.149963	1169.376221	859.831055	1.489720
872.598572	856.636047	1169.301880	860.202576	1.140684
872.895020	853.886902	1166.998535	859.087952	1.661085
873.191406	844.747620	1166.032593	861.242859	5.134146
873.487671	845.639343	1164.843750	862.134460	5.167572
873.783997	855.967468	1167.815796	868.375916	3.979001
874.080200	857.007629	1175.394775	864.958008	2.497079
874.376343	855.001465	1177.252319	870.902161	4.934260
874.672424	842.741455	1174.874634	872.611145	8.993287
874.968445	847.348145	1165.066650	881.081604	10.617405
875.264465	848.388428	1164.992310	879.595703	9.856883
875.560364	857.007568	1159.716919	880.561584	7.781066
875.856201	855.150085	1159.419678	876.995056	7.179479
876.152039	857.453430	1170.565063	875.360352	5.719021
876.447754	857.304871	1172.199707	869.193176	3.775326
876.743469	855.744446	1178.143921	857.676270	0.599202
877.039063	844.598938	1170.936523	858.567871	4.280516
877.334595	846.159363	1172.051025	858.939453	3.921576
877.630127	845.490723	1175.914795	864.512146	5.756670
877.925537	848.982910	1175.469116	868.747375	6.053691
878.221008	847.719727	1183.865234	870.233459	6.697615
878.516296	850.246033	1187.134644	873.354187	6.859286
878.811646	851.509216	1195.902222	869.341797	5.177974
879.106812	842.518555	1207.939331	876.326355	9.251745
879.401978	843.410156	1227.258057	872.759827	7.646172
879.697083	848.314148	1263.146362	883.013489	8.364669
879.992126	856.933289	1296.656738	878.555359	4.917197
880.287109	862.060242	1348.891602	885.316895	4.777148
880.582031	860.276855	1424.308960	883.533691	4.123318
880.876892	858.790833	1570.536743	892.004211	4.666466
881.171753	853.515381	1847.017090	907.756348	5.459575
881.466492	847.199646	2299.594971	928.338196	5.586534
881.761230	851.806396	2898.103516	954.195557	5.003631
882.055786	850.171692	3484.797607	988.077637	5.234365
882.350403	857.007568	3866.490967	1009.476807	5.066293
882.644958	850.394714	3918.725586	1012.746094	5.291195
882.939453	846.679504	3696.931885	989.415039	5.007821
883.233826	837.763184	3336.860596	972.771179	5.402270
883.528137	838.729187	2942.239258	953.080994	5.436238
883.822449	845.267761	2588.781250	940.449524	5.459193
884.116577	851.286316	2277.601318	920.685059	4.865597
884.410828	857.676270	2047.411499	911.248535	4.502873
884.704956	858.047852	1862.249146	904.115479	4.587489
884.999023	856.636169	1716.244263	893.861633	4.330516
885.292969	851.955078	1602.486816	882.121887	4.019392
885.586914	848.314270	1509.162476	877.738098	4.452434
885.880798	854.332703	1456.407593	874.022949	3.270398
886.174622	859.831055	1414.129395	883.310730	4.235928
886.468384	864.214905	1385.894165	880.487244	3.119223
886.762085	864.215027	1356.916138	878.332520	2.865326
887.055664	858.790833	1331.281860	873.800049	3.176614
887.349304	856.784668	1303.864136	867.558594	2.409846
887.642822	847.199646	1273.177124	872.239563	5.878225
887.936340	844.673340	1246.428101	870.382019	6.399097
888.229736	840.809570	1216.632690	870.976379	8.026863
888.523071	841.626953	1202.738159	861.985840	5.637844
888.816284	851.657776	1186.243042	860.722717	2.709307
889.109619	858.939453	1174.725952	860.722717	0.564706
889.402710	867.409973	1159.791138	862.060120	-1.829753
889.695862	867.930115	1145.673584	860.722717	-2.594984
889.988892	864.363525	1138.243286	861.911621	-0.895248
890.281921	855.298645	1131.036011	863.100464	2.829438
>>>>>End Processed Spectral Data<<<<<
