Jaz Data File
++++++++++++++++++++++++++++++++++++
Date: Fri Jun 04 13:12:13 2021
User: jaz
Dark Spectrum Present: Yes
Reference Spectrum Present: Yes
Processed Spectrum Present: Yes
Spectrometers: JAZA3586
Integration Time (usec): 31000 (JAZA3586)
Spectra Averaged: 10 (JAZA3586)
Boxcar Smoothing: 1 (JAZA3586)
Correct for Electrical Dark: No (JAZA3586)
Strobe/Lamp Enabled: Yes (JAZA3586)
Correct for Detector Non-linearity: No (JAZA3586)
Correct for Stray Light: No (JAZA3586)
Number of Pixels in Processed Spectrum: 2048
>>>>>Begin Processed Spectral Data<<<<<
W	D	R	S	P
191.335022	0.000000	0.000000	0.000000	0.000000
191.713211	360.962646	357.024567	357.618988	84.905807
192.091385	715.386658	714.049133	719.027405	-272.200409
192.469528	1071.445313	1078.652710	1086.231445	205.152176
192.847641	1072.262573	1088.014648	1095.593628	148.114166
193.225739	1091.358398	1095.519409	1097.748413	153.568802
193.603790	1109.042358	1102.429443	1101.463623	114.605064
193.981842	1114.912231	1109.636841	1095.296387	371.836823
194.359863	1116.621216	1118.032837	1099.383179	-1221.151855
194.737854	1121.822388	1124.348633	1102.578003	-761.778198
195.115829	1130.590210	1123.828613	1115.135132	228.571426
195.493774	1136.683105	1123.902954	1121.450928	119.186211
195.871704	1131.778931	1113.277710	1109.636841	119.679077
196.249603	1131.184692	1118.627563	1106.218872	198.817902
196.627457	1125.834839	1119.519043	1101.760620	381.174744
197.005310	1129.995728	1120.782227	1112.014526	195.161438
197.383133	1122.713989	1113.500488	1112.534546	110.483986
197.760910	1123.902954	1110.974243	1116.249756	59.195370
198.138687	1116.992798	1116.398438	1116.324097	112.507698
198.516449	1122.268188	1118.033081	1115.729614	154.389801
198.894180	1115.209473	1116.101196	1108.002197	-808.240906
199.271866	1115.878174	1114.838135	1106.590454	893.016418
199.649536	1106.367432	1114.986694	1105.475952	-10.342875
200.027191	1104.064087	1118.627563	1106.218872	14.795815
200.404816	1107.184692	1119.964966	1094.627563	-98.253990
200.782410	1112.460327	1129.401367	1089.203613	-137.280319
201.159988	1111.865845	1144.782104	1089.203613	-68.848137
201.537537	1114.615112	1155.704590	1096.782471	-43.399532
201.915070	1113.500610	1157.562134	1100.720581	-29.004965
202.292557	1116.101196	1158.007813	1098.640015	-41.666885
202.670029	1103.692627	1156.596069	1101.389282	-4.353866
203.047485	1100.571899	1150.874878	1098.714233	-3.692954
203.424911	1098.491455	1140.695435	1094.330444	-9.859285
203.802292	1101.463501	1136.311523	1081.699097	-56.716000
204.179688	1100.348999	1139.209351	1087.123169	-34.034252
204.557037	1104.732910	1153.921387	1093.736206	-22.356260
204.934357	1102.429565	1155.853149	1104.286987	3.476783
205.311661	1102.429565	1161.351440	1098.491455	-6.683613
205.688934	1094.702026	1154.144165	1092.918823	-2.999897
206.066177	1095.444946	1151.766479	1091.135620	-7.651294
206.443390	1098.342773	1146.268066	1101.537720	6.666514
206.820587	1101.760742	1145.079224	1109.191040	17.152719
207.197769	1106.070313	1156.670532	1107.704956	3.230507
207.574921	1109.265381	1157.190552	1105.178711	-8.527189
207.952042	1106.516113	1153.698242	1100.348999	-13.070869
208.329147	1101.612183	1145.970825	1101.612183	0.000000
208.706223	1107.036133	1155.035767	1101.909302	-10.680980
209.083267	1104.658569	1158.602417	1103.469604	-2.204079
209.460297	1101.463501	1156.819092	1103.766846	4.160997
209.837280	1088.980713	1147.754028	1090.020874	1.769785
210.214264	1090.912476	1148.645630	1093.958984	5.276879
210.591217	1094.776245	1153.103882	1086.157349	-14.776694
210.968124	1091.952759	1156.819092	1089.798096	-3.321697
211.345016	1090.541016	1153.698364	1085.414185	-8.117553
211.721893	1088.460571	1156.818970	1085.339722	-4.565423
212.098724	1091.061157	1155.481567	1085.265503	-8.996612
212.475555	1097.822754	1151.469238	1083.185059	-27.285469
212.852356	1098.342773	1148.794312	1086.677368	-23.122002
213.229126	1099.234497	1147.828369	1090.169434	-18.654747
213.605865	1091.952759	1153.103882	1089.723633	-3.645274
213.982590	1087.866089	1146.342407	1091.655640	6.480488
214.359283	1087.123047	1149.240234	1084.299683	-4.545222
214.735931	1090.317993	1144.261841	1085.488403	-8.952994
215.112579	1090.838257	1151.469238	1085.265503	-9.191264
215.489197	1090.466675	1150.800415	1084.819702	-9.359560
215.865799	1087.271729	1147.159790	1073.451416	-23.076908
216.242355	1093.290405	1141.884277	1074.268677	-39.144295
216.618896	1093.810425	1140.918335	1076.349243	-37.066349
216.995407	1095.816528	1146.565308	1096.708130	1.756893
217.371902	1097.376831	1157.339233	1095.073364	-3.841519
217.748367	1095.816528	1154.664307	1101.760742	10.101000
218.124802	1093.513184	1153.772705	1085.191284	-13.810099
218.501236	1094.256226	1146.639648	1092.175781	-3.971570
218.877609	1096.931030	1145.227905	1088.534790	-17.384645
219.253983	1092.026978	1150.949097	1101.983643	16.898008
219.630295	1090.169434	1143.296021	1090.615356	0.839359
220.006592	1083.779419	1146.936890	1084.299561	0.823563
220.382889	1095.222168	1152.063599	1081.104492	-24.836946
220.759140	1088.906372	1159.791138	1076.646362	-17.295691
221.135391	1094.330566	1158.305054	1077.835327	-25.784090
221.511581	1091.729858	1150.280396	1077.017944	-25.126863
221.887772	1091.506958	1147.754150	1088.163452	-5.944307
222.263931	1087.643188	1150.949219	1094.776245	11.267578
222.640060	1086.528687	1155.704590	1095.742188	13.318946
223.016159	1094.627563	1163.357666	1096.856812	3.243481
223.392212	1101.612061	1163.134766	1099.754517	-3.019282
223.768265	1107.853516	1163.432007	1089.575073	-32.887619
224.144302	1114.317871	1154.887207	1086.380005	-68.864487
224.520294	1117.364258	1153.475464	1086.603027	-85.184723
224.896286	1115.135132	1154.812866	1087.717529	-69.100723
225.272217	1102.132202	1168.410278	1089.426514	-19.170273
225.648148	1092.993042	1180.373047	1089.500854	-3.996552
226.024048	1086.380249	1184.459595	1091.209839	4.924166
226.399902	1087.271729	1180.373047	1093.735962	6.943224
226.775772	1097.005371	1178.589722	1089.872314	-8.743168
227.151581	1099.680298	1175.617676	1092.918823	-8.904014
227.527374	1095.593628	1185.277100	1087.940552	-8.533430
227.903137	1094.107544	1194.787964	1091.432739	-2.656728
228.278870	1086.305786	1211.357300	1093.438843	5.704094
228.654572	1091.581177	1222.651245	1090.986694	-0.453561
229.030273	1087.420288	1238.031982	1082.813477	-3.058734
229.405930	1089.723633	1248.359985	1084.448242	-3.325461
229.781555	1081.921997	1262.849121	1089.946655	4.435298
230.157181	1085.339966	1255.567261	1101.092041	9.253554
230.532761	1099.308716	1249.623169	1095.222046	-2.718747
230.908325	1105.401733	1227.778076	1099.680298	-4.675279
231.283859	1104.064087	1222.279663	1098.119873	-5.028283
231.659332	1091.804199	1225.623413	1099.011597	5.385921
232.034821	1095.370728	1234.539673	1090.912598	-3.203394
232.410263	1094.256226	1239.517944	1082.590698	-8.030696
232.785690	1095.965210	1234.391113	1085.042603	-7.890581
233.161087	1092.695923	1234.390991	1087.271851	-3.827989
233.536469	1084.894043	1230.155884	1091.432617	4.501233
233.911804	1084.225220	1230.750366	1090.020874	3.955399
234.287140	1082.442017	1225.920532	1089.352051	4.816076
234.662430	1088.534912	1231.864746	1092.770020	2.954798
235.037704	1087.123169	1243.678955	1088.534790	0.901673
235.412933	1093.438843	1257.350586	1093.438843	0.000000
235.788162	1091.729858	1262.774658	1089.946655	-1.042536
236.163345	1099.011597	1258.242188	1094.479126	-2.846482
236.538513	1097.376831	1251.183472	1087.123169	-6.666593
236.913635	1097.896973	1249.474609	1082.962280	-9.852834
237.288742	1094.627808	1251.852295	1088.980713	-3.591740
237.663834	1089.723755	1254.824341	1095.073608	3.240360
238.038879	1101.909302	1261.660278	1091.358276	-6.604671
238.413910	1108.002075	1267.827271	1085.414185	-14.132873
238.788910	1110.008301	1276.743774	1083.630859	-15.819934
239.163879	1108.225098	1282.985107	1090.020996	-10.416629
239.538834	1105.624512	1289.375122	1095.147827	-5.701578
239.913757	1105.104370	1298.588623	1095.593628	-4.915512
240.288651	1096.188110	1314.043579	1097.673950	0.682030
240.663528	1088.014771	1327.566650	1098.491333	4.373400
241.038361	1084.299561	1353.795532	1105.773071	7.968027
241.413177	1085.488403	1383.368164	1104.732788	6.460454
241.787979	1093.067261	1426.389282	1108.745117	4.703516
242.162735	1101.017700	1471.119629	1106.664795	1.525821
242.537476	1104.584229	1497.348633	1116.769897	3.102539
242.912170	1107.036255	1516.147095	1115.655396	2.106798
243.286865	1101.760864	1517.187134	1112.831909	2.664984
243.661514	1100.200439	1515.552612	1110.677124	2.522362
244.036148	1099.606079	1494.524780	1109.785400	2.577574
244.410751	1099.457397	1469.707886	1104.955688	1.485019
244.785339	1093.364624	1463.614868	1097.599731	1.143850
245.159882	1090.243896	1474.091797	1095.444946	1.354977
245.534378	1089.352173	1508.196655	1108.745239	4.630136
245.908890	1084.671143	1556.344727	1112.163086	5.828595
246.283356	1081.327515	1630.647461	1113.574829	5.870407
246.657791	1078.132446	1702.943970	1112.311646	5.470322
247.032196	1082.590698	1771.525391	1116.769897	4.961167
247.406586	1086.305786	1813.506470	1117.141479	4.240328
247.780960	1086.157227	1834.682739	1115.803955	3.960684
248.155289	1097.302612	1814.992554	1114.317993	2.370854
248.529602	1098.565796	1775.240601	1116.249878	2.613380
248.903870	1114.615112	1713.123413	1116.472656	0.310362
249.278122	1111.717285	1659.105469	1116.992920	0.963783
249.652344	1106.144653	1619.427734	1115.655518	1.852947
250.026550	1099.828979	1594.907837	1113.129150	2.686475
250.400711	1095.073608	1581.161987	1110.825684	3.240578
250.774857	1100.126099	1573.880249	1111.494507	2.399643
251.148987	1094.924927	1585.471313	1112.757446	3.635236
251.523071	1091.729858	1610.214233	1117.587158	4.987093
251.897125	1078.355347	1634.213867	1115.952515	6.763802
252.271164	1082.144775	1645.953735	1117.958618	6.352124
252.645187	1086.900269	1645.433960	1117.364380	5.454301
253.019165	1100.571899	1640.529907	1117.290039	3.096193
253.393112	1100.200317	1619.056274	1114.243652	2.706596
253.767044	1100.720459	1593.124634	1107.333374	1.342985
254.140930	1098.045532	1571.948242	1108.002319	2.101019
254.514801	1100.497559	1570.536621	1107.853516	1.564967
254.888657	1098.565674	1573.062988	1112.460327	2.928289
255.262466	1095.222046	1577.595337	1116.398438	4.390042
255.636276	1091.581177	1575.812134	1111.420166	4.097010
256.010010	1090.689575	1585.843140	1108.596680	3.616475
256.383759	1092.918701	1607.242188	1103.172485	1.993645
256.757446	1091.655640	1649.000366	1110.528442	3.386199
257.131134	1093.513184	1689.792480	1109.636841	2.704044
257.504791	1091.804199	1736.528931	1112.088745	3.146234
257.878418	1098.045532	1791.958862	1111.122925	1.884586
258.252014	1103.172485	1882.013672	1115.878296	1.631374
258.625580	1105.624512	1994.656616	1122.788452	1.930632
258.999115	1100.126099	2133.974365	1133.190796	3.198216
259.372650	1093.735962	2269.353760	1139.506470	3.893315
259.746124	1088.609131	2379.024414	1148.645874	4.652514
260.119598	1093.513184	2444.559326	1149.388916	4.135738
260.493042	1095.296509	2454.813232	1156.298950	4.487068
260.866425	1104.955933	2410.974609	1146.119507	3.151837
261.239838	1102.949585	2327.829834	1142.330078	3.215048
261.613159	1095.593628	2216.598877	1131.778931	3.227933
261.986511	1092.324219	2124.760742	1135.419800	4.174163
262.359802	1087.123047	2057.219482	1135.865723	5.024518
262.733063	1095.444946	2025.046265	1136.608765	4.428115
263.106293	1097.896973	2007.287964	1131.556152	3.701288
263.479523	1099.457275	1989.455200	1126.429321	3.030574
263.852692	1098.417114	1977.492554	1124.645996	2.983690
264.225861	1094.479126	1963.226440	1123.382813	3.327053
264.598969	1097.971313	1969.096313	1122.639771	2.831793
264.972076	1096.782349	1987.597778	1122.119751	2.844293
265.345154	1100.646240	2024.303345	1121.302368	2.236341
265.718201	1093.661743	2066.953125	1115.209595	2.213916
266.091217	1094.107544	2122.011475	1124.423096	2.949259
266.464203	1093.661743	2181.379150	1132.893677	3.606813
266.837158	1098.788574	2236.883545	1142.107056	3.806227
267.210114	1101.389160	2277.526855	1143.816040	3.607306
267.583038	1096.485229	2302.121094	1135.939941	3.272523
267.955902	1093.513062	2306.356201	1136.980103	3.583896
268.328766	1092.621460	2314.158203	1132.819214	3.290753
268.701569	1096.410889	2326.343994	1146.416748	4.065738
269.074371	1096.485229	2344.770996	1141.512695	3.607144
269.447144	1091.358276	2375.309326	1144.930664	4.172463
269.819885	1085.488403	2426.429688	1140.695313	4.117027
270.192596	1089.649414	2526.366943	1151.246338	4.287337
270.565277	1090.986816	2647.851807	1153.326782	4.004199
270.937927	1099.531616	2770.525391	1155.630249	3.357202
271.310577	1097.302612	2861.843750	1160.608521	3.587670
271.683136	1100.794800	2914.301514	1164.026489	3.486708
272.055725	1096.633911	2930.499268	1162.168945	3.573601
272.428284	1095.742188	2904.196045	1160.385620	3.574514
272.800812	1092.770142	2867.490479	1154.738647	3.491734
273.173279	1086.082886	2803.218750	1154.812988	4.002601
273.545776	1091.506958	2770.376953	1153.326782	3.682228
273.918152	1086.231567	2728.618896	1154.738647	4.171189
274.290558	1091.135498	2718.736816	1150.429077	3.643004
274.662964	1085.859985	2713.609619	1150.577637	3.975897
275.035278	1098.937256	2737.089111	1150.280396	3.134211
275.407593	1097.079590	2771.788818	1152.732422	3.323134
275.779907	1095.444946	2817.559326	1152.286621	3.300691
276.152161	1082.070435	2870.983154	1155.927368	4.128593
276.524384	1085.859985	2916.233398	1157.859375	3.933590
276.896606	1096.633911	2944.171143	1167.295776	3.824652
277.268799	1101.983643	2934.734375	1169.970703	3.709564
277.640930	1100.869019	2936.443604	1175.543335	4.068171
278.013031	1090.615356	2928.939209	1172.719849	4.466269
278.385162	1090.838257	2940.158936	1172.051147	4.391499
278.757233	1090.466675	2952.195557	1173.462769	4.458012
279.129272	1090.986816	2993.359375	1166.478271	3.968279
279.501282	1095.222046	3034.746094	1162.465942	3.467031
279.873230	1097.896973	3096.120117	1163.580688	3.287106
280.245178	1099.754517	3174.361084	1166.998535	3.241290
280.617126	1102.801025	3305.430908	1177.252319	3.380109
280.988983	1097.822754	3417.479492	1172.794189	3.232006
281.360870	1103.098145	3534.283203	1180.373047	3.178487
281.732697	1095.965088	3599.669678	1177.921021	3.273387
282.104492	1101.017700	3659.780518	1190.923950	3.513661
282.476288	1092.993042	3670.851563	1198.428589	4.090044
282.848053	1091.284058	3666.764893	1197.908569	4.139985
283.219757	1094.702026	3654.282471	1192.558716	3.823153
283.591461	1101.760742	3634.443604	1187.951904	3.403157
283.963135	1105.698853	3647.891846	1196.868164	3.586247
284.334747	1095.593628	3708.820313	1205.635986	4.210977
284.706360	1089.054932	3803.184814	1205.710205	4.298073
285.077942	1086.305664	3893.536865	1210.094116	4.409628
285.449524	1088.832031	3968.805420	1211.060059	4.244068
285.821014	1095.593628	3985.523438	1210.837280	3.987767
286.192535	1098.268555	4037.535400	1202.663696	3.551741
286.563995	1097.376953	4038.352783	1206.527466	3.711371
286.935425	1093.884644	4041.547852	1212.843262	4.035693
287.306824	1091.284058	3954.613525	1212.991943	4.250572
287.678223	1096.410889	3876.298096	1204.670044	3.894372
288.049561	1086.825806	3816.261963	1192.112915	3.857468
288.420898	1083.333618	3820.645752	1191.369751	3.946796
288.792145	1079.767212	3845.686279	1189.437988	3.965075
289.163452	1085.042603	3947.778076	1202.440918	4.100914
289.534668	1093.735962	4058.266357	1208.756714	3.879898
289.905914	1095.519409	4179.750488	1215.592529	3.893130
290.277039	1103.246948	4278.499512	1216.335571	3.561563
290.648193	1095.816528	4309.482910	1219.753540	3.856561
291.019318	1096.410889	4320.331543	1219.233276	3.809721
291.390381	1090.615356	4258.883301	1216.409790	3.970448
291.761475	1096.633911	4211.849609	1211.134277	3.675519
292.132507	1092.175659	4170.760254	1204.818726	3.658924
292.503510	1092.026978	4166.228027	1206.007446	3.707645
292.874481	1084.448120	4210.586426	1208.310913	3.962166
293.245422	1088.386230	4288.009766	1217.450073	4.033720
293.616364	1089.500854	4421.680176	1217.227173	3.833117
293.987213	1094.553345	4553.567871	1225.846313	3.795676
294.358093	1093.810303	4674.755371	1235.357056	3.952776
294.728943	1091.358276	4789.033203	1254.973022	4.424801
295.099731	1087.717529	4903.087402	1256.904907	4.434364
295.470490	1083.556641	5015.507324	1257.127808	4.414378
295.841248	1089.054932	5100.584473	1251.703613	4.054530
296.211975	1097.376831	5209.883301	1251.034912	3.736361
296.582642	1106.293091	5320.148926	1249.177368	3.390820
296.953308	1105.178711	5374.464355	1245.759399	3.292839
297.323883	1096.708252	5352.545410	1249.548828	3.591316
297.694519	1091.209839	5241.313965	1252.223755	3.879756
298.065063	1091.135498	5122.578125	1255.047241	4.065834
298.435608	1095.147827	4978.208008	1247.765503	3.930346
298.806122	1095.593628	4812.810059	1236.471558	3.789877
299.176575	1094.182007	4655.437012	1230.898926	3.839010
299.547028	1094.256226	4534.843750	1226.737915	3.850554
299.917450	1093.884644	4470.497559	1228.446899	3.985126
300.287872	1092.398560	4472.801270	1219.010376	3.745465
300.658234	1093.215942	4476.812988	1215.443848	3.612366
301.028564	1092.547241	4465.593750	1215.072266	3.632474
301.398865	1093.884644	4409.718262	1206.601807	3.399361
301.769135	1096.485229	4353.396973	1212.694702	3.568088
302.139374	1098.119873	4326.424316	1208.979614	3.433993
302.509583	1103.246826	4285.261230	1221.165161	3.705776
302.879791	1099.903198	4234.512207	1216.261230	3.712043
303.249939	1099.234497	4167.045410	1217.078491	3.841305
303.620087	1091.506958	4134.872070	1209.351196	3.872169
303.990173	1088.757813	4130.116699	1208.608032	3.940680
304.360260	1085.859985	4130.637207	1206.750610	3.970426
304.730286	1081.624634	4126.327637	1208.682495	4.173079
305.100281	1087.123169	4115.999023	1206.230347	3.932389
305.470276	1089.055054	4121.571777	1204.224243	3.797809
305.840179	1097.822754	4133.460449	1203.778442	3.490393
306.210144	1090.317993	4162.586914	1204.001343	3.700306
306.579987	1089.055054	4208.208496	1205.784668	3.742349
306.949890	1087.271729	4271.960449	1204.298462	3.674668
307.319702	1090.763916	4350.869629	1210.465576	3.671711
307.689484	1093.215942	4430.002441	1213.660645	3.609601
308.059265	1098.565674	4516.937012	1223.097168	3.643007
308.429016	1101.017700	4600.453125	1221.833862	3.452447
308.798737	1101.537720	4711.684082	1225.400391	3.430960
309.168396	1092.250122	4771.646484	1228.521118	3.703624
309.538055	1090.689819	4791.411133	1236.917358	3.951325
309.907684	1094.702026	4776.327637	1235.951538	3.836607
310.277313	1095.519409	4797.132324	1238.254883	3.856035
310.646851	1097.525513	4810.061035	1233.945313	3.674572
311.016388	1089.723633	4792.896973	1233.573853	3.884512
311.385895	1092.026978	4726.619141	1229.635742	3.786085
311.755371	1092.398560	4656.997559	1229.932983	3.858342
312.124817	1096.931030	4604.911621	1232.533569	3.865544
312.494232	1095.445190	4568.131348	1232.904907	3.958311
312.863617	1089.500854	4544.279785	1238.403442	4.310047
313.232971	1090.095215	4552.973145	1244.644897	4.463042
313.602295	1092.472778	4624.452637	1244.124756	4.293682
313.971619	1097.228149	4730.036621	1240.261108	3.937256
314.340820	1094.924927	4773.727051	1234.911255	3.805215
314.710083	1092.547119	4766.445313	1242.935913	4.093439
315.079285	1093.884644	4683.597168	1238.403442	4.025916
315.448486	1087.048828	4601.715820	1229.412964	4.050572
315.817596	1089.426636	4467.748535	1214.849609	3.712582
316.186707	1086.677368	4361.718262	1204.744263	3.605051
316.555786	1097.822754	4271.291992	1205.190186	3.383283
316.924866	1100.274780	4227.230469	1210.911377	3.538157
317.293884	1099.160156	4220.394043	1215.741089	3.735091
317.662872	1099.977417	4244.542480	1214.700928	3.648311
318.031830	1097.748413	4282.734375	1209.425415	3.506358
318.400757	1091.506958	4317.285645	1215.295410	3.837475
318.769684	1085.934204	4353.322266	1218.787476	4.066039
319.138550	1088.163452	4359.711426	1220.570801	4.047239
319.507416	1092.770142	4351.612793	1217.970215	3.841857
319.876190	1094.850586	4300.716309	1219.679199	3.893757
320.244995	1098.045654	4233.100098	1213.957886	3.697296
320.613770	1098.491333	4179.676270	1210.168335	3.624482
320.982483	1093.810425	4179.453613	1207.047607	3.669808
321.351166	1085.637085	4218.017090	1217.821533	4.219937
321.719818	1085.339844	4279.910645	1225.326172	4.382008
322.088440	1082.739258	4394.857422	1226.440796	4.338660
322.457062	1084.522583	4559.958008	1220.645142	3.916705
322.825623	1090.169434	4740.291016	1223.840210	3.662091
323.194183	1088.237671	4858.135254	1231.567505	3.801956
323.562653	1087.123047	4930.877441	1240.038086	3.978273
323.931183	1079.024048	4936.598145	1236.471558	4.081516
324.299591	1090.392456	4910.740723	1230.973267	3.679790
324.668060	1095.370728	4859.991699	1219.307739	3.292151
325.036407	1103.098145	4789.330566	1206.007446	2.791720
325.404755	1104.212769	4729.293457	1202.143921	2.701489
325.773102	1101.314819	4648.304199	1206.081787	2.953687
326.141388	1089.872192	4571.028809	1212.769165	3.530349
326.509674	1083.259399	4464.255859	1208.608032	3.707446
326.877899	1081.253296	4383.637207	1202.886841	3.683204
327.246124	1092.992920	4341.285156	1203.778442	3.410578
327.614288	1098.862915	4314.833496	1216.187012	3.648170
327.982422	1100.126099	4310.672363	1221.611084	3.783935
328.350525	1100.943481	4322.263672	1225.251953	3.858929
328.718628	1092.918701	4369.148926	1226.143433	4.066403
329.086700	1090.466675	4417.296875	1227.109375	4.107294
329.454712	1088.757690	4466.113770	1223.320068	3.984252
329.822693	1093.736084	4485.952637	1220.645142	3.741184
330.190674	1097.079712	4536.403809	1226.366333	3.759070
330.558563	1095.370728	4567.908691	1230.601685	3.894297
330.926483	1099.977417	4657.517578	1234.836914	3.790807
331.294312	1099.754517	4739.473145	1234.465332	3.701133
331.662231	1101.315063	4857.688965	1240.483887	3.704871
332.029999	1091.284180	4951.310547	1238.552124	3.815206
332.397766	1090.169556	5018.851563	1240.037964	3.814725
332.765503	1092.027100	5055.037109	1242.564331	3.798558
333.133240	1100.943481	5077.253418	1246.205200	3.653179
333.500916	1099.457397	5083.420410	1249.771606	3.772982
333.868561	1098.714355	5078.591309	1249.028687	3.776859
334.236176	1094.256226	5053.179199	1245.536499	3.821248
334.603790	1093.810425	5014.170898	1245.090698	3.858836
334.971344	1090.466797	4978.728027	1243.530396	3.936557
335.338867	1088.534790	4955.545410	1240.335327	3.925527
335.706360	1095.667847	4949.601563	1234.911255	3.613020
336.073853	1102.355225	4966.542480	1236.694458	3.476520
336.441284	1107.407837	4995.520508	1235.951416	3.306066
336.808655	1108.819580	5052.808105	1235.579956	3.214015
337.176086	1098.862915	5096.869629	1230.675903	3.296968
337.543396	1092.918823	5120.794922	1234.019531	3.503105
337.910706	1082.293335	5127.630371	1239.517944	3.886564
338.277954	1079.915649	5118.714355	1245.908081	4.109945
338.645264	1082.442017	5098.429688	1246.651001	4.088881
339.012421	1087.123047	5041.811035	1240.484009	3.877954
339.379669	1096.039551	4946.332031	1238.997803	3.712919
339.746796	1101.835083	4853.156250	1233.573853	3.511796
340.113953	1098.862915	4780.636719	1237.288940	3.759764
340.481018	1095.965088	4754.185059	1234.316895	3.781943
340.848114	1085.562744	4754.185547	1233.573853	4.034514
341.215118	1091.952759	4801.441895	1226.069214	3.615497
341.582153	1090.689697	4944.994629	1228.001099	3.562546
341.949066	1094.924927	5140.485352	1237.140259	3.515343
342.316010	1088.832153	5407.900879	1250.812012	3.750342
342.682922	1088.460693	5659.861328	1253.635376	3.613219
343.049835	1086.454468	5974.458496	1263.592163	3.623927
343.416656	1090.615356	6264.313965	1279.641479	3.653597
343.783478	1094.479126	6510.775879	1288.854980	3.588722
344.150269	1098.342773	6633.970215	1291.827148	3.495256
344.516998	1101.983521	6636.273438	1290.341064	3.403464
344.883728	1101.537720	6520.063965	1294.279175	3.557083
345.250427	1102.503906	6415.222656	1296.062378	3.643304
345.617065	1102.280884	6261.416016	1289.003540	3.619263
345.983704	1102.578125	6164.153809	1287.591919	3.655261
346.350281	1100.051758	6011.907715	1282.687866	3.718271
346.716827	1096.485229	5885.369629	1281.201782	3.857194
347.083405	1096.931030	5774.881348	1273.251465	3.769181
347.449860	1096.411011	5687.353027	1266.044067	3.694951
347.816376	1091.061035	5667.291504	1256.830566	3.622403
348.182770	1087.197388	5656.963379	1258.242188	3.742966
348.549194	1085.562866	5722.201660	1260.396973	3.770708
348.915558	1089.426514	5807.054688	1258.762329	3.589427
349.281921	1091.358398	5920.143066	1257.647827	3.443712
349.648193	1093.810425	5955.882813	1262.923462	3.478209
350.014526	1097.599854	5980.253906	1279.790161	3.731378
350.380737	1099.234497	5983.152344	1282.019165	3.742583
350.746948	1104.955688	6047.943848	1281.350342	3.568583
351.113159	1103.766968	6121.355469	1272.731323	3.367442
351.479309	1102.578125	6195.360840	1275.406128	3.393587
351.845428	1096.188110	6308.673340	1279.790039	3.522349
352.211517	1090.243774	6426.591309	1288.260498	3.710716
352.577576	1087.940308	6570.589355	1293.090210	3.741803
352.943604	1089.426392	6709.461426	1297.176880	3.696605
353.309601	1099.234375	6871.218750	1302.823853	3.527201
353.675537	1106.590332	7049.619141	1307.950806	3.388179
354.041473	1105.029907	7200.974121	1315.455322	3.451892
354.407379	1099.754517	7315.548340	1311.517334	3.406851
354.773254	1087.643188	7426.854004	1315.826904	3.599560
355.139038	1092.993042	7598.716309	1328.235474	3.615931
355.504913	1092.027100	7858.924316	1345.102173	3.739898
355.870636	1104.881348	8157.398438	1357.733643	3.585277
356.236389	1105.698853	8423.848633	1360.928711	3.487628
356.602081	1103.246826	8719.350586	1371.628296	3.523869
356.967804	1088.980591	8899.980469	1375.937622	3.673755
357.333405	1088.757813	9022.133789	1378.835571	3.656423
357.699036	1088.757690	8992.041016	1377.721069	3.656245
358.064606	1095.222168	8955.855469	1377.869629	3.595734
358.430176	1090.689575	8885.119141	1368.433105	3.563359
358.795654	1092.473022	8929.774414	1363.157593	3.453798
359.161163	1096.633911	9116.201172	1368.136108	3.385497
359.526581	1097.599854	9525.609375	1388.346313	3.449764
359.892029	1099.383057	10059.325195	1414.649536	3.518622
360.257416	1090.986938	10667.566406	1436.420288	3.607064
360.622772	1092.695801	11137.605469	1454.921509	3.606062
360.988098	1087.717651	11464.463867	1462.203125	3.608891
361.353394	1096.931030	11528.215820	1470.079468	3.577205
361.718658	1096.856812	11393.729492	1457.596313	3.503389
362.083893	1103.023804	10953.855469	1443.033203	3.451581
362.449097	1101.612183	10366.418945	1406.921875	3.295370
362.814209	1096.485229	9663.068359	1386.117188	3.380951
363.179382	1100.943481	9030.305664	1368.433228	3.373408
363.544434	1097.525513	8561.679688	1362.637573	3.551803
363.909546	1093.810425	8289.062500	1354.018433	3.616385
364.274536	1091.655518	8136.742188	1346.588257	3.618589
364.639587	1090.615356	8002.552246	1343.541870	3.659271
365.004517	1095.816528	7940.435059	1341.907104	3.595388
365.369507	1086.603027	7882.775879	1336.928833	3.683335
365.734344	1085.711426	7875.791504	1329.498535	3.590342
366.099274	1087.346069	7845.625000	1335.219849	3.667706
366.464081	1096.188110	7816.274902	1343.244507	3.676387
366.828918	1098.565796	7744.945313	1354.910156	3.856902
367.193665	1101.983643	7660.833984	1337.523315	3.591173
367.558411	1100.646118	7580.958496	1329.572876	3.532650
367.923126	1105.401489	7498.333496	1321.845337	3.385674
368.287781	1093.587402	7441.194824	1328.532593	3.701319
368.652435	1092.026978	7393.417969	1326.303589	3.717855
369.017059	1090.020874	7421.058594	1318.724731	3.612423
369.381653	1104.955688	7484.810059	1319.393433	3.361170
369.746185	1103.321045	7569.292480	1322.959961	3.396843
370.110687	1099.903198	7657.415527	1340.643921	3.671220
370.475220	1093.364624	7734.021973	1346.439575	3.810992
370.839661	1094.182007	7798.591309	1347.628418	3.780294
371.204041	1100.571899	7838.863281	1344.879272	3.625658
371.568451	1100.200439	7826.008301	1338.786499	3.547322
371.932770	1095.816528	7813.228516	1336.854614	3.588258
372.297150	1097.079712	7776.002441	1331.653320	3.512147
372.661377	1094.776245	7813.748535	1330.835938	3.513330
373.025696	1099.828857	7853.798340	1330.984497	3.422515
373.389862	1093.661743	7908.855957	1329.127075	3.455005
373.754059	1104.435547	7976.917480	1329.944458	3.281332
374.118225	1104.212769	8107.541504	1339.232300	3.355826
374.482361	1112.534546	8292.480469	1350.600464	3.315706
374.846436	1107.482056	8530.174805	1361.374390	3.420488
375.210510	1110.751343	8844.104492	1366.872681	3.311905
375.574524	1103.246826	9182.850586	1375.343262	3.367695
375.938538	1096.708130	9519.368164	1393.324341	3.521645
376.302460	1094.850586	9769.024414	1402.686646	3.548880
376.666412	1100.571899	9927.290039	1404.767212	3.446301
377.030304	1104.361328	9912.428711	1403.652710	3.397923
377.394196	1102.801025	9766.274414	1394.587769	3.368011
377.757996	1095.444946	9501.385742	1392.209961	3.530420
378.121796	1092.027100	9191.097656	1379.281372	3.546756
378.485565	1095.816528	8902.506836	1369.547729	3.506367
378.849304	1093.735962	8699.881836	1358.179443	3.476708
379.212982	1097.971313	8591.176758	1354.835815	3.427965
379.576630	1092.250000	8524.973633	1358.625366	3.583819
379.940277	1091.284058	8519.549805	1356.173218	3.565962
380.303864	1088.386353	8481.878906	1359.219604	3.663130
380.667450	1094.404785	8506.769531	1366.204102	3.666837
381.030945	1095.593628	8493.395508	1366.798462	3.666019
381.394501	1097.302612	8557.147461	1367.169922	3.617599
381.757935	1094.553467	8623.945313	1361.968872	3.551620
382.121399	1097.748413	8730.346680	1371.628296	3.588292
382.484741	1095.444946	8884.598633	1373.263062	3.566730
382.848145	1097.599731	9019.680664	1379.727173	3.561279
383.211487	1100.943481	9148.967773	1375.714844	3.414147
383.574768	1102.875244	9215.320313	1380.098633	3.417260
383.938019	1100.497559	9256.260742	1371.776733	3.326227
384.301270	1098.640015	9308.347656	1378.984009	3.414786
384.664459	1094.776245	9335.838867	1375.863403	3.410812
385.027649	1093.290161	9361.547852	1391.987305	3.612576
385.390778	1091.061157	9439.937500	1392.507324	3.610620
385.753876	1097.674194	9550.648438	1403.504028	3.618014
386.116943	1094.999146	9678.152344	1400.234741	3.556217
386.479980	1098.194214	9734.399414	1402.686646	3.525767
386.842987	1101.909424	9758.399414	1397.039673	3.409352
387.205994	1102.132202	9733.582031	1404.767212	3.506190
387.568909	1098.937134	9707.948242	1400.011841	3.497205
387.931793	1090.764038	9626.437500	1399.937500	3.622133
388.294678	1093.067261	9630.895508	1392.730103	3.509825
388.657471	1091.432617	9628.295898	1398.005493	3.591165
389.020294	1094.107544	9705.421875	1409.894043	3.667111
389.383057	1093.364502	9880.626953	1412.568970	3.632581
389.745819	1094.033325	10093.875977	1411.380249	3.526139
390.108521	1088.683472	10391.607422	1418.884766	3.549436
390.471191	1088.312012	10654.192383	1432.036499	3.593234
390.833801	1090.392456	10923.391602	1452.692505	3.684533
391.196442	1093.884644	11068.282227	1446.302368	3.533223
391.558960	1095.073486	11115.018555	1444.370483	3.486017
391.921509	1094.256226	11048.145508	1434.934082	3.422560
392.284027	1094.479004	10990.932617	1443.181763	3.523512
392.646484	1093.810425	10917.299805	1442.141602	3.545901
393.008911	1093.215942	10909.200195	1442.810181	3.561479
393.371307	1099.160156	10926.140625	1438.575073	3.453908
393.733673	1093.958984	10914.178711	1448.160034	3.606855
394.096008	1088.980713	10832.815430	1453.732788	3.743414
394.458344	1087.568970	10693.647461	1457.076538	3.846602
394.820587	1084.225342	10468.881836	1442.735840	3.820177
395.182831	1083.259399	10242.258789	1428.841309	3.773141
395.545013	1079.692871	9997.357422	1418.587524	3.800263
395.907196	1096.633789	9815.092773	1417.547241	3.680851
396.269287	1101.017700	9690.858398	1415.615356	3.662439
396.631409	1099.011475	9623.762695	1407.888062	3.623291
396.993469	1088.832031	9590.920898	1406.698853	3.738691
397.355530	1090.095093	9610.313477	1413.980591	3.801375
397.717499	1097.451172	9671.911133	1429.138550	3.868318
398.079468	1100.274780	9713.817383	1433.968140	3.874055
398.441376	1101.091919	9720.059570	1440.581421	3.938865
398.803284	1094.924805	9653.929688	1437.460571	4.002051
399.165131	1097.451294	9635.725586	1439.838257	4.010026
399.526978	1099.606079	9596.196289	1439.540894	4.000838
399.888763	1101.760742	9613.434570	1443.924805	4.019938
400.250519	1107.110474	9619.081055	1446.005371	3.981392
400.612244	1103.395386	9662.325195	1452.320923	4.076743
400.973938	1101.314819	9743.539063	1459.082520	4.139764
401.335602	1094.924805	9852.764648	1469.262085	4.274311
401.697205	1095.742310	10023.808594	1482.487915	4.331796
402.058807	1099.531738	10196.042969	1494.896484	4.346334
402.420349	1104.212769	10456.176758	1511.020142	4.349967
402.781860	1107.704956	10700.483398	1524.989136	4.349983
403.143341	1105.253052	10946.350586	1538.066406	4.398019
403.504822	1092.398560	11151.351563	1552.406738	4.573122
403.866241	1092.398560	11320.166992	1562.214722	4.593535
404.227631	1090.615234	11428.797852	1572.097046	4.657316
404.588959	1098.417114	11432.440430	1576.926636	4.630428
404.950287	1094.627686	11360.885742	1575.812134	4.687048
405.311554	1096.856812	11233.902344	1573.285767	4.699880
405.672821	1093.141602	11129.878906	1566.598633	4.717240
406.034027	1097.228271	10988.481445	1569.570679	4.775355
406.395203	1098.342773	10810.897461	1565.335327	4.808133
406.756348	1101.017700	10662.366211	1564.740845	4.849977
407.117493	1097.748413	10589.846680	1565.186890	4.924501
407.478516	1096.336548	10643.865234	1568.604614	4.946496
407.839600	1104.064087	10727.975586	1582.350708	4.969774
408.200592	1103.098145	10892.481445	1580.641602	4.878177
408.561554	1105.401489	11054.387695	1594.907837	4.920163
408.922485	1097.599731	11218.374023	1606.647827	5.029735
409.283417	1094.330322	11320.390625	1623.514526	5.174859
409.644257	1088.757690	11396.625000	1633.619751	5.285885
410.005096	1087.568970	11456.885742	1636.071655	5.289670
410.365906	1095.742310	11445.887695	1639.118164	5.249935
410.726715	1098.491455	11416.835938	1640.455444	5.252431
411.087433	1097.153931	11348.106445	1634.139648	5.238399
411.448120	1094.182007	11287.698242	1632.282227	5.278848
411.808807	1090.615356	11256.937500	1636.740234	5.371902
412.169434	1094.404663	11197.122070	1639.712524	5.397635
412.530029	1094.256226	11255.969727	1649.668945	5.465739
412.890564	1097.079712	11333.320313	1660.220093	5.501438
413.251099	1091.952759	11516.996094	1670.399414	5.548626
413.611572	1089.129272	11703.718750	1687.414673	5.636444
413.972076	1087.643188	11896.534180	1690.461304	5.577058
414.332489	1086.825806	12014.155273	1707.625122	5.681162
414.692871	1092.398560	12220.346680	1718.919067	5.630153
415.053223	1097.748413	12400.531250	1738.163574	5.665995
415.413574	1099.457397	12708.885742	1753.990112	5.637941
415.773834	1101.835083	12958.989258	1765.581421	5.597855
416.134094	1092.175781	13307.765625	1782.893921	5.654398
416.494263	1101.389160	13623.776367	1795.971069	5.546721
416.854462	1102.132202	14003.983398	1816.181519	5.534472
417.214630	1107.630737	14443.260742	1836.689087	5.466996
417.574738	1105.104370	14864.926758	1868.193359	5.545776
417.934784	1094.776367	15388.241211	1909.505493	5.700011
418.294861	1101.537720	15949.523438	1945.319458	5.682803
418.654846	1097.971313	16604.279297	1991.981445	5.765461
419.014832	1102.132202	17247.964844	2013.083618	5.642022
419.374756	1096.336548	17958.226563	2055.064697	5.685769
419.734680	1095.890747	18717.746094	2092.587646	5.656027
420.094543	1094.850464	19323.908203	2123.645752	5.643711
420.454376	1097.599731	19668.375000	2142.370361	5.625886
420.814148	1091.581177	19842.244141	2151.286621	5.651563
421.173920	1092.175537	20025.251953	2165.701416	5.670108
421.533691	1092.621460	20165.462891	2176.177979	5.681149
421.893341	1090.615356	20189.386719	2173.651611	5.670712
422.253021	1088.311890	20089.748047	2180.784668	5.749423
422.612640	1076.349121	20029.859375	2181.899414	5.832958
422.972260	1078.503906	20046.798828	2188.363525	5.851130
423.331757	1080.213013	20174.080078	2189.478271	5.809537
423.691315	1090.243774	20319.490234	2185.688721	5.696765
424.050781	1095.667847	20334.943359	2181.007813	5.641273
424.410248	1093.958862	20154.685547	2163.100830	5.609136
424.769653	1093.215942	19801.376953	2152.178467	5.660431
425.128998	1097.971313	19418.869141	2138.655273	5.680311
425.488373	1103.246826	18899.417969	2123.497314	5.732977
425.847656	1104.955688	18466.158203	2095.113770	5.703280
426.206940	1103.915649	18026.732422	2065.392822	5.681543
426.566193	1102.280884	17623.935547	2048.451904	5.726854
426.925385	1099.160156	17116.298828	2021.925781	5.761114
427.284576	1094.850586	16619.513672	1989.009644	5.759604
427.643677	1092.695801	16267.168945	1957.356812	5.698129
428.002777	1089.797974	16048.347656	1946.879883	5.729712
428.361847	1092.398560	15886.218750	1943.536255	5.753333
428.720856	1096.188110	15677.652344	1929.270142	5.713295
429.079865	1097.079712	15514.929688	1924.737671	5.740509
429.438812	1089.946655	15458.086914	1917.976074	5.762955
429.797760	1084.373901	15457.863281	1925.406250	5.851275
430.156616	1084.076660	15355.104492	1920.799438	5.863087
430.515503	1089.500732	15270.250000	1921.022461	5.863736
430.874268	1091.209717	15250.484375	1916.935913	5.831698
431.233093	1095.073486	15380.217773	1917.976196	5.760549
431.591827	1097.525513	15576.227539	1930.161743	5.750766
431.950562	1100.869141	15736.424805	1938.335083	5.722133
432.309204	1099.531616	15893.203125	1948.737427	5.740332
432.667877	1101.835083	16050.426758	1952.229858	5.688795
433.026459	1100.571899	16112.692383	1959.585815	5.722136
433.385010	1099.977417	16215.825195	1963.523804	5.712854
433.743561	1099.977417	16183.579102	1966.347290	5.743786
434.102051	1098.937134	16257.434570	1976.155273	5.786973
434.460510	1104.807129	16280.989258	1976.155273	5.741550
434.818939	1101.240723	16291.465820	1976.229492	5.760210
435.177338	1096.485229	16290.723633	1971.251343	5.757223
435.535675	1085.265381	16279.502930	1967.833130	5.808569
435.894012	1088.906250	16291.985352	1962.483398	5.746054
436.252289	1096.187988	16449.507813	1968.353394	5.680631
436.610535	1098.714233	16529.531250	1973.851929	5.671363
436.968719	1090.318237	16831.423828	2004.835938	5.809742
437.326935	1086.751587	17082.716797	2021.108276	5.841202
437.685028	1090.243774	17424.955078	2042.656128	5.830604
438.043152	1093.958984	17707.900391	2041.615845	5.703986
438.401215	1091.655518	18043.451172	2062.272217	5.725746
438.759277	1093.215942	18424.548828	2078.841553	5.686958
439.117249	1094.479126	18941.919922	2109.454346	5.686951
439.475250	1101.166382	19407.798828	2132.785400	5.635220
439.833130	1100.571899	19890.095703	2169.268066	5.687724
440.191071	1099.605957	20061.066406	2177.441406	5.684348
440.548889	1092.027100	20177.646484	2181.082275	5.706156
440.906708	1092.101440	20081.572266	2168.748047	5.669703
441.264496	1095.444946	19863.939453	2161.168945	5.678260
441.622223	1102.057983	19529.132813	2148.314697	5.677823
441.979950	1101.166260	19147.587891	2134.197021	5.724297
442.337616	1096.856812	18899.937500	2130.704834	5.807130
442.695251	1092.844360	18686.466797	2119.039307	5.832767
443.052887	1087.494629	18619.148438	2103.955811	5.797863
443.410461	1088.460571	18742.712891	2096.748291	5.711302
443.768005	1086.602905	19002.402344	2104.401611	5.681012
444.125458	1089.352173	19320.119141	2129.515869	5.705540
444.482941	1089.203491	19703.150391	2154.407471	5.722612
444.840393	1090.763794	20246.154297	2183.905518	5.706706
445.197754	1093.215942	20748.142578	2218.976318	5.727625
445.555084	1097.079712	21180.138672	2246.245361	5.722065
445.912415	1093.513062	21388.853516	2259.248779	5.743859
446.269714	1091.581177	21525.349609	2253.750244	5.687493
446.626953	1087.568970	21529.435547	2254.939209	5.710683
446.984161	1094.330444	21406.017578	2251.372559	5.696435
447.341309	1098.268433	21185.636719	2237.106445	5.669424
447.698456	1093.364624	20848.228516	2212.958008	5.667432
448.055542	1098.417114	20558.298828	2186.283203	5.590302
448.412598	1102.578003	20168.136719	2170.382324	5.600698
448.769653	1111.791626	19763.408203	2150.989502	5.571623
449.126617	1105.847290	19260.603516	2132.933838	5.657397
449.483582	1095.890869	18933.224609	2112.351807	5.698503
449.840515	1094.107544	18665.066406	2106.482178	5.761636
450.197388	1090.095337	18510.070313	2095.188232	5.769773
450.554230	1095.370728	18337.912109	2096.599854	5.806738
450.911041	1093.884766	18236.041016	2082.853760	5.769222
451.267822	1103.618286	18283.595703	2081.516357	5.692080
451.624573	1107.110474	18377.738281	2073.565918	5.595949
451.981262	1103.172485	18352.771484	2069.627930	5.602770
452.337921	1100.571899	18149.626953	2053.801514	5.591100
452.694580	1094.627686	17779.302734	2040.501465	5.669117
453.051147	1097.599731	17580.916016	2024.377563	5.622520
453.407715	1091.506958	17202.863281	2016.352905	5.740336
453.764221	1086.231567	17082.195313	2015.089844	5.806829
454.120728	1083.036499	16695.820313	1997.034302	5.854163
454.477142	1079.321411	16660.156250	1991.387329	5.853768
454.833557	1082.887817	16519.054688	1973.851685	5.771924
455.189911	1090.912598	16544.466797	1976.823853	5.732735
455.546265	1101.240601	16613.716797	1977.121094	5.646297
455.902557	1107.853638	16727.548828	1988.043579	5.635129
456.258820	1105.401489	17000.537109	1988.117798	5.553374
456.615051	1102.057983	17298.193359	2007.362305	5.589632
456.971252	1101.389282	17638.648438	2023.486206	5.575875
457.327393	1103.172485	18260.117188	2063.832520	5.599249
457.683502	1101.315063	18984.716797	2104.773193	5.611114
458.039612	1105.550293	20008.236328	2159.014160	5.573091
458.395630	1103.172485	20919.335938	2216.598877	5.618779
458.751648	1101.760620	21744.615234	2259.991455	5.610807
459.107605	1094.924805	22537.427734	2296.845947	5.605321
459.463562	1093.958984	22827.578125	2315.347168	5.619811
459.819458	1104.881470	22709.734375	2312.746582	5.590712
460.175323	1108.299316	22001.703125	2282.356689	5.619273
460.531158	1109.339600	21195.072266	2240.598389	5.632151
460.886932	1102.652344	20366.525391	2197.205811	5.681897
461.242676	1100.274658	19641.181641	2162.134766	5.727121
461.598419	1100.646118	19074.773438	2132.116455	5.738639
461.954102	1104.138306	18463.408203	2102.841309	5.753139
462.309723	1102.280762	17963.427734	2064.798096	5.708493
462.665344	1100.051758	17533.435547	2041.318726	5.727774
463.020905	1094.181885	17391.814453	2012.860718	5.636885
463.376373	1093.884644	17356.744141	2019.548218	5.691887
463.731873	1088.832031	17438.031250	2012.860840	5.651829
464.087341	1086.677368	17475.478516	2030.321899	5.757862
464.442749	1091.729858	17613.015625	2028.538574	5.670314
464.798126	1097.228271	17695.935547	2032.253540	5.633121
465.153503	1101.240601	17879.390625	2038.569336	5.586604
465.508820	1094.702026	18025.542969	2056.253418	5.679289
465.864105	1098.119873	18128.750000	2078.321289	5.755520
466.219330	1096.856689	18324.908203	2092.364502	5.778412
466.574524	1097.673950	18351.955078	2094.891113	5.779535
466.929657	1096.633789	18271.187500	2083.522705	5.746227
467.284790	1095.890747	18086.470703	2072.748779	5.749410
467.639893	1101.909302	17867.576172	2061.751953	5.725049
467.994934	1101.091919	17696.976563	2058.111084	5.766605
468.349945	1101.537964	17484.470703	2040.501465	5.731352
468.704926	1101.314941	17307.480469	2031.659302	5.740682
469.059875	1103.766968	17149.958984	2010.928833	5.653440
469.414764	1099.308716	17071.720703	2010.854492	5.707001
469.769653	1090.764038	17054.111328	2008.997070	5.752133
470.124451	1089.129272	17164.896484	2018.879272	5.783550
470.479248	1095.519287	17214.603516	2016.055664	5.710848
470.834015	1096.559570	17278.205078	2007.139526	5.627240
471.188721	1085.042603	17419.009766	2013.232300	5.682574
471.543365	1083.928101	17700.914063	2039.163940	5.748550
471.898010	1088.386230	17956.142578	2060.414307	5.762640
472.252625	1093.141602	18318.666016	2078.321289	5.719302
472.607178	1092.324341	18591.060547	2087.683350	5.688177
472.961700	1082.887817	18703.630859	2093.627686	5.736080
473.316193	1084.002319	18701.103516	2098.160156	5.756667
473.670654	1084.151001	18628.806641	2095.039551	5.761803
474.025055	1096.485229	18777.189453	2098.383057	5.666617
474.379456	1096.559570	18859.888672	2101.132324	5.655318
474.733795	1098.268433	19033.013672	2102.098389	5.597124
475.088104	1092.026978	19326.138672	2120.896729	5.642555
475.442383	1094.553345	19649.281250	2133.899658	5.601517
475.796570	1095.519165	20015.296875	2159.534424	5.623826
476.150787	1104.584229	20474.337891	2170.828369	5.504686
476.504944	1110.082642	20959.015625	2198.766357	5.484848
476.859070	1112.608887	21324.138672	2218.827881	5.473208
477.213135	1104.881470	21579.962891	2239.038330	5.539206
477.567200	1099.011597	21854.734375	2244.759521	5.520154
477.921173	1095.890747	22179.287109	2254.938965	5.497446
478.275146	1095.370728	22404.275391	2271.062744	5.517375
478.629089	1094.924927	22702.529297	2301.155273	5.582435
478.983002	1092.695801	23126.203125	2335.631836	5.641118
479.336823	1097.154053	23749.156250	2370.925781	5.623219
479.690643	1102.057983	24458.078125	2400.646729	5.559975
480.044403	1101.537842	25380.695313	2445.971436	5.537398
480.398163	1099.234375	26633.365234	2522.800537	5.575150
480.751862	1089.203491	28423.093750	2615.232910	5.582921
481.105499	1088.683472	30837.486328	2746.674561	5.573304
481.459137	1081.996216	34329.417969	2926.635498	5.548217
481.812744	1084.151001	38855.269531	3199.103516	5.599391
482.166290	1085.785645	44224.753906	3489.330078	5.571631
482.519806	1091.135376	49371.261719	3803.705078	5.618399
482.873291	1091.506958	53518.535156	4086.649414	5.712974
483.226715	1091.432617	56087.332031	4310.523926	5.853330
483.580139	1090.541016	56988.699219	4407.785645	5.934444
483.933502	1090.615356	56375.332031	4351.093262	5.897612
484.286804	1086.454468	54467.613281	4199.367188	5.831482
484.640106	1090.764038	51658.968750	3973.115234	5.699928
484.993347	1095.742310	48771.562500	3787.952881	5.646910
485.346558	1102.726685	46579.558594	3642.393799	5.584529
485.699738	1094.256226	45657.761719	3600.189697	5.623287
486.052887	1095.519409	45992.199219	3604.573486	5.588507
486.405975	1092.473022	47112.906250	3653.464844	5.564901
486.759064	1102.652466	48293.277344	3716.250732	5.538384
487.112061	1099.903320	48829.144531	3740.547607	5.532550
487.464996	1094.999268	48370.253906	3740.027344	5.594953
487.817963	1087.717407	47058.292969	3666.022217	5.608598
488.170868	1089.203613	45012.589844	3561.775391	5.629283
488.523743	1095.370728	42717.675781	3430.853516	5.611133
488.876587	1096.336548	40653.769531	3321.182861	5.624344
489.229401	1094.404663	39429.406250	3248.960693	5.620337
489.582153	1090.392334	39283.480469	3227.264404	5.594918
489.934845	1097.153931	40039.730469	3253.790283	5.537991
490.287537	1095.816406	41367.222656	3310.112061	5.498431
490.640198	1097.302612	42715.964844	3375.201172	5.473262
490.992798	1089.055054	43414.113281	3413.021240	5.490757
491.345337	1093.215942	43099.515625	3409.826172	5.514912
491.697876	1096.188110	41725.214844	3345.777344	5.536902
492.050354	1098.417114	39564.121094	3234.249023	5.552562
492.402832	1094.776367	36815.214844	3088.021240	5.580124
492.755219	1092.175659	33912.578125	2927.378906	5.591654
493.107605	1089.277954	31300.318359	2786.872314	5.619119
493.459930	1094.033203	29328.177734	2671.405762	5.586755
493.812225	1098.937256	27939.978516	2599.926514	5.592143
494.164490	1099.828735	27100.505859	2545.834229	5.561415
494.516724	1097.748413	26675.718750	2526.589844	5.586219
494.868896	1097.748413	26604.314453	2521.908447	5.583504
495.221039	1103.989868	26842.156250	2528.224365	5.533551
495.573120	1100.497559	27148.431641	2543.902588	5.541342
495.925201	1095.667969	27486.953125	2564.632813	5.566098
496.277222	1097.599731	27654.953125	2588.483887	5.613828
496.629211	1101.909302	27662.162109	2584.917236	5.583561
496.981140	1104.732788	27512.142578	2572.137207	5.556790
497.333069	1102.726685	27241.677734	2545.685303	5.520339
497.684967	1098.342773	26880.865234	2537.289307	5.581093
498.036804	1097.451172	26380.509766	2508.459961	5.580847
498.388580	1094.850586	25849.693359	2482.974121	5.607482
498.740326	1095.742310	25331.132813	2446.417236	5.573151
499.092072	1093.810425	24788.576172	2402.949951	5.525016
499.443756	1094.033325	24317.718750	2377.612549	5.527026
499.795410	1091.061157	23897.462891	2356.436279	5.548333
500.147003	1093.141724	23591.632813	2362.677979	5.642762
500.498566	1089.946655	23283.130859	2351.012451	5.682221
500.850098	1098.417114	23050.486328	2344.919678	5.678292
501.201599	1093.661743	22868.000000	2317.873535	5.622269
501.553009	1093.290161	22776.310547	2315.495850	5.636695
501.904449	1086.677368	22781.509766	2303.235840	5.607596
502.255859	1089.649414	22898.242188	2319.210938	5.637968
502.607178	1096.633911	23079.615234	2311.409180	5.525981
502.958405	1103.246704	23157.037109	2318.319336	5.509586
503.309692	1103.395386	23168.333984	2309.700195	5.467066
503.660919	1096.113647	23194.187500	2317.427734	5.526790
504.012115	1090.169434	23222.572266	2322.331543	5.567232
504.363251	1088.311890	23236.986328	2321.588623	5.568174
504.714294	1087.717651	23094.771484	2313.712402	5.570917
505.065369	1087.271729	22971.056641	2296.771484	5.526922
505.416443	1091.432617	22817.474609	2295.062256	5.540031
505.767395	1094.702026	22792.656250	2297.440186	5.543095
506.118317	1100.051758	22773.265625	2290.306885	5.491826
506.469238	1102.206543	22950.328125	2296.548584	5.466567
506.820160	1097.302612	23101.312500	2302.567139	5.477477
507.170929	1097.822632	23366.052734	2332.882568	5.546287
507.521729	1095.370728	23612.662109	2343.062012	5.541037
507.872498	1104.584351	23930.750000	2350.864014	5.459873
508.223236	1105.178589	24242.226563	2362.306396	5.433397
508.573883	1098.714355	24503.625000	2378.653076	5.468676
508.924500	1098.342773	24754.767578	2391.730225	5.467383
509.275116	1094.181763	24937.328125	2399.977783	5.476610
509.625702	1102.355103	25159.865234	2404.213135	5.411441
509.976196	1098.640015	25353.203125	2421.377197	5.453560
510.326660	1100.274780	25572.841797	2433.265381	5.446877
510.677124	1095.147827	25699.380859	2447.011475	5.494435
511.027557	1099.903198	25867.898438	2466.404297	5.517205
511.377869	1099.383057	25998.744141	2479.927490	5.544497
511.728180	1104.286987	26056.255859	2488.992432	5.549484
512.078430	1105.773071	25968.802734	2479.481934	5.525106
512.428650	1099.011597	25836.765625	2467.593506	5.532361
512.778931	1096.782593	25676.421875	2465.884521	5.570065
513.129028	1092.918823	25547.357422	2462.020508	5.598581
513.479126	1095.519287	25386.937500	2455.110596	5.597003
513.829285	1097.525513	25246.205078	2430.664795	5.520547
514.179382	1096.708130	25164.697266	2418.850830	5.493366
514.529297	1098.491333	25138.914063	2421.302734	5.502447
514.879272	1098.714355	25286.404297	2439.209717	5.542056
515.229187	1093.587402	25407.814453	2448.943359	5.574333
515.579163	1090.763916	25851.625000	2465.884277	5.553605
515.928955	1084.373901	26409.935547	2490.032471	5.550355
516.278748	1090.466797	27239.599609	2532.236572	5.513643
516.628540	1097.896973	28127.443359	2589.672607	5.519055
516.978333	1101.314941	29119.906250	2643.393555	5.503769
517.327942	1106.887695	30089.703125	2708.854248	5.527297
517.677612	1103.766968	30824.927734	2740.507080	5.506986
518.027222	1106.070313	31257.369141	2774.760986	5.534390
518.376831	1092.695801	31336.353516	2763.392578	5.524123
518.726379	1096.633911	31067.453125	2739.392578	5.481194
519.075867	1096.188110	30554.244141	2687.826904	5.403068
519.425293	1103.395386	29845.396484	2650.303955	5.382049
519.774658	1101.909424	29125.773438	2622.588623	5.426373
520.124084	1096.708252	28405.853516	2601.263916	5.509347
520.473389	1096.113770	27829.265625	2568.347656	5.507146
520.822693	1095.593628	27409.380859	2538.552490	5.483661
521.171997	1100.497681	27148.056641	2524.137695	5.465541
521.521240	1099.160156	27108.455078	2525.846680	5.485295
521.870361	1093.884644	27228.828125	2535.134521	5.514647
522.219482	1101.314941	27559.771484	2547.245850	5.464910
522.568604	1106.218872	27933.587891	2557.871094	5.411087
522.917664	1103.172363	28476.888672	2578.452881	5.389405
523.266724	1097.896851	29115.744141	2621.920166	5.439473
523.615662	1097.971313	30087.625000	2675.492188	5.441669
523.964600	1098.194214	31281.220703	2744.890869	5.455704
524.313538	1096.485229	32691.712891	2813.992920	5.435972
524.662354	1084.151001	34115.648438	2897.063232	5.488435
525.011169	1091.655518	35530.003906	2978.647461	5.479333
525.359985	1088.014648	36925.925781	3049.606689	5.473511
525.708740	1100.497681	38434.496094	3128.070313	5.430901
526.057434	1103.098267	40234.105469	3198.880859	5.355811
526.406067	1104.807251	42496.105469	3319.251221	5.350023
526.754700	1102.132324	45463.089844	3478.630615	5.357184
527.103333	1106.293335	48861.917969	3698.417969	5.427894
527.451782	1106.739136	52316.699219	3933.809326	5.520548
527.800293	1106.070313	54722.171875	4125.584473	5.631730
528.148743	1094.701904	55936.421875	4255.687988	5.763835
528.497131	1091.655640	55761.218750	4257.248535	5.790412
528.845642	1093.067383	54516.871094	4162.958496	5.746298
529.193909	1098.788696	52086.875000	3983.145752	5.656923
529.542175	1105.921753	48711.082031	3768.262451	5.592547
529.890503	1099.977417	44999.878906	3560.809326	5.605552
530.238770	1100.943359	41742.894531	3358.706055	5.555252
530.586914	1096.708130	39461.953125	3216.639404	5.525655
530.934998	1100.943481	38289.382813	3137.506836	5.476335
531.283142	1097.302612	38263.972656	3134.683350	5.481741
531.631226	1097.079712	39093.261719	3169.308350	5.453781
531.979248	1096.931152	40498.625000	3238.484131	5.435180
532.327148	1098.417114	41926.199219	3305.653564	5.406212
532.675110	1098.937256	42876.234375	3357.739990	5.406771
533.023071	1093.884644	42967.035156	3375.646729	5.449225
533.370850	1086.825928	42122.210938	3347.486328	5.509051
533.718689	1078.355347	40713.433594	3286.632080	5.571521
534.066467	1078.875488	39018.734375	3181.048096	5.540802
534.414246	1077.463745	37389.503906	3082.076904	5.520519
534.761963	1085.116943	36089.800781	3006.436768	5.488751
535.109619	1084.745483	35383.105469	2978.052979	5.520111
535.457153	1085.265503	35128.992188	2963.341064	5.516657
535.804749	1076.572144	35165.843750	2951.081055	5.498823
536.152344	1078.578247	35064.496094	2937.557861	5.469852
536.499817	1085.116943	34697.441406	2924.778076	5.473175
536.847229	1089.872314	33948.019531	2886.660889	5.468319
537.194641	1096.113770	32998.359375	2839.107178	5.463544
537.542114	1094.033325	32005.822266	2786.797852	5.476113
537.889404	1100.423218	31272.009766	2758.339844	5.494960
538.236694	1095.296387	30906.884766	2718.662109	5.445418
538.583984	1096.856689	31179.576172	2725.200928	5.412889
538.931213	1094.107544	32103.603516	2763.021240	5.381944
539.278381	1091.878418	33799.785156	2869.868408	5.435964
539.625488	1088.757813	35972.699219	2989.198486	5.447896
539.972595	1084.745483	38663.574219	3130.819580	5.444752
540.319641	1090.466797	41258.964844	3249.629639	5.375264
540.666687	1096.411011	43299.019531	3361.677734	5.367599
541.013611	1106.293213	44414.750000	3438.581299	5.385295
541.360596	1099.977539	44526.652344	3459.088867	5.432401
541.707458	1098.788696	43710.207031	3412.352295	5.429445
542.054260	1092.844360	42126.074219	3325.121094	5.440168
542.401062	1098.045532	40193.984375	3231.276611	5.456400
542.747864	1102.132202	38107.410156	3122.868896	5.460672
543.094666	1101.686401	36044.769531	3005.173584	5.447393
543.441284	1101.760620	34066.980469	2892.381836	5.431850
543.787903	1098.268433	32483.070313	2810.872070	5.456793
544.134460	1093.884644	31206.546875	2753.212891	5.510400
544.481079	1090.912598	30274.046875	2704.767578	5.530095
544.827637	1092.547241	29620.705078	2669.176514	5.526572
545.174072	1100.274780	29216.421875	2636.929443	5.465382
545.520508	1102.355103	29100.287109	2632.916992	5.466696
545.866943	1099.531616	29059.345703	2639.678467	5.508430
546.213318	1094.850464	28973.007813	2644.582764	5.558948
546.559631	1091.135376	28657.593750	2627.864502	5.574634
546.905823	1091.135376	28162.367188	2589.747314	5.535810
547.252136	1091.135376	27387.912109	2543.605225	5.523376
547.598389	1089.426392	26424.351563	2487.209229	5.517217
547.944458	1091.804077	25337.226563	2423.011719	5.490552
548.290588	1092.175659	24282.873047	2361.860596	5.474975
548.636658	1099.160156	23331.724609	2315.124023	5.469292
548.982727	1094.850586	22545.898438	2273.811768	5.496054
549.328735	1096.782471	21954.968750	2244.759521	5.503725
549.674622	1088.906372	21492.730469	2216.673096	5.527232
550.020569	1086.305786	21197.005859	2202.109619	5.548309
550.366455	1083.928101	21033.541016	2194.530762	5.567039
550.712280	1086.380249	21021.205078	2200.326416	5.587941
551.058044	1091.358398	21109.179688	2203.892822	5.557720
551.403748	1098.194214	21242.330078	2215.335693	5.545740
551.749512	1096.633789	21450.228516	2220.388184	5.521160
552.095154	1100.943359	21585.533203	2221.800049	5.471707
552.440735	1096.113770	21657.236328	2229.453369	5.512051
552.786316	1103.766968	21591.775391	2230.122070	5.497631
553.131897	1102.057983	21400.669922	2219.199219	5.503535
553.477417	1097.896973	21070.617188	2192.896240	5.482474
553.822815	1097.005371	20650.955078	2165.107178	5.462333
554.168213	1089.797974	20296.234375	2151.137939	5.525960
554.513672	1097.154053	19977.177734	2135.757324	5.501070
554.859009	1096.782593	19713.107422	2124.760742	5.521918
555.204285	1102.875366	19445.394531	2106.556396	5.471882
555.549500	1098.119995	19243.216797	2086.792236	5.448702
555.894714	1089.872437	19078.931641	2075.423584	5.478614
556.239990	1088.460571	18981.818359	2071.857178	5.495875
556.585022	1091.878418	18875.935547	2076.092529	5.534250
556.930115	1099.828979	18747.914063	2070.371094	5.499419
557.275146	1100.720459	18567.505859	2061.083252	5.498223
557.620178	1097.599731	18494.837891	2047.263062	5.458702
557.965149	1097.005371	18404.337891	2048.451904	5.497361
558.310059	1094.107544	18354.775391	2054.470459	5.563880
558.654968	1099.308716	18227.646484	2053.207031	5.569124
558.999756	1098.119995	18222.148438	2047.485718	5.544056
559.344604	1099.382935	18247.187500	2044.290649	5.510371
559.689331	1099.605957	18349.947266	2059.671631	5.565488
560.033997	1096.485229	18430.271484	2061.826416	5.569130
560.378723	1095.593628	18575.607422	2071.411377	5.582477
560.723389	1091.581177	18654.740234	2066.209961	5.549280
561.067932	1094.479126	18695.009766	2068.141846	5.532008
561.412476	1090.689697	18653.400391	2060.191650	5.520229
561.757019	1089.872314	18604.658203	2054.618896	5.508184
562.101501	1087.420288	18569.068359	2052.018311	5.517775
562.445862	1090.986816	18477.228516	2046.519897	5.495915
562.790222	1097.525513	18422.988281	2041.170044	5.446576
563.134644	1098.640015	18391.037109	2040.947266	5.449258
563.478943	1095.147827	18512.746094	2040.501343	5.427577
563.823181	1089.426392	18622.935547	2044.290894	5.445940
564.167358	1092.844360	18837.001953	2055.213135	5.423581
564.511536	1094.850586	19102.708984	2073.566162	5.434936
564.855774	1091.729858	19474.000000	2103.361572	5.503302
565.199768	1093.438843	19908.894531	2121.268311	5.462687
565.543823	1100.051758	20231.666016	2150.766602	5.492035
565.887817	1102.355225	20454.275391	2159.534424	5.462916
566.231812	1102.280884	20408.134766	2164.661133	5.502892
566.575745	1095.073486	20241.841797	2148.686279	5.502823
566.919617	1095.816528	20016.408203	2136.277588	5.499094
567.263428	1088.014771	19770.021484	2124.240479	5.546651
567.607239	1092.324219	19580.404297	2112.946533	5.520434
567.950989	1094.107422	19346.941406	2096.971191	5.494291
568.294678	1092.918701	19235.933594	2091.175537	5.502155
568.638367	1094.181763	19148.923828	2084.265625	5.483788
568.981995	1093.884644	19139.935547	2077.058350	5.448138
569.325623	1099.828979	19181.619141	2075.720947	5.397098
569.669128	1101.240601	19251.687500	2083.448242	5.411479
570.012573	1101.760620	19433.728516	2097.416992	5.431257
570.356140	1103.989868	19699.583984	2107.447998	5.396214
570.699524	1101.612183	20001.996094	2116.513184	5.369737
571.042908	1095.296509	20385.544922	2148.611816	5.460351
571.386230	1094.776245	20591.810547	2164.512451	5.486661
571.729492	1093.513062	20748.513672	2179.075928	5.523088
572.072815	1098.714355	20695.982422	2169.267822	5.462769
572.416016	1091.729858	20591.216797	2160.574463	5.481399
572.759094	1090.318115	20412.666016	2150.246338	5.485504
573.102234	1089.054932	20212.048828	2131.373779	5.450605
573.445374	1097.005371	20041.896484	2124.686279	5.424581
573.788391	1100.943481	19890.318359	2117.552979	5.410555
574.131409	1100.943481	19802.121094	2122.010986	5.459910
574.474365	1099.085815	19683.384766	2113.540771	5.458667
574.817261	1099.680298	19566.283203	2107.968262	5.460062
575.160156	1103.024048	19374.880859	2092.810547	5.417000
575.502930	1101.686523	19101.150391	2082.631104	5.449854
575.845703	1099.085815	18770.947266	2059.671143	5.435677
576.188477	1102.800903	18408.275391	2049.194824	5.468754
576.531250	1103.692627	18068.193359	2032.253906	5.473555
576.873901	1103.766968	17702.548828	2020.588257	5.523425
577.216431	1097.376831	17353.697266	1986.483398	5.469298
577.559082	1097.005371	17020.896484	1971.251343	5.490153
577.901611	1099.605835	16699.759766	1955.573364	5.486917
578.244080	1104.881348	16332.778320	1947.622925	5.534195
578.586487	1105.773071	16094.637695	1929.121582	5.493068
578.928955	1130.144409	15854.046875	1941.975952	5.513698
579.271301	1124.869019	15694.442383	1936.923462	5.573632
579.613647	1125.166138	15434.086914	1917.084595	5.534439
579.955872	1095.742310	15248.106445	1872.205566	5.486456
580.298157	1097.228394	15108.492188	1862.397583	5.461101
580.640320	1098.491333	15042.585938	1850.880493	5.395755
580.982483	1103.246948	15014.276367	1853.704102	5.394692
581.324524	1100.274780	14965.309570	1850.360718	5.409910
581.666626	1091.655640	14913.522461	1862.992188	5.580553
582.008728	1087.494629	14830.453125	1856.156250	5.593131
582.350647	1089.129272	14745.895508	1853.555786	5.597419
582.692566	1095.816528	14633.995117	1842.930298	5.518569
583.034424	1097.228394	14553.004883	1834.608398	5.480026
583.376343	1091.581299	14489.179688	1829.184448	5.505488
583.718201	1093.735962	14456.782227	1833.419556	5.535292
584.059937	1093.661743	14384.932617	1842.856079	5.636740
584.401611	1102.132202	14312.041992	1838.917969	5.577523
584.743347	1104.435669	14292.426758	1838.843750	5.568764
585.085022	1112.311768	14294.655273	1833.791138	5.473073
585.426514	1109.859741	14270.135742	1835.797485	5.516129
585.768127	1110.751343	14238.333008	1820.862671	5.409308
586.109619	1103.023926	14206.382813	1817.295898	5.451060
586.451172	1102.726563	14244.649414	1815.884155	5.426585
586.792542	1090.838257	14297.551758	1819.896606	5.520361
587.133850	1089.797974	14370.071289	1816.107056	5.469082
587.475220	1093.438843	14419.409180	1819.227905	5.446425
587.816589	1099.680298	14482.492188	1834.757202	5.492694
588.157776	1098.268555	14610.218750	1845.679688	5.531482
588.498962	1093.438843	14747.456055	1854.001465	5.570248
588.840210	1095.667969	14847.020508	1847.314087	5.465980
589.181335	1093.884644	14908.766602	1850.657715	5.477955
589.522400	1092.175659	14924.147461	1859.574219	5.548006
589.863403	1094.850708	14928.902344	1855.561890	5.498831
590.204407	1092.473022	14825.993164	1844.119141	5.473077
590.545410	1097.748413	14750.129883	1831.859253	5.377163
590.886353	1092.918579	14579.754883	1827.772461	5.448675
591.227112	1099.457275	14452.176758	1826.063599	5.441636
591.567932	1095.890747	14297.999023	1820.491089	5.488520
591.908752	1096.782593	14231.719727	1825.543579	5.548264
592.249512	1096.411011	14240.635742	1827.029663	5.558476
592.590149	1097.897095	14273.031250	1831.785034	5.570251
592.930786	1096.262329	14354.541992	1835.871582	5.578471
593.271423	1096.113770	14479.817383	1842.558960	5.577270
593.612000	1096.336548	14699.828125	1847.611328	5.522662
593.952576	1097.673950	14926.153320	1850.880859	5.446780
594.292969	1090.243774	15122.833008	1861.060181	5.493045
594.633484	1089.500854	15282.583008	1875.697876	5.539298
594.973877	1094.256226	15493.083008	1900.069214	5.596379
595.314209	1097.153931	15791.557617	1922.657227	5.617807
595.654480	1096.336548	16147.541992	1937.592163	5.589291
595.994812	1092.844360	16537.185547	1941.975952	5.498011
596.335022	1103.692627	16819.164063	1955.499023	5.420177
596.675171	1107.927856	16944.068359	1951.263672	5.325387
597.015320	1107.704956	16854.310547	1950.297852	5.350949
597.355408	1101.686523	16523.812500	1927.635376	5.355609
597.695496	1107.853516	16058.825195	1906.384766	5.340999
598.035461	1108.447998	15468.416992	1875.772095	5.343494
598.375366	1107.333496	14925.633789	1843.450562	5.327117
598.715271	1099.531738	14487.620117	1825.766479	5.424484
599.055176	1098.268555	14133.120117	1809.717163	5.458049
599.395081	1100.497681	13910.583008	1797.085571	5.437809
599.734802	1101.389160	13730.324219	1778.955688	5.365191
600.074524	1100.348999	13664.417969	1774.571899	5.366278
600.414246	1103.915405	13627.489258	1769.519165	5.314806
600.753906	1107.407837	13641.309570	1769.519409	5.282566
601.093506	1110.379883	13690.648438	1766.398560	5.214664
601.433044	1111.345825	13843.191406	1784.379883	5.286225
601.772583	1105.327271	14056.588867	1798.645874	5.353290
602.112122	1102.875366	14370.071289	1814.026489	5.360221
602.451538	1103.321167	14752.507813	1833.716797	5.351202
602.790894	1103.915527	15182.573242	1860.242798	5.372155
603.130310	1105.475952	15654.394531	1893.010376	5.413010
603.469604	1101.389160	16085.721680	1918.867798	5.455556
603.808838	1093.438843	16479.523438	1935.585815	5.473433
604.148010	1088.312012	16760.537109	1941.307129	5.442719
604.487305	1091.358398	16810.767578	1938.186523	5.387150
604.826416	1100.051758	16683.412109	1931.796509	5.337390
605.165527	1104.807129	16319.700195	1918.719238	5.349444
605.504456	1100.348999	15865.488281	1895.165405	5.383060
605.843445	1096.856812	15312.082031	1860.020020	5.368632
606.182434	1089.055054	14847.317383	1840.849976	5.464316
606.521423	1093.438843	14474.094727	1811.871704	5.369190
606.860229	1101.909302	14179.633789	1805.333130	5.378794
607.199036	1109.859741	13963.262695	1782.299316	5.231607
607.537903	1110.305542	13871.128906	1790.992798	5.334196
607.876648	1106.516235	13961.333008	1792.033203	5.332764
608.215271	1105.475952	14159.870117	1812.837891	5.418573
608.553955	1095.593628	14439.471680	1823.388794	5.454150
608.892578	1097.822632	14644.992188	1837.803589	5.462255
609.231140	1097.896973	14788.768555	1841.964478	5.434771
609.569641	1102.800903	14782.600586	1842.558960	5.407667
609.908081	1095.593628	14712.011719	1844.044922	5.496683
610.246521	1091.506958	14475.729492	1838.769531	5.583160
610.584961	1083.779541	14127.398438	1825.766479	5.688505
610.923340	1085.562866	13695.773438	1801.840942	5.680143
611.261597	1092.918823	13281.165039	1783.636841	5.667083
611.599854	1102.132324	12930.531250	1769.593628	5.642871
611.938110	1111.568726	12644.688477	1750.869141	5.543169
612.276245	1115.878296	12417.471680	1733.630981	5.466067
612.614319	1110.454224	12226.512695	1712.306152	5.414257
612.952393	1102.875366	12045.882813	1698.188843	5.440126
613.290466	1095.667969	11893.264648	1686.894653	5.475540
613.628479	1095.816528	11720.809570	1684.665649	5.542113
613.966370	1099.457397	11625.627930	1682.882324	5.542613
614.304260	1094.330444	11538.024414	1678.795776	5.596346
614.642151	1090.689697	11502.953125	1673.445923	5.596826
614.979980	1089.277954	11460.749023	1669.359253	5.593048
615.317749	1088.832153	11409.331055	1659.922852	5.533557
615.655396	1099.680298	11372.403320	1655.464478	5.410291
615.993164	1092.547241	11329.604492	1667.650024	5.617852
616.330811	1096.410889	11322.917969	1675.600586	5.663612
616.668396	1094.479004	11305.752930	1672.182739	5.657509
617.005859	1106.739136	11305.159180	1660.442993	5.429310
617.343445	1109.190918	11301.592773	1662.077515	5.424498
617.680908	1108.596558	11319.871094	1666.535645	5.463952
618.018311	1100.125977	11303.375000	1664.529419	5.531605
618.355652	1096.856689	11287.622070	1658.139526	5.507759
618.692993	1104.361450	11223.351563	1655.390259	5.445492
619.030273	1106.887695	11143.179688	1657.545044	5.486661
619.367554	1109.636841	11068.282227	1652.566895	5.451847
619.704712	1100.720581	10991.825195	1648.851685	5.541657
620.041870	1097.376831	10984.691406	1649.148926	5.580606
620.379028	1104.212769	10947.911133	1644.690796	5.490599
620.716064	1099.903198	10946.872070	1644.616333	5.531785
621.053040	1102.355103	10937.508789	1625.966431	5.323875
621.389954	1089.426514	10930.301758	1620.245117	5.394018
621.726929	1087.643188	10936.468750	1619.427734	5.399472
622.063843	1083.408081	10931.862305	1618.684937	5.435136
622.400635	1081.996216	10914.698242	1626.932495	5.542080
622.737427	1080.881714	10909.793945	1626.932495	5.555557
623.074219	1088.237671	10922.425781	1637.409180	5.584310
623.410889	1093.958984	10971.911133	1645.433716	5.582885
623.747559	1097.748413	11029.049805	1648.034302	5.540924
624.084167	1097.376831	11099.786133	1648.628784	5.511192
624.420715	1098.417114	11204.182617	1646.102539	5.419534
624.757324	1105.550171	11355.387695	1651.823853	5.329584
625.093750	1104.732788	11539.508789	1670.399414	5.420975
625.430176	1103.692505	11734.925781	1689.272461	5.508109
625.766602	1093.290161	11926.776367	1709.185547	5.685108
626.102905	1087.048828	12134.898438	1720.479492	5.733520
626.439209	1084.225220	12282.090820	1722.634277	5.701168
626.775452	1094.627808	12395.551758	1715.278320	5.492033
627.111694	1099.531616	12341.831055	1705.990601	5.394439
627.447876	1101.909302	12233.719727	1704.207153	5.410601
627.783997	1101.240601	12034.440430	1703.241211	5.506170
628.120056	1097.971313	11903.593750	1692.170044	5.498978
628.456055	1095.222046	11724.077148	1675.526367	5.459707
628.792053	1093.735962	11539.434570	1663.266479	5.452297
629.128052	1096.708130	11351.301758	1656.727905	5.461160
629.463928	1106.367554	11234.348633	1648.405884	5.351889
629.799744	1101.612061	11136.863281	1634.882813	5.313975
630.135559	1103.469727	11043.835938	1635.254395	5.349749
630.471375	1094.627808	10900.432617	1633.991211	5.500450
630.807068	1099.085938	10781.696289	1637.334839	5.558924
631.142700	1095.445068	10692.681641	1631.539063	5.585920
631.478333	1097.377075	10639.183594	1618.759155	5.464186
631.813965	1100.423462	10608.274414	1617.347290	5.436810
632.149475	1100.126221	10542.515625	1613.112183	5.432798
632.484924	1100.126099	10538.875000	1615.044067	5.455362
632.820435	1093.141724	10548.534180	1610.585815	5.472476
633.155884	1090.392456	10615.778320	1609.916992	5.454105
633.491150	1097.079712	10657.908203	1614.152344	5.408241
633.826477	1106.144653	10668.458984	1618.684937	5.360003
634.161804	1105.995972	10616.001953	1616.975952	5.373077
634.497009	1100.423218	10550.689453	1612.146118	5.414905
634.832153	1099.531616	10472.002930	1594.907837	5.285439
635.167297	1100.423218	10370.579102	1592.381714	5.306906
635.502380	1099.531616	10241.145508	1591.415649	5.380713
635.837463	1081.550415	10104.948242	1589.038086	5.624131
636.172424	1078.949707	9990.818359	1578.041016	5.600299
636.507324	1081.847656	9894.522461	1568.084595	5.517473
636.842224	1089.426514	9790.350586	1571.576782	5.541368
637.177124	1087.643188	9679.638672	1576.257935	5.686860
637.511963	1088.832031	9582.599609	1576.109375	5.736881
637.846741	1098.937256	9494.921875	1563.329224	5.531120
638.181396	1106.664795	9418.910156	1543.267578	5.252525
638.516113	1104.212769	9349.363281	1532.716431	5.197039
638.850769	1100.943481	9280.112305	1532.419312	5.275301
639.185303	1104.584351	9184.930664	1536.431641	5.344416
639.519836	1102.057983	9102.975586	1529.670044	5.344538
639.854370	1099.680176	9025.032227	1524.988892	5.366433
640.188843	1096.559448	8976.958008	1523.725952	5.420620
640.523254	1093.661743	8927.991211	1527.218140	5.534059
640.857605	1095.890747	8906.147461	1530.487305	5.564434
641.191895	1098.491333	8874.344727	1527.589722	5.518344
641.526184	1097.599731	8844.996094	1534.128296	5.634520
641.860413	1094.181763	8773.739258	1532.939453	5.713320
642.194580	1084.448242	8730.346680	1529.595825	5.822044
642.528748	1086.231567	8676.106445	1515.552734	5.656498
642.862793	1088.237671	8655.227539	1503.887085	5.492929
643.196838	1094.256226	8628.254883	1499.057495	5.372994
643.530823	1097.005371	8605.592773	1501.360718	5.385239
643.864746	1102.726685	8575.871094	1503.961426	5.369021
644.198669	1106.738892	8566.137695	1501.212280	5.288273
644.532532	1108.670898	8537.010742	1501.212280	5.284376
644.866333	1107.482056	8539.686523	1502.326660	5.312617
645.200073	1106.070435	8537.903320	1509.831177	5.432856
645.533813	1105.550171	8554.250000	1502.549683	5.329783
645.867554	1096.633911	8579.438477	1505.150269	5.459402
646.201172	1096.856812	8585.680664	1510.797241	5.527442
646.534729	1095.147827	8609.977539	1516.518555	5.607189
646.868225	1096.336548	8588.131836	1514.437988	5.580791
647.201782	1096.782349	8586.793945	1501.137817	5.398596
647.535217	1096.039429	8592.886719	1499.206055	5.377816
647.868591	1098.714233	8600.391602	1504.109985	5.404068
648.201965	1092.993042	8567.327148	1513.917969	5.631605
648.535278	1097.748413	8524.528320	1519.044922	5.672668
648.868591	1095.222168	8519.625000	1523.131470	5.763552
649.201782	1099.011475	8510.930664	1522.091187	5.708099
649.534912	1097.599731	8508.182617	1514.586548	5.626910
649.868103	1099.382935	8486.262695	1500.246094	5.426691
650.201172	1098.640015	8522.149414	1495.045044	5.339860
650.534180	1097.599731	8541.097656	1505.596069	5.481245
650.867188	1098.714355	8558.039063	1507.379272	5.478578
651.200134	1104.435669	8522.745117	1505.150269	5.401697
651.533020	1101.240601	8479.352539	1495.713867	5.346534
651.865845	1106.144653	8444.800781	1496.605469	5.320604
652.198608	1103.023926	8456.467773	1495.342285	5.335165
652.531433	1094.330444	8452.900391	1493.484741	5.424346
652.864136	1090.689575	8441.085938	1493.558960	5.480920
653.196777	1143.890503	8430.015625	1607.762329	6.366509
653.529358	1156.447632	8383.352539	1605.013184	6.206883
653.861938	1161.054321	8309.718750	1594.239258	6.059662
654.194519	1107.110596	8189.645996	1474.983398	5.194084
654.526978	1112.385986	8173.967285	1474.240234	5.124267
654.859375	1106.144531	8164.531250	1471.639648	5.178168
655.191833	1103.766968	8179.614746	1476.618042	5.269349
655.524170	1098.045532	8143.355469	1481.373413	5.440895
655.856445	1098.714355	8106.353027	1483.230835	5.487105
656.188660	1108.447998	8083.170410	1482.562134	5.363857
656.520874	1110.454102	8118.463379	1484.271118	5.334140
656.853088	1105.550171	8228.208984	1498.091431	5.511162
657.185181	1095.742188	8346.350586	1504.184204	5.633210
657.517212	1093.958862	8485.371094	1512.208984	5.658596
657.849243	1091.209839	8654.112305	1518.376099	5.648179
658.181274	1086.974487	8875.906250	1524.691772	5.619735
658.513123	1088.683472	9112.856445	1529.447266	5.492950
658.844971	1091.061157	9305.524414	1546.685547	5.546612
659.176819	1095.965210	9440.383789	1557.979492	5.536806
659.508667	1092.547241	9481.175781	1565.855469	5.642260
659.840393	1097.153931	9437.040039	1554.858765	5.488143
660.172058	1100.794800	9325.660156	1550.326294	5.465518
660.503662	1099.680298	9125.192383	1541.038452	5.499439
660.835266	1100.943359	8923.459961	1533.608276	5.531020
661.166931	1097.525513	8694.235352	1525.360718	5.631849
661.498413	1105.401611	8544.739258	1513.026367	5.479315
661.829773	1105.847290	8360.096680	1497.125610	5.393781
662.161194	1101.389282	8206.883789	1484.419800	5.390624
662.492615	1094.999268	8027.220215	1478.847046	5.537155
662.823975	1098.862915	7899.865234	1468.816040	5.439685
663.155212	1097.748413	7767.828613	1461.980469	5.460685
663.486450	1097.079712	7669.080566	1456.481934	5.468688
663.817627	1088.460571	7570.183594	1455.292969	5.659489
664.148743	1088.163208	7497.070313	1448.085571	5.615971
664.479858	1093.067261	7419.275391	1438.129272	5.454484
664.810913	1094.330444	7382.347168	1446.376587	5.598683
665.141907	1101.612061	7347.201660	1448.085571	5.547491
665.472778	1094.850464	7349.207520	1449.274536	5.666835
665.803711	1094.850586	7350.842285	1445.113770	5.598844
666.134583	1088.386230	7354.557129	1441.473022	5.634809
666.465454	1090.392456	7348.167969	1444.816406	5.663737
666.796143	1089.352173	7313.171387	1437.014648	5.585999
667.126831	1096.485229	7332.267090	1435.305664	5.433488
667.457458	1093.141602	7344.229004	1432.259155	5.424937
667.788147	1093.810425	7368.600098	1432.928101	5.404447
668.118774	1090.689575	7371.646973	1441.546997	5.586050
668.449219	1093.067383	7383.089844	1434.711304	5.431521
668.779663	1097.302612	7394.085938	1444.222046	5.509471
669.110107	1094.256226	7381.603516	1434.637085	5.413743
669.440552	1099.828979	7358.123535	1429.510132	5.267907
669.770874	1090.764038	7313.616699	1414.649536	5.204775
670.101135	1096.485229	7279.363281	1410.785767	5.083402
670.431396	1096.188110	7227.276855	1415.615601	5.209963
670.761597	1107.704956	7171.029785	1414.798218	5.064767
671.091797	1109.413818	7112.702637	1417.547363	5.132745
671.421875	1101.389160	7062.250488	1424.011719	5.412348
671.751892	1098.416992	7044.566406	1423.788696	5.471973
672.081909	1098.268555	6991.662598	1419.404907	5.449090
672.411865	1105.327271	6961.792969	1413.535034	5.262692
672.741821	1101.686401	6922.486816	1416.507202	5.408548
673.071716	1098.268555	6935.936035	1423.565796	5.572384
673.401550	1098.491455	6908.221191	1423.417358	5.592789
673.731262	1102.726685	6904.060547	1426.315063	5.577827
674.060974	1101.463501	6857.695801	1428.915649	5.688654
674.390625	1102.206421	6835.181641	1421.336792	5.566575
674.720276	1098.565796	6777.671387	1411.974609	5.518630
675.049927	1094.776245	6748.099121	1396.742554	5.341395
675.379395	1091.061035	6726.179688	1402.538208	5.527429
675.708923	1095.667847	6698.539063	1399.417480	5.421321
676.038330	1099.011353	6678.031250	1398.154297	5.361927
676.367737	1099.457397	6671.046875	1400.011841	5.394411
676.697083	1094.999146	6689.770996	1402.315308	5.492917
677.026428	1099.383179	6699.728027	1404.618774	5.450300
677.355652	1096.113770	6691.332031	1399.194702	5.416785
677.684875	1091.729858	6734.130371	1393.250366	5.343834
678.013977	1089.352173	6804.197266	1399.566040	5.428211
678.343079	1089.946655	6902.500000	1406.847778	5.452013
678.672180	1092.249878	6968.035645	1419.702148	5.572910
679.001221	1085.859985	7058.386719	1420.965210	5.610778
679.330139	1097.228271	7149.333496	1430.773315	5.511223
679.659058	1103.321167	7254.694824	1434.934204	5.390878
679.987976	1104.064087	7332.415527	1438.055054	5.362430
680.316772	1094.776245	7362.285156	1434.488403	5.420210
680.645630	1097.451172	7365.182129	1432.853882	5.351262
680.974304	1105.921753	7315.696777	1446.079590	5.477780
681.302979	1106.441895	7273.493652	1443.924805	5.472354
681.631653	1101.315063	7198.076172	1442.438599	5.595160
681.960266	1100.646362	7151.191406	1430.327515	5.448784
682.288757	1105.104492	7080.009277	1428.544067	5.413301
682.617249	1106.367554	7010.536621	1425.274780	5.401391
682.945679	1101.017700	6899.156250	1414.649536	5.409181
683.274109	1092.993042	6787.404785	1402.909546	5.442468
683.602478	1089.055054	6667.628906	1393.918945	5.464908
683.930725	1092.398682	6558.329590	1389.758179	5.440236
684.259033	1094.850708	6467.234375	1387.900391	5.454742
684.587280	1094.627808	6397.019043	1381.881836	5.417443
684.915344	1093.438843	6339.582520	1369.250610	5.257420
685.243469	1092.695923	6305.328613	1362.043091	5.167200
685.571533	1090.244019	6266.468750	1367.913086	5.364316
685.899536	1085.339844	6246.853027	1377.795288	5.666080
686.227539	1087.420288	6211.410156	1379.504272	5.700324
686.555420	1091.135498	6222.406738	1372.742798	5.488061
686.883301	1102.206543	6249.601563	1373.931641	5.278886
687.211121	1103.023926	6286.826660	1373.708618	5.221740
687.538940	1102.652466	6309.118652	1377.646851	5.281785
687.866638	1101.760864	6304.808594	1376.012085	5.270972
688.194336	1102.949585	6293.292480	1380.024414	5.338276
688.521973	1102.652344	6256.289063	1384.036743	5.459919
688.849609	1094.850586	6207.323730	1380.692993	5.591079
689.177063	1090.986816	6137.479004	1380.321655	5.733385
689.504578	1090.095337	6054.779785	1377.869629	5.796426
689.832031	1084.745483	5982.334473	1374.080200	5.907697
690.159485	1079.544312	5904.911621	1359.814087	5.808258
690.486816	1083.705200	5852.751465	1350.154785	5.587062
690.814087	1086.974487	5790.708496	1354.092773	5.678856
691.141296	1087.271606	5754.597656	1360.036987	5.844147
691.468506	1084.373901	5688.914063	1355.355957	5.885106
691.795715	1083.110840	5639.576660	1351.046387	5.880337
692.122803	1093.438965	5604.208984	1347.925659	5.641757
692.449829	1100.720581	5579.242676	1345.547974	5.466701
692.776855	1105.104370	5543.949219	1341.312744	5.321393
693.103821	1097.525513	5491.119629	1333.733887	5.376199
693.430664	1092.398560	5463.999512	1331.504883	5.469537
693.757568	1096.039429	5454.339844	1331.653442	5.406099
694.084351	1098.862915	5461.695801	1338.340698	5.489043
694.411133	1097.228271	5461.992676	1337.969116	5.515552
694.737854	1102.206665	5455.306152	1331.579102	5.269175
695.064575	1104.584351	5456.643066	1326.972168	5.109945
695.391174	1105.624634	5479.825684	1329.869995	5.126544
695.717773	1098.863037	5515.639160	1336.334351	5.376575
696.044250	1097.376953	5561.335938	1340.123901	5.437930
696.370789	1094.999146	5622.932129	1340.866821	5.430020
696.697205	1093.438843	5721.086426	1345.770874	5.452706
697.023621	1095.816528	5857.208984	1354.092773	5.424385
697.349915	1098.268555	6024.167480	1367.318726	5.461951
697.676208	1097.525513	6213.416504	1365.832642	5.244583
698.002380	1094.404785	6462.255859	1375.046265	5.228190
698.328674	1096.782471	6689.474121	1383.813843	5.132258
698.654724	1094.776245	6881.472168	1399.789063	5.270932
698.980896	1097.897095	6956.145996	1400.754883	5.169766
699.306946	1096.411011	6950.796387	1401.275024	5.207447
699.632935	1100.571899	6856.952637	1407.070679	5.324505
699.958862	1097.971191	6696.012207	1407.070679	5.521565
700.284729	1095.370728	6512.261719	1397.485474	5.577272
700.610596	1090.763916	6306.518066	1376.309204	5.474669
700.936340	1091.135376	6094.309082	1360.928589	5.392441
701.262146	1091.804077	5874.596191	1345.919434	5.313118
701.587830	1094.924805	5696.566406	1338.935181	5.302681
701.913513	1105.104492	5537.855469	1334.699829	5.179523
702.239075	1104.361450	5396.160645	1336.483032	5.408491
702.564697	1103.692627	5275.567871	1330.464478	5.435730
702.890137	1092.993042	5167.531250	1321.325317	5.603881
703.215698	1096.931152	5093.451660	1315.455444	5.467864
703.541016	1106.590454	5015.285156	1309.139648	5.182016
703.866455	1106.739136	4973.006836	1313.969360	5.359956
704.191711	1107.482056	4942.468262	1313.895142	5.382368
704.517029	1103.766846	4918.320313	1315.232422	5.543652
704.842163	1104.509888	4872.549805	1304.235718	5.300523
705.167419	1108.299316	4826.333496	1293.833252	4.990108
705.492493	1098.565796	4800.698730	1293.313354	5.260415
705.817566	1092.770020	4791.262207	1297.251343	5.528775
706.142578	1085.934204	4779.002441	1295.096558	5.663647
706.467590	1092.844360	4771.720215	1293.015991	5.441108
706.792480	1098.045654	4764.884766	1291.901489	5.286729
707.117371	1099.011597	4786.135254	1297.474121	5.382584
707.442200	1094.107544	4804.265137	1304.755737	5.677608
707.766907	1100.125977	4812.587402	1301.932251	5.435916
708.091675	1101.834961	4810.357910	1301.412109	5.381580
708.416321	1111.940308	4811.695801	1295.170776	4.952502
708.741028	1098.714355	4832.723145	1298.514282	5.350816
709.065552	1096.113892	4855.385254	1304.309937	5.538202
709.390137	1083.853882	4857.912109	1313.151978	6.075638
709.714600	1093.661865	4903.756348	1316.792847	5.856311
710.039063	1095.667969	4932.585938	1313.523560	5.677880
710.363403	1099.531738	4993.142578	1308.173706	5.358572
710.687744	1095.965210	5036.535645	1306.539063	5.343740
711.012085	1091.506958	5096.646973	1309.734009	5.448675
711.336304	1095.370728	5122.875488	1311.368652	5.363070
711.660461	1094.404663	5129.562500	1317.387207	5.525993
711.984619	1099.085693	5097.612793	1313.374878	5.359203
712.308716	1092.770020	5048.572754	1314.489380	5.604915
712.632751	1093.067261	4992.846191	1303.343994	5.392017
712.956726	1089.872314	4939.496582	1301.486450	5.497007
713.280701	1094.330444	4913.861816	1291.009888	5.149308
713.604553	1103.098145	4866.605957	1301.040649	5.259521
713.928467	1109.636841	4842.308594	1298.885742	5.070065
714.252258	1109.042480	4806.345703	1295.988037	5.056268
714.575989	1101.315063	4806.048340	1287.740479	5.032087
714.899719	1095.444946	4810.654785	1283.951050	5.073902
715.223267	1096.039551	4829.602051	1289.226440	5.174331
715.546936	1093.513184	4823.583984	1284.471191	5.119421
715.870422	1087.717529	4814.444824	1281.499023	5.199777
716.193970	1082.070679	4813.107422	1284.322632	5.420798
716.517395	1077.463745	4796.166016	1285.882935	5.604622
716.840820	1083.185059	4750.841309	1290.192505	5.644135
717.164124	1086.974487	4680.402344	1284.916992	5.508459
717.487488	1093.884644	4616.501953	1276.297852	5.178343
717.810730	1097.525513	4549.555664	1279.270020	5.264858
718.133972	1098.714233	4455.785645	1279.567139	5.387223
718.457092	1100.274780	4377.841797	1280.161621	5.488426
718.780212	1099.977539	4306.734375	1281.721924	5.667545
719.103210	1102.726807	4268.245605	1267.455688	5.203851
719.426208	1101.760742	4221.509277	1268.570435	5.346895
719.749207	1100.274780	4182.203125	1256.384766	5.065335
720.072083	1099.605957	4137.026855	1265.821167	5.472248
720.394958	1100.051758	4094.674561	1259.059692	5.309782
720.717773	1092.695801	4035.529297	1261.214355	5.726405
721.040527	1092.324341	4008.928955	1254.675781	5.566454
721.363281	1102.800903	3983.963623	1256.830444	5.346090
721.685913	1107.259155	3994.291260	1248.359985	4.887401
722.008545	1099.457397	3970.365967	1259.802612	5.585173
722.331055	1082.739258	3963.752930	1251.555054	5.859597
722.653503	1078.949829	3948.520752	1252.446655	6.046090
722.976013	1081.104614	3952.533203	1242.936035	5.635920
723.298401	1086.825806	3942.205078	1247.914185	5.641575
723.620789	1095.593628	3938.489990	1243.679077	5.208964
723.943115	1100.571899	3916.422119	1245.759399	5.156081
724.265381	1097.674194	3901.635986	1252.446655	5.519778
724.587585	1094.107666	3896.137451	1259.802734	5.913394
724.909790	1092.473022	3915.456055	1252.669556	5.674726
725.231873	1099.977539	3924.744141	1241.301270	5.003023
725.553894	1099.828735	3936.409424	1236.991699	4.835504
725.875916	1134.751099	3979.579346	1283.505127	5.228929
726.197937	1135.048462	3999.417969	1294.947876	5.582360
726.519775	1133.116455	4009.077393	1299.257324	5.776882
726.841675	1098.937256	3989.759033	1254.824341	5.392483
727.163513	1084.671021	4006.699951	1255.047241	5.830751
727.485291	1088.460571	4014.650391	1256.607544	5.746277
727.806946	1090.540894	4029.065186	1261.734497	5.825836
728.128662	1100.200317	4061.089111	1256.533325	5.279935
728.450256	1101.314941	4105.299316	1263.740723	5.407012
728.771790	1107.184814	4126.921875	1262.180298	5.132748
729.093323	1104.212769	4120.011719	1264.112183	5.302058
729.414795	1106.144531	4096.085938	1255.047241	4.980121
729.736145	1097.599731	4078.550781	1259.133911	5.418880
730.057495	1102.726685	4058.042969	1258.985229	5.287371
730.378845	1098.714355	4060.049561	1256.979126	5.344372
730.700134	1093.067383	4066.587891	1249.548828	5.262497
731.021301	1086.974487	4102.030762	1250.068848	5.409331
731.342468	1088.460571	4113.473145	1254.229858	5.479953
731.663574	1089.426514	4134.574707	1257.499146	5.519358
731.984680	1094.181763	4137.472656	1261.660156	5.503200
732.305664	1093.736084	4141.559570	1264.409424	5.599844
732.626648	1098.417114	4160.506836	1262.105957	5.345658
732.947571	1097.674194	4167.342285	1256.533203	5.175120
733.268433	1098.045532	4169.497070	1252.149414	5.017298
733.589233	1100.051758	4144.085449	1255.270142	5.099102
733.909973	1096.931152	4108.048828	1259.133911	5.386796
734.230713	1095.147827	4055.293945	1266.712891	5.795831
734.551331	1091.878540	3985.746826	1272.285645	6.234116
734.871948	1100.943359	3938.044189	1273.251465	6.073387
735.192505	1103.841309	3899.704102	1270.873779	5.974273
735.513062	1104.732788	3855.419678	1260.099976	5.648305
735.833435	1094.033203	3798.726563	1253.635620	5.900943
736.153931	1093.290405	3738.467529	1239.592285	5.530891
736.474304	1093.215942	3703.024658	1240.112427	5.628631
736.794617	1102.875366	3679.173828	1236.397339	5.182706
737.114807	1101.537842	3682.740234	1242.713013	5.469357
737.434998	1104.286987	3690.838867	1239.592285	5.231107
737.755188	1099.308716	3701.761719	1242.861694	5.516064
738.075256	1102.875122	3729.253662	1241.449829	5.276266
738.395325	1101.909424	3747.754883	1237.957642	5.141956
738.715271	1106.664795	3766.033203	1237.066040	4.903467
739.035278	1097.302612	3786.020752	1242.415649	5.397109
739.355164	1094.404907	3783.717529	1249.103027	5.752330
739.675049	1090.986938	3767.891357	1241.598511	5.626334
739.994873	1097.599731	3728.213623	1229.338501	5.007910
740.314636	1096.559570	3699.829834	1219.902100	4.737984
740.634277	1094.033203	3674.120850	1224.508911	5.057026
740.953979	1094.479126	3638.009766	1225.400513	5.147230
741.273499	1099.457397	3598.703857	1229.189819	5.190861
741.593140	1097.302612	3565.936279	1229.338501	5.348541
741.912598	1092.993042	3537.924072	1228.223877	5.531069
742.232117	1097.154053	3505.676758	1218.861816	5.053212
742.551453	1101.166382	3478.036133	1219.753418	4.989211
742.870850	1103.023804	3450.098389	1219.901978	4.979738
743.190063	1093.215820	3434.569092	1222.205444	5.509191
743.509338	1089.277832	3404.327393	1215.220947	5.440191
743.828552	1079.618530	3387.238037	1211.505859	5.715298
744.147705	1088.386230	3366.878906	1215.072388	5.560086
744.466797	1088.534790	3351.126953	1217.078491	5.681258
744.785828	1104.658569	3338.867188	1220.125000	5.168114
745.104858	1093.736084	3316.576172	1211.654419	5.304850
745.423706	1096.782593	3283.363037	1208.236450	5.097176
745.742615	1093.884766	3237.592529	1209.276733	5.382822
746.061401	1099.977539	3222.955078	1218.713013	5.592875
746.380249	1101.983765	3226.595703	1214.775024	5.308794
746.698975	1104.287109	3232.317139	1211.208618	5.024436
747.017639	1097.005493	3223.623779	1204.447144	5.052230
747.336304	1093.587524	3227.858643	1209.722656	5.441442
747.654907	1087.866211	3233.208740	1211.654419	5.770091
747.973389	1104.955811	3238.632813	1215.815430	5.195708
748.291931	1109.933960	3225.406982	1214.849487	4.959435
748.610352	1102.652344	3226.075439	1211.134277	5.108823
748.928711	1098.714233	3244.799805	1218.638916	5.588067
749.247070	1095.444946	3260.477783	1223.319946	5.906377
749.565308	1102.206543	3269.096924	1222.799927	5.565274
749.883545	1101.612183	3249.035156	1216.409790	5.345831
750.201782	1099.977417	3245.617188	1208.979492	5.080167
750.519836	1096.485229	3232.837158	1213.437744	5.474403
750.837952	1089.500854	3226.149658	1206.676270	5.484074
751.155884	1084.819702	3209.505859	1203.926880	5.605872
751.473877	1098.342773	3200.515625	1202.440918	4.951931
751.791809	1092.695801	3201.406982	1203.481201	5.253702
752.109619	1102.429565	3192.193359	1208.979614	5.098665
752.427490	1093.141724	3176.887451	1211.357300	5.673225
752.745300	1102.503784	3179.041992	1214.329346	5.385192
753.062988	1090.838257	3194.571289	1208.533691	5.594600
753.380615	1088.683472	3216.787842	1201.920776	5.321041
753.698303	1087.791748	3218.645264	1206.304688	5.561759
754.015808	1094.553345	3195.908936	1217.152954	5.834311
754.333374	1102.132202	3175.549561	1216.484253	5.515148
754.650757	1107.779297	3151.698486	1210.242798	5.013090
754.968262	1120.262085	3145.531250	1197.091187	3.793525
755.285583	1114.763794	3143.451172	1201.029175	4.252276
755.602905	1109.711304	3143.525391	1198.577148	4.369418
755.920105	1101.835083	3140.776123	1204.224365	5.021689
756.237305	1106.516113	3139.289795	1196.273926	4.415534
756.554443	1105.624390	3128.887695	1198.057129	4.568498
756.871582	1101.909302	3139.141357	1196.199585	4.628353
757.188599	1094.924927	3142.485107	1205.190308	5.385208
757.505615	1096.485229	3180.082031	1207.493530	5.327725
757.822510	1099.977539	3211.958008	1212.248901	5.315928
758.139465	1101.389160	3238.558594	1206.601929	4.922996
758.456238	1097.525513	3245.245850	1208.236694	5.154823
758.773010	1091.655640	3260.106201	1206.007446	5.273434
759.089783	1095.147827	3287.524170	1209.425415	5.212498
759.406433	1091.506958	3314.718750	1208.756714	5.273890
759.723145	1092.621582	3328.910889	1207.642212	5.143370
760.039673	1087.346069	3334.037842	1203.183960	5.155931
760.356201	1087.866089	3334.037354	1197.685547	4.889184
760.672668	1091.135376	3324.229248	1198.502930	4.808018
760.989136	1094.255981	3318.433594	1204.892944	4.974286
761.305481	1109.785400	3320.217041	1206.601929	4.379983
761.621826	1108.819458	3326.978516	1207.270630	4.438418
761.938049	1113.426147	3346.891602	1211.505859	4.391369
762.254333	1106.664673	3387.832764	1217.450073	4.856521
762.570496	1115.209595	3457.677002	1225.326172	4.700880
762.886597	1108.670898	3578.864990	1227.778198	4.821779
763.202637	1101.835083	3775.024170	1244.719116	5.345078
763.518677	1091.729980	4025.052734	1262.031738	5.805763
763.834656	1097.154053	4269.434082	1282.762207	5.850938
764.150574	1101.537842	4401.173340	1295.616577	5.881824
764.466370	1106.441772	4405.631348	1299.628906	5.855594
764.782288	1098.491455	4302.944824	1295.913696	6.160871
765.097961	1098.714355	4172.097656	1281.053101	5.932835
765.413696	1092.770142	4012.272705	1257.647827	5.647459
765.729309	1093.884644	3838.850342	1246.056519	5.543671
766.044861	1087.420288	3674.195313	1239.815186	5.891309
766.360474	1082.442017	3563.929932	1232.384888	6.042459
766.675903	1081.401855	3481.899658	1220.347900	5.788218
766.991394	1083.259277	3409.009033	1209.351074	5.421555
767.306763	1090.986938	3334.112061	1215.889648	5.568245
767.622131	1089.129517	3273.109375	1214.255005	5.729241
767.937378	1100.051880	3214.187256	1208.682251	5.138288
768.252625	1095.073608	3161.209229	1204.001343	5.272051
768.567810	1093.958984	3107.636963	1206.824707	5.604954
768.882996	1088.609253	3077.544189	1203.703979	5.786752
769.197998	1087.197388	3058.300049	1200.954956	5.771266
769.513062	1094.479004	3034.597412	1191.815552	5.017042
769.828064	1093.067261	2995.142578	1194.787842	5.347874
770.142944	1098.194214	2967.873779	1192.484497	5.043125
770.457825	1100.869019	2942.239258	1191.221313	4.906797
770.772705	1100.051758	2919.279541	1188.472046	4.860320
771.087402	1100.943481	2892.233643	1182.007813	4.525472
771.402100	1098.194214	2888.444092	1190.626831	5.163113
771.716736	1096.113770	2883.317139	1196.645386	5.625080
772.031372	1100.348999	2865.187256	1196.942505	5.473221
772.345947	1093.958984	2841.261719	1189.363647	5.460111
772.660461	1091.952759	2828.184326	1181.710449	5.169684
772.974854	1087.048828	2821.125732	1190.626831	5.973092
773.289246	1086.231445	2811.540283	1191.815674	6.119729
773.603638	1088.832031	2796.679932	1189.735229	5.908207
773.917908	1090.169556	2776.395264	1180.001587	5.327403
774.232178	1097.153931	2758.860107	1181.636230	5.084070
774.546265	1097.748413	2744.668213	1191.518555	5.693668
774.860474	1090.615356	2733.820313	1188.843628	5.977847
775.174561	1090.466797	2724.011963	1177.921021	5.353646
775.488586	1096.633789	2712.718018	1167.667358	4.395412
775.802551	1110.305542	2705.659180	1173.462891	3.958831
776.116516	1111.791504	2692.135986	1174.428833	3.963524
776.430359	1108.076538	2690.724609	1167.147095	3.732387
776.744202	1100.794800	2686.786377	1166.255493	4.127430
777.057922	1107.110474	2690.352783	1165.735352	3.702837
777.371704	1100.348999	2681.733643	1171.605347	4.505947
777.685303	1099.828979	2669.473633	1171.382446	4.558578
777.998962	1091.061157	2658.105469	1175.617676	5.395924
778.312500	1096.633789	2648.223389	1177.995361	5.243756
778.626038	1099.457397	2636.112061	1180.893188	5.299551
778.939453	1103.098145	2632.619629	1185.276978	5.372846
779.252869	1106.516113	2640.050049	1187.580322	5.286105
779.566223	1106.813354	2647.554688	1185.351196	5.097406
779.879578	1103.321045	2649.040527	1183.270874	5.172338
780.192749	1094.479004	2641.684570	1174.503052	5.172166
780.505920	1090.838257	2643.616455	1170.787964	5.148817
780.819031	1090.541016	2631.505127	1163.654907	4.744685
781.132141	1103.989868	2620.211182	1173.239990	4.567283
781.445190	1102.726685	2615.307129	1173.091309	4.651959
781.758118	1101.017700	2614.935791	1180.595825	5.256435
782.071045	1090.392456	2606.539551	1169.301880	5.204602
782.383911	1091.581177	2582.242432	1174.057251	5.532852
782.696838	1090.838257	2571.171631	1168.558960	5.250216
783.009583	1096.782471	2549.697754	1173.834351	5.303260
783.322266	1094.256226	2531.864990	1168.410278	5.158153
783.634888	1095.965210	2501.772461	1170.342163	5.290693
783.947510	1094.553345	2492.410400	1170.267944	5.416477
784.260132	1096.411011	2481.785156	1163.654907	4.853844
784.572571	1092.844360	2486.169189	1160.236938	4.836817
784.885010	1089.426514	2473.388916	1166.181152	5.546006
785.197449	1097.674194	2473.834961	1168.633179	5.156301
785.509766	1106.813232	2464.992920	1168.113159	4.513389
785.822083	1106.813232	2470.268311	1163.729370	4.174405
786.134277	1102.800903	2463.506592	1164.620972	4.543236
786.446533	1099.011475	2461.129150	1157.190552	4.271223
786.758606	1099.234375	2456.596436	1149.611694	3.711414
787.070740	1095.742065	2467.296143	1158.750977	4.593979
787.382690	1090.912476	2478.144287	1165.809692	5.399041
787.694641	1088.757690	2501.401123	1169.599121	5.722706
788.006653	1086.008545	2534.540283	1162.020386	5.247509
788.318481	1095.816528	2584.991699	1166.998535	4.779962
788.630310	1100.794800	2642.724854	1174.205933	4.760990
788.942017	1105.698730	2679.504639	1177.549438	4.565411
789.253784	1090.466675	2691.244629	1172.645508	5.133681
789.565430	1085.042603	2673.114746	1170.713745	5.394663
789.877014	1087.717529	2635.368896	1167.147095	5.132265
790.188538	1091.655640	2589.969971	1163.654907	4.805351
790.500061	1098.194214	2546.874268	1152.658081	3.759551
790.811462	1099.085815	2507.345459	1154.812866	3.957157
791.122925	1106.516113	2487.060547	1157.636475	3.702913
791.434204	1096.485229	2463.209717	1160.311401	4.670010
791.745483	1087.494629	2456.150879	1155.333130	4.956577
792.056702	1086.305786	2429.253174	1154.738647	5.095722
792.367920	1098.045532	2402.504150	1158.230835	4.613815
792.678955	1091.655640	2386.900635	1159.716919	5.254703
792.990112	1096.411011	2367.284912	1158.379395	4.876045
793.301086	1087.866089	2353.538818	1165.512329	6.134780
793.612122	1094.181885	2341.055908	1168.633179	5.971036
793.922974	1082.813477	2343.953857	1176.657837	7.441230
794.233826	1091.061157	2370.108154	1178.589722	6.843264
794.544556	1092.101318	2377.389648	1172.719849	6.272408
794.855286	1100.646118	2379.916260	1171.605347	5.546853
795.166016	1094.033325	2377.687256	1162.911743	5.365809
795.476624	1095.519409	2389.501221	1169.450562	5.713461
795.787292	1091.135376	2413.426758	1167.964478	5.810300
796.097778	1093.067383	2449.314941	1175.320435	6.064752
796.408264	1094.182007	2472.423096	1173.165649	5.730757
796.718689	1090.243896	2487.357910	1174.577393	6.036264
797.029053	1087.197388	2487.209229	1167.964478	5.769029
797.339355	1088.088989	2483.270996	1172.645630	6.060617
797.649658	1097.153931	2469.599365	1169.524780	5.273131
797.959839	1099.160156	2441.958740	1171.530884	5.389544
798.270020	1093.661743	2414.987061	1167.147095	5.561488
798.580078	1088.980835	2392.101807	1169.078979	6.146639
798.890137	1088.014771	2361.266357	1162.391724	5.841497
799.200195	1093.141602	2343.804932	1166.032593	5.828187
799.510071	1091.506958	2332.585205	1164.323608	5.867208
799.820007	1091.135376	2337.340576	1167.444458	6.123316
800.129883	1085.414185	2321.291260	1160.534302	6.078284
800.439575	1087.866089	2310.517334	1155.481567	5.530234
800.749329	1083.779419	2290.232666	1158.305176	6.177260
801.058960	1097.674072	2294.839600	1156.596069	4.921792
801.368591	1098.788574	2289.935547	1156.744751	4.865577
801.678162	1107.927856	2289.043945	1153.624146	3.868907
801.987671	1104.361450	2281.093506	1155.110229	4.312688
802.297119	1101.240601	2271.508545	1154.887207	4.584130
802.606506	1097.971313	2256.573486	1147.234009	4.251908
802.915894	1092.844360	2258.654053	1148.274292	4.754630
803.225159	1095.073608	2253.304443	1151.172241	4.843476
803.534424	1095.816528	2264.375488	1155.035767	5.067715
803.843628	1097.897095	2248.177490	1150.577637	4.579800
804.152771	1101.240601	2246.320068	1143.964722	3.731105
804.461792	1093.438965	2220.759766	1141.289795	4.244651
804.770874	1089.798096	2211.769043	1138.986450	4.384102
805.079773	1082.144897	2214.072266	1138.763550	5.001969
805.388733	1087.420410	2242.381836	1145.153687	4.998719
805.697571	1090.244019	2270.914063	1148.571411	4.940194
806.006470	1102.429565	2278.344482	1156.521851	4.600017
806.315125	1107.482056	2280.053467	1147.902710	3.447181
806.623901	1108.968140	2267.867920	1148.942993	3.449380
806.932495	1098.045654	2272.028564	1145.302124	4.025311
807.241150	1090.764038	2265.935791	1151.395020	5.159329
807.549622	1086.900269	2261.329102	1159.568359	6.187526
807.858154	1092.472900	2250.555420	1161.203003	5.934819
808.166565	1090.838257	2229.676270	1166.181152	6.615769
808.474915	1090.095215	2207.310791	1164.769409	6.683956
808.783264	1091.358276	2187.026611	1163.654907	6.598405
809.091492	1097.153931	2184.722900	1158.750977	5.663737
809.399719	1098.862915	2189.106689	1153.624146	5.022843
809.707825	1101.983765	2188.363525	1155.704590	4.944940
810.015930	1099.234497	2169.565186	1156.670532	5.366195
810.323975	1100.200439	2150.543701	1152.360962	4.966045
810.632080	1090.243774	2133.751221	1146.268066	5.368845
810.939880	1090.689819	2125.429443	1139.209229	4.689045
811.247864	1085.265625	2116.736084	1138.466187	5.157740
811.555664	1089.723755	2111.683350	1133.042236	4.238767
811.863464	1090.169556	2119.782471	1133.785278	4.236128
812.171143	1093.661743	2128.326904	1137.500366	4.236987
812.478882	1090.838257	2120.450928	1145.673706	5.325833
812.786438	1090.169556	2105.590576	1148.051270	5.700267
813.094055	1093.141602	2094.296387	1145.599243	5.239713
813.401489	1092.324341	2082.333740	1144.187500	5.238653
813.708984	1098.862915	2065.838623	1143.444580	4.610423
814.016357	1092.993042	2053.429932	1140.323853	4.928050
814.323730	1101.017700	2058.631592	1142.552856	4.337359
814.630981	1099.828979	2058.482666	1138.689087	4.053613
814.938232	1103.618408	2067.398682	1139.209351	3.692848
815.245361	1097.079712	2054.544434	1134.825562	3.942271
815.552490	1095.370728	2067.250244	1136.162964	4.197252
815.859619	1093.067383	2071.931396	1145.005005	5.305908
816.166565	1094.256226	2089.838379	1144.484863	5.045153
816.473572	1088.386353	2085.008545	1140.918335	5.271003
816.780457	1097.153931	2085.083008	1134.528198	3.783092
817.087341	1098.714355	2088.872314	1140.843994	4.254840
817.394043	1101.240601	2102.469482	1147.679810	4.638221
817.700806	1095.073608	2111.906250	1150.800659	5.480454
818.007507	1091.506958	2122.903076	1148.942993	5.568766
818.314209	1093.438965	2133.751221	1144.336304	4.892506
818.620667	1099.903198	2141.107178	1137.128784	3.575244
818.927246	1104.732910	2162.357666	1138.020508	3.147392
819.233704	1103.395386	2191.113037	1135.271118	2.930515
819.540161	1098.342896	2240.746826	1144.410522	4.032516
819.846497	1099.828979	2302.195313	1147.234009	3.942644
820.152832	1099.977417	2381.996582	1158.973755	4.601830
820.458984	1101.017700	2469.005127	1164.769409	4.660255
820.765259	1098.119995	2563.666748	1168.187378	4.780972
821.071350	1099.754517	2689.906982	1176.806519	4.845573
821.377502	1099.903198	2882.350830	1187.803345	4.931429
821.683472	1093.958984	3255.573486	1214.329346	5.568540
821.989441	1088.460571	3999.120850	1262.254517	5.970946
822.295349	1084.745361	5196.062988	1322.737061	5.788697
822.601196	1085.488403	6753.746094	1407.219238	5.676009
822.907043	1092.993042	8163.045410	1466.958496	5.289430
823.212769	1095.519409	9016.932617	1518.450562	5.339087
823.518494	1096.708130	8963.359375	1508.196655	5.230796
823.824097	1096.856812	8217.805664	1477.955444	5.351796
824.129700	1095.370728	7075.328125	1415.689819	5.356544
824.435242	1100.274658	5937.976563	1367.170044	5.516987
824.740723	1102.949585	4992.399902	1322.439941	5.643223
825.046082	1104.138306	4293.954590	1277.040894	5.420456
825.351501	1101.091919	3825.252686	1236.174316	4.958680
825.656799	1093.587402	3510.729492	1204.149902	4.574100
825.962036	1093.290161	3309.369141	1196.570923	4.660518
826.267212	1091.061157	3198.880859	1198.502808	5.097288
826.572449	1091.952759	3203.190186	1213.437622	5.754202
826.877502	1084.448242	3343.548096	1224.137329	6.183396
827.182495	1081.698853	3649.006592	1240.781128	6.196463
827.487488	1082.293335	4039.319092	1252.372437	5.751695
827.792419	1086.974487	4372.641113	1266.787109	5.472638
828.097290	1096.856812	4500.812988	1277.115234	5.295557
828.402100	1094.999146	4379.996582	1277.932495	5.568751
828.706848	1097.971313	4067.256104	1261.808838	5.517744
829.011597	1093.810425	3650.120850	1235.282593	5.534233
829.316223	1096.336792	3254.161865	1212.620483	5.388930
829.620789	1093.587524	2920.394287	1196.422363	5.629213
829.925354	1095.370728	2675.046631	1182.007690	5.484477
830.229797	1093.587524	2484.088623	1168.187378	5.364962
830.534302	1096.411011	2367.433350	1160.534180	5.045007
830.838562	1092.250000	2272.994629	1149.314453	4.832921
831.142944	1091.432739	2200.326416	1143.816040	4.723925
831.447144	1086.157227	2142.964844	1143.741699	5.448908
831.751404	1090.466675	2126.692383	1145.673706	5.327703
832.055542	1087.494507	2125.949463	1146.119385	5.645394
832.359619	1091.209717	2134.568604	1138.020386	4.486536
832.663635	1089.277832	2156.636475	1135.865723	4.364783
832.967651	1092.472778	2202.258545	1131.704712	3.535091
833.271545	1094.181885	2305.018799	1149.240234	4.547132
833.575439	1094.627686	2458.974121	1166.255493	5.249972
833.879211	1095.965210	2698.897705	1192.632935	6.030680
834.183044	1092.175659	2958.957275	1200.434692	5.799234
834.486694	1097.153931	3182.905518	1210.391235	5.429089
834.790344	1103.841187	3293.393555	1204.372681	4.591418
835.093933	1107.184814	3239.078369	1199.468750	4.328731
835.397522	1107.704956	3073.606201	1187.357422	4.051702
835.700928	1104.955688	2827.441406	1174.354492	4.028992
836.004395	1110.602783	2614.638428	1167.518677	3.784212
836.307739	1106.144653	2421.451416	1156.818970	3.852661
836.611023	1098.268433	2284.437256	1160.162598	5.217989
836.914307	1089.723755	2165.924561	1152.212280	5.806400
837.217529	1092.324341	2088.575195	1150.726196	5.862164
837.520691	1095.222168	2026.458130	1141.735596	4.994806
837.823730	1092.398560	1970.656860	1135.717041	4.932317
838.126831	1091.581177	1918.198853	1135.642700	5.330339
838.429749	1086.157104	1876.960938	1129.921387	5.534152
838.732727	1086.008667	1857.122192	1131.704712	5.925982
839.035522	1085.414185	1845.085327	1123.828613	5.056718
839.338379	1094.256226	1833.122437	1121.376587	3.670537
839.641113	1098.862915	1833.939941	1118.627441	2.688769
839.943848	1099.754517	1869.382202	1122.788452	2.992867
840.246460	1094.776245	1921.468384	1125.909058	3.765950
840.549072	1098.862915	1986.854858	1138.689209	4.484984
840.851563	1101.017700	2026.606812	1146.268066	4.888818
841.154053	1104.955688	2041.913086	1152.435181	5.067412
841.456482	1096.262329	2008.105469	1139.357788	4.726192
841.758850	1090.689575	1951.263672	1127.692383	4.299782
842.061157	1088.609253	1893.901978	1125.463257	4.576473
842.363403	1097.674194	1834.385620	1119.444824	2.955110
842.665588	1100.794922	1778.064087	1122.045410	3.137672
842.967712	1101.983765	1735.860229	1119.519043	2.766356
843.269775	1105.475952	1703.761353	1128.286743	3.812694
843.571777	1104.732788	1688.306519	1123.754272	3.259483
843.873840	1105.401489	1663.192017	1124.125854	3.356881
844.175659	1098.417114	1639.638184	1114.392212	2.951677
844.477600	1101.017700	1632.133667	1117.958740	3.189706
844.779297	1101.612183	1618.684692	1114.243652	2.442882
845.081116	1103.915527	1615.638306	1113.649292	1.902156
845.382751	1103.989868	1596.171021	1108.596558	0.935974
845.684387	1101.092163	1585.545776	1113.946411	2.653350
845.985962	1088.832031	1578.264038	1118.999146	6.163699
846.287537	1081.773315	1565.112671	1115.135254	6.902384
846.588989	1081.253296	1559.762695	1106.813354	5.341600
846.890381	1089.352173	1541.707153	1105.995972	3.679367
847.191711	1096.336792	1540.221313	1110.602783	3.213897
847.493042	1097.971313	1528.407104	1113.946411	3.711378
847.794250	1098.491333	1515.924194	1121.748169	5.571395
848.095459	1092.398682	1508.939819	1117.215698	5.957879
848.396606	1096.039551	1507.825195	1115.283813	4.673369
848.697693	1097.971313	1523.428711	1104.361328	1.501916
848.998657	1098.640015	1520.456543	1101.686401	0.722207
849.299622	1096.931030	1518.747681	1097.525391	0.140905
849.600464	1098.862915	1509.682617	1098.342773	-0.126611
849.901367	1102.726685	1507.527832	1106.367554	0.899422
850.202087	1097.748413	1502.475220	1114.689453	4.185796
850.502808	1099.160278	1501.138062	1119.593384	5.083143
850.803467	1097.302612	1495.267944	1119.221924	5.507844
851.104065	1096.782471	1491.255737	1111.197144	3.654157
851.404663	1098.788696	1488.654907	1109.711060	2.801567
851.705139	1095.890747	1492.370117	1109.042480	3.317129
852.005615	1106.887695	1497.571289	1106.887573	-0.000031
852.306030	1101.686401	1495.490845	1107.259155	1.415107
852.606384	1099.011597	1501.509277	1107.704956	2.159853
852.906616	1091.804199	1492.964478	1112.311768	5.112063
853.206909	1092.026978	1484.345337	1116.992798	6.363664
853.506958	1098.565796	1468.890503	1115.283813	4.514421
853.807129	1100.646118	1471.565430	1118.924805	4.927941
854.107178	1104.435669	1478.549805	1108.745239	1.151940
854.407166	1107.853638	1472.902954	1110.454102	0.712360
854.707092	1106.218872	1463.392212	1105.550171	-0.187220
855.007019	1104.212769	1454.550171	1109.859741	1.611867
855.306763	1094.256226	1462.723267	1106.664673	3.367587
855.606567	1100.423340	1462.797729	1106.218872	1.599322
855.906250	1096.782593	1465.695679	1103.098145	1.711935
856.205933	1104.807129	1461.386108	1105.847412	0.291740
856.505493	1103.098145	1459.008301	1104.212769	0.313176
856.805054	1106.144653	1450.463501	1103.395386	-0.798466
857.104492	1099.828979	1451.206421	1103.692749	1.099607
857.403931	1098.417236	1451.503540	1105.921753	2.125406
857.703308	1097.674194	1455.961792	1099.977539	0.642876
858.002563	1095.668091	1450.983521	1096.931030	0.355442
858.301819	1086.528687	1454.029907	1097.228394	2.911475
858.601013	1089.797974	1448.308594	1106.813354	4.746130
858.900208	1095.816528	1449.348999	1107.407715	3.278677
859.199219	1102.875244	1435.825806	1104.881470	0.602560
859.498291	1094.033325	1440.284058	1103.841187	2.832589
859.797302	1092.621460	1434.488403	1107.482056	4.346895
860.096191	1092.101440	1436.494629	1117.141479	7.270771
860.395020	1088.609253	1432.705078	1113.054810	7.104288
860.693787	1085.414185	1427.652466	1115.506714	8.792859
860.992554	1082.144897	1421.262329	1108.447876	7.756304
861.291260	1087.717407	1414.872437	1109.711060	6.722701
861.589844	1088.906372	1417.027222	1099.605957	3.260867
861.888428	1088.534790	1428.024048	1093.735962	1.532058
862.186890	1091.358276	1436.940430	1097.451294	1.763117
862.485413	1096.336548	1438.500610	1101.166382	1.411555
862.783813	1106.664673	1438.203491	1108.002075	0.403392
863.082153	1103.989868	1430.327515	1103.841187	-0.045561
863.380371	1093.215942	1428.321289	1097.451172	1.263850
863.678589	1084.373901	1426.983765	1098.862915	4.229012
863.976746	1084.002441	1429.138550	1104.138550	5.834251
864.274902	1094.033325	1427.058105	1113.723511	5.912529
864.572937	1090.466675	1423.268555	1116.844116	7.925869
864.870911	1095.147827	1424.160156	1113.277588	5.510359
865.168884	1100.051758	1418.958984	1115.878296	4.962740
865.466736	1108.076538	1416.358398	1106.813354	-0.409750
865.764587	1109.413940	1415.318237	1109.711182	0.097168
866.062317	1106.070435	1421.485352	1110.305542	1.342710
866.360107	1110.677124	1423.862915	1113.574829	0.925235
866.657715	1108.076538	1418.215942	1108.447876	0.119733
866.955322	1110.231323	1407.442017	1103.692627	-2.200021
867.252808	1101.686523	1401.572266	1105.327393	1.214085
867.550293	1101.389160	1400.977905	1102.057983	0.223247
867.847717	1101.612183	1406.030640	1107.184814	1.830583
868.145081	1102.652466	1405.658813	1114.317871	3.849888
868.442383	1099.011597	1408.408203	1116.769897	5.739656
868.739624	1090.392456	1401.943726	1108.968140	5.962320
869.036804	1091.729858	1402.909790	1105.401489	4.393481
869.333984	1092.993042	1399.343262	1104.286987	3.686612
869.631042	1095.222046	1399.788940	1103.766968	2.805598
869.928101	1093.735962	1402.240845	1100.200317	2.095382
870.224976	1095.593506	1398.971680	1102.652344	2.326746
870.521851	1100.571899	1403.801270	1108.150757	2.499381
870.818726	1105.550171	1403.429810	1107.704956	0.723374
871.115479	1104.435669	1415.244019	1109.859741	1.745150
871.412231	1097.674072	1417.770142	1109.859741	3.806879
871.708862	1086.825928	1413.089233	1104.881470	5.534040
872.005493	1086.380249	1398.377319	1100.423218	4.500994
872.302063	1099.754517	1392.804321	1095.370605	-1.495961
872.598572	1104.138550	1392.358765	1096.856812	-2.526449
872.895020	1106.664673	1402.984009	1102.057861	-1.554678
873.191406	1095.444946	1406.550415	1101.092041	1.815171
873.487671	1099.754517	1410.414185	1101.760742	0.645795
873.783997	1105.029907	1414.055176	1099.234375	-1.875423
874.080200	1105.475830	1419.702148	1099.903198	-1.773445
874.376343	1112.609009	1425.126343	1105.698730	-2.211166
874.672424	1106.813477	1420.296509	1108.596558	0.568797
874.968445	1106.664673	1413.683594	1107.630737	0.314660
875.264465	1089.872314	1418.587524	1103.023926	4.000914
875.560364	1091.655640	1417.993042	1103.915527	3.756814
875.856201	1094.850464	1424.531738	1103.915527	2.749645
876.152039	1105.104370	1416.804199	1106.961914	0.595940
876.447754	1106.738892	1421.485352	1099.531738	-2.289828
876.743469	1102.429443	1420.073608	1105.921753	1.099441
877.039063	1097.005493	1419.256226	1107.630737	3.297198
877.334595	1095.519409	1413.014771	1107.779297	3.861438
877.630127	1099.605957	1416.432739	1105.252930	1.782353
877.925537	1107.407715	1421.039429	1112.608887	1.658369
878.221008	1107.036133	1425.869141	1113.797729	2.120733
878.516296	1104.584229	1427.132324	1118.404663	4.284767
878.811646	1102.429321	1432.630737	1111.048706	2.610342
879.106812	1095.742188	1457.001953	1109.042480	3.681643
879.401978	1091.878418	1484.419800	1101.686401	2.498586
879.697083	1089.500732	1511.391602	1100.794800	2.677011
879.992126	1088.088989	1531.973511	1109.191040	4.753951
880.287109	1086.974487	1564.963867	1114.392212	5.736053
880.582031	1084.522583	1642.238647	1123.680054	7.021040
880.876892	1091.506958	1795.451050	1133.190796	5.921470
881.171753	1101.463501	2068.364990	1151.023438	5.125645
881.466492	1102.800903	2501.178467	1170.267822	4.824657
881.761230	1100.571899	3069.296875	1194.564819	4.774304
882.055786	1092.250000	3627.087158	1224.434448	5.214712
882.350403	1091.729858	3995.182861	1244.867798	5.274338
882.644958	1090.318115	4055.145264	1252.446655	5.468398
882.939453	1100.497681	3833.723389	1238.329224	5.042816
883.233826	1104.732910	3429.887939	1215.369629	4.758251
883.528137	1104.435669	3001.087158	1194.193359	4.732430
883.822449	1097.005371	2623.852295	1173.462769	5.007535
884.116577	1093.661743	2341.501709	1156.447510	5.031556
884.410828	1093.958984	2124.909424	1140.695313	4.533324
884.704956	1094.479126	1962.557983	1132.076294	4.331078
884.999023	1097.005371	1849.097656	1124.051636	3.596136
885.292969	1096.559570	1758.225220	1123.457153	4.065132
885.586914	1094.627808	1695.885254	1121.302368	4.436462
885.880798	1093.141724	1644.170532	1116.175415	4.180125
886.174622	1094.553345	1615.341187	1111.271484	3.210163
886.468384	1095.667969	1595.428101	1106.813232	2.230123
886.762085	1093.661743	1570.165039	1106.590454	2.713247
887.055664	1092.101440	1543.118774	1104.584229	2.767696
887.349304	1089.055054	1514.586548	1108.522339	4.574817
887.642822	1100.943481	1492.816040	1107.036255	1.554784
887.936340	1102.429443	1471.713989	1110.900024	2.293782
888.229736	1104.138428	1452.915405	1101.983765	-0.617777
888.523071	1089.797974	1441.769897	1111.345825	6.122037
888.816284	1093.141602	1424.977539	1115.135132	6.627832
889.109619	1090.764038	1416.655640	1122.565552	9.758310
889.402710	1090.243896	1407.367798	1118.330200	8.856571
889.695862	1090.838379	1401.349243	1109.562378	6.030063
889.988892	1096.931030	1390.872559	1104.509888	2.578356
890.281921	1103.172607	1379.132690	1100.720581	-0.888544
>>>>>End Processed Spectral Data<<<<<
