Jaz Data File
++++++++++++++++++++++++++++++++++++
Date: Fri Jun 04 13:11:46 2021
User: jaz
Dark Spectrum Present: Yes
Reference Spectrum Present: Yes
Processed Spectrum Present: Yes
Spectrometers: JAZA3586
Integration Time (usec): 31000 (JAZA3586)
Spectra Averaged: 10 (JAZA3586)
Boxcar Smoothing: 1 (JAZA3586)
Correct for Electrical Dark: No (JAZA3586)
Strobe/Lamp Enabled: Yes (JAZA3586)
Correct for Detector Non-linearity: No (JAZA3586)
Correct for Stray Light: No (JAZA3586)
Number of Pixels in Processed Spectrum: 2048
>>>>>Begin Processed Spectral Data<<<<<
W	D	R	S	P
191.335022	0.000000	0.000000	0.000000	0.000000
191.713211	360.962646	357.024567	357.098877	98.113029
192.091385	715.386658	714.049133	708.996582	477.753937
192.469528	1071.445313	1078.652710	1065.723999	-79.381126
192.847641	1072.262573	1088.014648	1068.473145	-24.056696
193.225739	1091.358398	1095.519409	1084.819702	-157.142014
193.603790	1109.042358	1102.429443	1096.187988	194.382813
193.981842	1114.912231	1109.636841	1102.355225	238.029892
194.359863	1116.621216	1118.032837	1098.268555	-1300.112427
194.737854	1121.822388	1124.348633	1099.457397	-885.305603
195.115829	1130.590210	1123.828613	1095.742188	515.381531
195.493774	1136.683105	1123.902954	1107.704956	226.743393
195.871704	1131.778931	1113.277710	1108.968140	123.293434
196.249603	1131.184692	1118.627563	1118.107422	104.142204
196.627457	1125.834839	1119.519043	1109.116699	264.703613
197.005310	1129.995728	1120.782227	1113.277710	181.451309
197.383133	1122.713989	1113.500488	1110.379883	133.869919
197.760910	1123.902954	1110.974243	1112.311768	89.654617
198.138687	1116.992798	1116.398438	1107.110474	1662.682251
198.516449	1122.268188	1118.033081	1108.968140	314.042786
198.894180	1115.209473	1116.101196	1112.163086	-341.629028
199.271866	1115.878174	1114.838135	1116.101196	-21.443663
199.649536	1106.367432	1114.986694	1113.500488	82.757156
200.027191	1104.064087	1118.627563	1106.961914	19.897907
200.404816	1107.184692	1119.964966	1101.166382	-47.090626
200.782410	1112.460327	1129.401367	1102.206543	-60.526299
201.159988	1111.865845	1144.782104	1098.417114	-40.857407
201.537537	1114.615112	1155.704590	1096.262329	-44.665409
201.915070	1113.500610	1157.562134	1095.816528	-40.134975
202.292557	1116.101196	1158.007813	1102.652466	-32.092140
202.670029	1103.692627	1156.596069	1105.996094	4.354096
203.047485	1100.571899	1150.874878	1108.893921	16.543795
203.424911	1098.491455	1140.695435	1106.813354	19.718281
203.802292	1101.463501	1136.311523	1101.463501	0.000000
204.179688	1100.348999	1139.209351	1095.222046	-13.193275
204.557037	1104.732910	1153.921387	1096.411011	-16.918392
204.934357	1102.429565	1155.853149	1102.057983	-0.695539
205.311661	1102.429565	1161.351440	1101.240601	-2.017867
205.688934	1094.702026	1154.144165	1101.017700	10.624910
206.066177	1095.444946	1151.766479	1101.314941	10.422293
206.443390	1098.342773	1146.268066	1107.110596	18.294771
206.820587	1101.760742	1145.079224	1103.915649	4.974568
207.197769	1106.070313	1156.670532	1106.961914	1.762051
207.574921	1109.265381	1157.190552	1103.841187	-11.318049
207.952042	1106.516113	1153.698242	1102.652466	-8.188794
208.329147	1101.612183	1145.970825	1090.986938	-23.953041
208.706223	1107.036133	1155.035767	1099.680298	-15.324773
209.083267	1104.658569	1158.602417	1107.110474	4.545290
209.460297	1101.463501	1156.819092	1112.386108	19.731714
209.837280	1088.980713	1147.754028	1098.342773	15.929101
210.214264	1090.912476	1148.645630	1092.175781	2.188181
210.591217	1094.776245	1153.103882	1086.157227	-14.776903
210.968124	1091.952759	1156.819092	1091.358398	-0.916285
211.345016	1090.541016	1153.698364	1089.575195	-1.529229
211.721893	1088.460571	1156.818970	1087.346069	-1.630380
212.098724	1091.061157	1155.481567	1085.562866	-8.535014
212.475555	1097.822754	1151.469238	1091.432739	-11.911339
212.852356	1098.342773	1148.794312	1093.364624	-9.867190
213.229126	1099.234497	1147.828369	1086.900269	-25.382271
213.605865	1091.952759	1153.103882	1083.333862	-14.094420
213.982590	1087.866089	1146.342407	1084.894043	-5.082478
214.359283	1087.123047	1149.240234	1085.934204	-1.913871
214.735931	1090.317993	1144.261841	1078.726807	-21.487505
215.112579	1090.838257	1151.469238	1081.030273	-16.176521
215.489197	1090.466675	1150.800415	1086.231445	-7.019670
215.865799	1087.271729	1147.159790	1092.101440	8.064566
216.242355	1093.290405	1141.884277	1084.002319	-19.113697
216.618896	1093.810425	1140.918335	1087.197388	-14.038061
216.995407	1095.816528	1146.565308	1083.407837	-24.451212
217.371902	1097.376831	1157.339233	1091.729858	-9.417522
217.748367	1095.816528	1154.664307	1081.624756	-24.116072
218.124802	1093.513184	1153.772705	1086.602905	-11.467529
218.501236	1094.256226	1146.639648	1085.042603	-17.588814
218.877609	1096.931030	1145.227905	1093.587402	-6.923073
219.253983	1092.026978	1150.949097	1090.838257	-2.017444
219.630295	1090.169434	1143.296021	1085.191284	-9.370355
220.006592	1083.779419	1146.936890	1088.906372	8.117730
220.382889	1095.222168	1152.063599	1083.185059	-21.176647
220.759140	1088.906372	1159.791138	1093.810425	6.918345
221.135391	1094.330566	1158.305054	1088.832153	-8.594697
221.511581	1091.729858	1150.280396	1099.383179	13.071307
221.887772	1091.506958	1147.754150	1099.160278	13.606582
222.263931	1087.643188	1150.949219	1100.274780	19.953220
222.640060	1086.528687	1155.704590	1099.828735	19.226419
223.016159	1094.627563	1163.357666	1098.788696	6.054309
223.392212	1101.612061	1163.134766	1091.135376	-17.028973
223.768265	1107.853516	1163.432007	1093.364624	-26.069242
224.144302	1114.317871	1154.887207	1095.965210	-45.237766
224.520294	1117.364258	1153.475464	1097.897095	-53.908924
224.896286	1115.135132	1154.812866	1096.188110	-47.752277
225.272217	1102.132202	1168.410278	1090.392456	-17.712866
225.648148	1092.993042	1180.373047	1093.587524	0.680341
226.024048	1086.380249	1184.459595	1086.380127	-0.000124
226.399902	1087.271729	1180.373047	1089.649414	2.553869
226.775772	1097.005371	1178.589722	1094.107544	-3.551940
227.151581	1099.680298	1175.617676	1107.630737	10.469731
227.527374	1095.593628	1185.277100	1109.562622	15.575885
227.903137	1094.107544	1194.787964	1103.841187	9.667861
228.278870	1086.305786	1211.357300	1090.318115	3.208541
228.654572	1091.581177	1222.651245	1084.596802	-5.328734
229.030273	1087.420288	1238.031982	1082.664917	-3.157372
229.405930	1089.723633	1248.359985	1088.609253	-0.702474
229.781555	1081.921997	1262.849121	1094.702026	7.063634
230.157181	1085.339966	1255.567261	1100.423218	8.860654
230.532761	1099.308716	1249.623169	1099.234497	-0.049376
230.908325	1105.401733	1227.778076	1090.020874	-12.568491
231.283859	1104.064087	1222.279663	1088.237549	-13.387862
231.659332	1091.804199	1225.623413	1089.277832	-1.887896
232.034821	1095.370728	1234.539673	1090.095215	-3.790725
232.410263	1094.256226	1239.517944	1086.231445	-5.524360
232.785690	1095.965210	1234.391113	1081.698853	-10.306133
233.161087	1092.695923	1234.390991	1087.791870	-3.460990
233.536469	1084.894043	1230.155884	1090.912476	4.143161
233.911804	1084.225220	1230.750366	1082.887817	-0.912746
234.287140	1082.442017	1225.920532	1076.646362	-4.039388
234.662430	1088.534912	1231.864746	1074.491577	-9.797915
235.037704	1087.123169	1243.678955	1084.151001	-1.898472
235.412933	1093.438843	1257.350586	1087.717407	-3.490559
235.788162	1091.729858	1262.774658	1096.708130	2.910507
236.163345	1099.011597	1258.242188	1093.364502	-3.546489
236.538513	1097.376831	1251.183472	1099.531616	1.400970
236.913635	1097.896973	1249.474609	1095.296387	-1.715679
237.288742	1094.627808	1251.852295	1106.367554	7.466869
237.663834	1089.723755	1254.824341	1099.457397	5.895583
238.038879	1101.909302	1261.660278	1097.302612	-2.883669
238.413910	1108.002075	1267.827271	1096.336548	-7.298929
238.788910	1110.008301	1276.743774	1104.435669	-3.342199
239.163879	1108.225098	1282.985107	1107.333374	-0.510256
239.538834	1105.624512	1289.375122	1107.853516	1.213059
239.913757	1105.104370	1298.588623	1107.407837	1.190519
240.288651	1096.188110	1314.043579	1107.779297	5.320586
240.663528	1088.014771	1327.566650	1110.677124	9.460311
241.038361	1084.299561	1353.795532	1111.420044	10.063410
241.413177	1085.488403	1383.368164	1111.717407	8.805232
241.787979	1093.067261	1426.389282	1105.773071	3.811872
242.162735	1101.017700	1471.119629	1105.253052	1.144374
242.537476	1104.584229	1497.348633	1103.989868	-0.151327
242.912170	1107.036255	1516.147095	1101.760742	-1.289507
243.286865	1101.760864	1517.187134	1098.045532	-0.894342
243.661514	1100.200439	1515.552612	1096.113770	-0.983905
244.036148	1099.606079	1494.524780	1102.875244	0.827807
244.410751	1099.457397	1469.707886	1104.881348	1.464941
244.785339	1093.364624	1463.614868	1109.859741	4.455127
245.159882	1090.243896	1474.091797	1109.933960	5.129653
245.534378	1089.352173	1508.196655	1116.324097	6.439603
245.908890	1084.671143	1556.344727	1124.943237	8.538128
246.283356	1081.327515	1630.647461	1129.772827	8.819143
246.657791	1078.132446	1702.943970	1128.732544	8.098458
247.032196	1082.590698	1771.525391	1128.361084	6.643647
247.406586	1086.305786	1813.506470	1128.286743	5.772954
247.780960	1086.157227	1834.682739	1133.116455	6.273564
248.155289	1097.302612	1814.992554	1125.537598	3.934148
248.529602	1098.565796	1775.240601	1122.268311	3.502793
248.903870	1114.615112	1713.123413	1119.221924	0.769716
249.278122	1111.717285	1659.105469	1116.101196	0.800878
249.652344	1106.144653	1619.427734	1115.283813	1.780530
250.026550	1099.828979	1594.907837	1108.076416	1.665883
250.400711	1095.073608	1581.161987	1114.317871	3.959005
250.774857	1100.126099	1573.880249	1113.797852	2.885833
251.148987	1094.924927	1585.471313	1107.630737	2.590134
251.523071	1091.729858	1610.214233	1102.429565	2.063651
251.897125	1078.355347	1634.213867	1093.438843	2.713550
252.271164	1082.144775	1645.953735	1100.125977	3.189236
252.645187	1086.900269	1645.433960	1104.212769	3.099634
253.019165	1100.571899	1640.529907	1115.952515	2.848484
253.393112	1100.200317	1619.056274	1122.862793	4.367778
253.767044	1100.720459	1593.124634	1120.187866	3.953542
254.140930	1098.045532	1571.948242	1125.760620	5.848265
254.514801	1100.497559	1570.536621	1123.382690	4.868773
254.888657	1098.565674	1573.062988	1126.949341	5.981839
255.262466	1095.222046	1577.595337	1118.850464	4.898368
255.636276	1091.581177	1575.812134	1115.803955	5.002319
256.010010	1090.689575	1585.843140	1113.426270	4.591847
256.383759	1092.918701	1607.242188	1114.540771	4.203983
256.757446	1091.655640	1649.000366	1119.816284	5.052644
257.131134	1093.513184	1689.792480	1126.354980	5.507788
257.504791	1091.804199	1736.528931	1128.509644	5.693196
257.878418	1098.045532	1791.958862	1127.395142	4.229578
258.252014	1103.172485	1882.013672	1127.098022	3.071940
258.625580	1105.624512	1994.656616	1129.401367	2.674465
258.999115	1100.126099	2133.974365	1140.323853	3.888168
259.372650	1093.735962	2269.353760	1153.326782	5.068894
259.746124	1088.609131	2379.024414	1157.636353	5.349226
260.119598	1093.513184	2444.559326	1160.534302	4.960683
260.493042	1095.296509	2454.813232	1154.292847	4.339508
260.866425	1104.955933	2410.974609	1150.577759	3.493199
261.239838	1102.949585	2327.829834	1141.809937	3.172584
261.613159	1095.593628	2216.598877	1135.865723	3.592498
261.986511	1092.324219	2124.760742	1139.358032	4.555613
262.359802	1087.123047	2057.219482	1135.865845	5.024531
262.733063	1095.444946	2025.046265	1132.447754	3.980503
263.106293	1097.896973	2007.287964	1126.429321	3.137523
263.479523	1099.457275	1989.455200	1127.320923	3.130754
263.852692	1098.417114	1977.492554	1129.995850	3.592267
264.225861	1094.479126	1963.226440	1123.085571	3.292838
264.598969	1097.971313	1969.096313	1122.119751	2.772098
264.972076	1096.782349	1987.597778	1111.940308	1.701582
265.345154	1100.646240	2024.303345	1121.599609	2.268523
265.718201	1093.661743	2066.953125	1131.556152	3.893429
266.091217	1094.107544	2122.011475	1138.466309	4.315458
266.464203	1093.661743	2181.379150	1141.364136	4.385550
266.837158	1098.788574	2236.883545	1133.859497	3.081546
267.210114	1101.389160	2277.526855	1144.633301	3.676792
267.583038	1096.485229	2302.121094	1138.911987	3.519036
267.955902	1093.513062	2306.356201	1137.946167	3.663549
268.328766	1092.621460	2314.158203	1131.407471	3.175182
268.701569	1096.410889	2326.343994	1138.094727	3.389114
269.074371	1096.485229	2344.770996	1139.357788	3.434515
269.447144	1091.358276	2375.309326	1146.490845	4.293977
269.819885	1085.488403	2426.429688	1139.729370	4.044992
270.192596	1089.649414	2526.366943	1146.788208	3.977037
270.565277	1090.986816	2647.851807	1157.636475	4.281017
270.937927	1099.531616	2770.525391	1173.685913	4.437737
271.310577	1097.302612	2861.843750	1184.162476	4.922518
271.683136	1100.794800	2914.301514	1178.441162	4.281559
272.055725	1096.633911	2930.499268	1176.955078	4.379884
272.428284	1095.742188	2904.196045	1175.766235	4.424998
272.800812	1092.770142	2867.490479	1178.366821	4.823108
273.173279	1086.082886	2803.218750	1174.503052	5.149282
273.545776	1091.506958	2770.376953	1166.775635	4.483294
273.918152	1086.231567	2728.618896	1160.236938	4.505963
274.290558	1091.135498	2718.736816	1162.020264	4.355167
274.662964	1085.859985	2713.609619	1159.048218	4.496283
275.035278	1098.937256	2737.089111	1159.270996	3.683037
275.407593	1097.079590	2771.788818	1158.825317	3.686952
275.779907	1095.444946	2817.559326	1159.048096	3.693317
276.152161	1082.070435	2870.983154	1159.568237	4.332118
276.524384	1085.859985	2916.233398	1163.283325	4.229920
276.896606	1096.633911	2944.171143	1168.633179	3.897040
277.268799	1101.983643	2934.734375	1166.032593	3.494690
277.640930	1100.869019	2936.443604	1164.546509	3.469077
278.013031	1090.615356	2928.939209	1162.466187	3.908497
278.385162	1090.838257	2940.158936	1164.323730	3.973647
278.757233	1090.466675	2952.195557	1163.654907	3.931197
279.129272	1090.986816	2993.359375	1164.398071	3.858932
279.501282	1095.222046	3034.746094	1164.323608	3.562810
279.873230	1097.896973	3096.120117	1167.592896	3.487895
280.245178	1099.754517	3174.361084	1169.821899	3.377382
280.617126	1102.801025	3305.430908	1179.109863	3.464442
280.988983	1097.822754	3417.479492	1186.614380	3.827792
281.360870	1103.098145	3534.283203	1193.673340	3.725557
281.732697	1095.965088	3599.669678	1198.725830	4.104348
282.104492	1101.017700	3659.780518	1196.868164	3.745969
282.476288	1092.993042	3670.851563	1193.747559	3.908458
282.848053	1091.284058	3666.764893	1193.227417	3.958226
283.219757	1094.702026	3654.282471	1197.982788	4.035066
283.591461	1101.760742	3634.443604	1204.075562	4.039780
283.963135	1105.698853	3647.891846	1199.245972	3.679780
284.334747	1095.593628	3708.820313	1194.119019	3.770258
284.706360	1089.054932	3803.184814	1202.143677	4.166667
285.077942	1086.305664	3893.536865	1205.858887	4.258759
285.449524	1088.832031	3968.805420	1214.106445	4.349846
285.821014	1095.593628	3985.523438	1206.824707	3.848920
286.192535	1098.268555	4037.535400	1213.437622	3.918292
286.563995	1097.376953	4038.352783	1206.527588	3.711375
286.935425	1093.884644	4041.547852	1198.502930	3.549194
287.306824	1091.284058	3954.613525	1192.855835	3.547331
287.678223	1096.410889	3876.298096	1196.050903	3.584319
288.049561	1086.825806	3816.261963	1197.239868	4.045307
288.420898	1083.333618	3820.645752	1200.732056	4.288822
288.792145	1079.767212	3845.686279	1197.908569	4.271324
289.163452	1085.042603	3947.778076	1205.338745	4.202140
289.534668	1093.735962	4058.266357	1211.877319	3.985163
289.905914	1095.519409	4179.750488	1216.707153	3.929269
290.277039	1103.246948	4278.499512	1224.583130	3.821308
290.648193	1095.816528	4309.482910	1221.833984	3.921299
291.019318	1096.410889	4320.331543	1218.192993	3.777453
291.390381	1090.615356	4258.883301	1213.883545	3.890712
291.761475	1096.633911	4211.849609	1209.351074	3.618278
292.132507	1092.175659	4170.760254	1212.768921	3.917166
292.503510	1092.026978	4166.228027	1212.620361	3.922755
292.874481	1084.448120	4210.586426	1222.279785	4.409008
293.245422	1088.386230	4288.009766	1229.709961	4.416886
293.616364	1089.500854	4421.680176	1235.357056	4.377202
293.987213	1094.553345	4553.567871	1236.099976	4.092108
294.358093	1093.810303	4674.755371	1238.180542	4.031624
294.728943	1091.358276	4789.033203	1243.530273	4.115343
295.099731	1087.717529	4903.087402	1238.477661	3.951390
295.470490	1083.556641	5015.507324	1239.072144	3.955174
295.841248	1089.054932	5100.584473	1243.976196	3.861900
296.211975	1097.376831	5209.883301	1250.514893	3.723716
296.582642	1106.293091	5320.148926	1255.047363	3.530122
296.953308	1105.178711	5374.464355	1252.892578	3.459920
297.323883	1096.708252	5352.545410	1257.053345	3.767651
297.694519	1091.209839	5241.313965	1253.784058	3.917353
298.065063	1091.135498	5122.578125	1250.068970	3.942347
298.435608	1095.147827	4978.208008	1249.326050	3.970534
298.806122	1095.593628	4812.810059	1247.617065	4.089712
299.176575	1094.182007	4655.437012	1240.706909	4.114418
299.547028	1094.256226	4534.843750	1232.979370	4.031961
299.917450	1093.884644	4470.497559	1230.750366	4.053344
300.287872	1092.398560	4472.801270	1231.344727	4.110343
300.658234	1093.215942	4476.812988	1223.691528	3.856121
301.028564	1092.547241	4465.593750	1226.143555	3.960702
301.398865	1093.884644	4409.718262	1215.741211	3.674991
301.769135	1096.485229	4353.396973	1216.781372	3.693565
302.139374	1098.119873	4326.424316	1210.317017	3.475420
302.509583	1103.246826	4285.261230	1215.741089	3.535316
302.879791	1099.903198	4234.512207	1213.734985	3.631451
303.249939	1099.234497	4167.045410	1209.351074	3.589418
303.620087	1091.506958	4134.872070	1205.561646	3.747650
303.990173	1088.757813	4130.116699	1211.580200	4.038405
304.360260	1085.859985	4130.637207	1204.595825	3.899656
304.730286	1081.624634	4126.327637	1213.437744	4.329260
305.100281	1087.123169	4115.999023	1210.019775	4.057499
305.470276	1089.055054	4121.571777	1220.273560	4.327050
305.840179	1097.822754	4133.460449	1212.471802	3.776770
306.210144	1090.317993	4162.586914	1209.053833	3.864760
306.579987	1089.055054	4208.208496	1210.391357	3.890040
306.949890	1087.271729	4271.960449	1212.397583	3.928982
307.319702	1090.763916	4350.869629	1221.090942	3.997632
307.689484	1093.215942	4430.002441	1223.320068	3.899084
308.059265	1098.565674	4516.937012	1224.137451	3.673439
308.429016	1101.017700	4600.453125	1224.360229	3.524641
308.798737	1101.537720	4711.684082	1227.778198	3.496824
309.168396	1092.250122	4771.646484	1242.118530	4.073179
309.538055	1090.689819	4791.411133	1254.973022	4.439221
309.907684	1094.702026	4776.327637	1252.966797	4.298774
310.277313	1095.519409	4797.132324	1244.496216	4.024646
310.646851	1097.525513	4810.061035	1228.521118	3.528467
311.016388	1089.723633	4792.896973	1228.149658	3.738038
311.385895	1092.026978	4726.619141	1231.790527	3.845371
311.755371	1092.398560	4656.997559	1233.053711	3.945890
312.124817	1096.931030	4604.911621	1233.870972	3.903669
312.494232	1095.445190	4568.131348	1228.372559	3.827797
312.863617	1089.500854	4544.279785	1228.669800	4.028303
313.232971	1090.095215	4552.973145	1228.298218	3.990987
313.602295	1092.472778	4624.452637	1233.350952	3.988646
313.971619	1097.228149	4730.036621	1236.174438	3.824762
314.340820	1094.924927	4773.727051	1235.357056	3.817333
314.710083	1092.547119	4766.445313	1236.694458	3.923553
315.079285	1093.884644	4683.597168	1237.883179	4.011423
315.448486	1087.048828	4601.715820	1233.796753	4.175301
315.817596	1089.426636	4467.748535	1227.555176	4.088673
316.186707	1086.677368	4361.718262	1227.183838	4.290220
316.555786	1097.822754	4271.291992	1227.035278	4.071649
316.924866	1100.274780	4227.230469	1222.948486	3.923104
317.293884	1099.160156	4220.394043	1214.998047	3.711285
317.662872	1099.977417	4244.542480	1214.775024	3.650667
318.031830	1097.748413	4282.734375	1215.741089	3.704653
318.400757	1091.506958	4317.285645	1216.781250	3.883536
318.769684	1085.934204	4353.322266	1214.032227	3.920502
319.138550	1088.163452	4359.711426	1212.694702	3.806493
319.507416	1092.770142	4351.612793	1215.221069	3.757497
319.876190	1094.850586	4300.716309	1212.769043	3.678210
320.244995	1098.045654	4233.100098	1208.979614	3.538502
320.613770	1098.491333	4179.676270	1211.431519	3.665479
320.982483	1093.810425	4179.453613	1213.363281	3.874488
321.351166	1085.637085	4218.017090	1219.307617	4.267379
321.719818	1085.339844	4279.910645	1215.518188	4.074987
322.088440	1082.739258	4394.857422	1217.152954	4.058240
322.457062	1084.522583	4559.958008	1219.901978	3.895322
322.825623	1090.169434	4740.291016	1225.028931	3.694658
323.194183	1088.237671	4858.135254	1228.966919	3.732973
323.562653	1087.123047	4930.877441	1228.521118	3.678645
323.931183	1079.024048	4936.598145	1231.493286	3.952464
324.299591	1090.392456	4910.740723	1232.905151	3.730359
324.668060	1095.370728	4859.991699	1235.431274	3.720442
325.036407	1103.098145	4789.330566	1223.245728	3.259360
325.404755	1104.212769	4729.293457	1219.753540	3.187261
325.773102	1101.314819	4648.304199	1214.700806	3.196682
326.141388	1089.872192	4571.028809	1222.279785	3.803552
326.509674	1083.259399	4464.255859	1223.617310	4.151377
326.877899	1081.253296	4383.637207	1226.663696	4.403195
327.246124	1092.992920	4341.285156	1217.821655	3.842903
327.614288	1098.862915	4314.833496	1211.505859	3.502611
327.982422	1100.126099	4310.672363	1203.927124	3.233126
328.350525	1100.943481	4322.263672	1214.849609	3.536007
328.718628	1092.918701	4369.148926	1220.793823	3.903118
329.086700	1090.466675	4417.296875	1231.419067	4.236838
329.454712	1088.757690	4466.113770	1225.771973	4.056850
329.822693	1093.736084	4485.952637	1217.747314	3.655758
330.190674	1097.079712	4536.403809	1212.694824	3.361565
330.558563	1095.370728	4567.908691	1216.781372	3.496309
330.926483	1099.977417	4657.517578	1231.493286	3.696820
331.294312	1099.754517	4739.473145	1243.678955	3.954274
331.662231	1101.315063	4857.688965	1244.867798	3.821577
332.029999	1091.284180	4951.310547	1240.186646	3.857550
332.397766	1090.169556	5018.851563	1236.768921	3.731515
332.765503	1092.027100	5055.037109	1235.802856	3.627943
333.133240	1100.943481	5077.253418	1238.626343	3.462579
333.500916	1099.457397	5083.420410	1229.784302	3.271288
333.868561	1098.714355	5078.591309	1232.013428	3.349326
334.236176	1094.256226	5053.179199	1232.533569	3.492802
334.603790	1093.810425	5014.170898	1235.282715	3.608655
334.971344	1090.466797	4978.728027	1243.901978	3.946113
335.338867	1088.534790	4955.545410	1244.347656	4.029284
335.706360	1095.667847	4949.601563	1245.908081	3.898361
336.073853	1102.355225	4966.542480	1234.762695	3.426528
336.441284	1107.407837	4995.520508	1232.830933	3.225809
336.808655	1108.819580	5052.808105	1240.929810	3.349661
337.176086	1098.862915	5096.869629	1248.211548	3.735577
337.543396	1092.918823	5120.794922	1255.047241	4.025159
337.910706	1082.293335	5127.630371	1248.211426	4.101465
338.277954	1079.915649	5118.714355	1244.867798	4.084188
338.645264	1082.442017	5098.429688	1241.004028	3.948269
339.012421	1087.123047	5041.811035	1235.431274	3.750188
339.379669	1096.039551	4946.332031	1232.459229	3.543099
339.746796	1101.835083	4853.156250	1234.242554	3.529622
340.113953	1098.862915	4780.636719	1238.477905	3.792058
340.481018	1095.965088	4754.185059	1236.843140	3.851000
340.848114	1085.562744	4754.185547	1227.406616	3.866406
341.215118	1091.952759	4801.441895	1229.264282	3.701629
341.582153	1090.689697	4944.994629	1236.174316	3.774601
341.949066	1094.924927	5140.485352	1245.685181	3.726560
342.316010	1088.832153	5407.900879	1249.103027	3.710774
342.682922	1088.460693	5659.861328	1263.071899	3.819644
343.049835	1086.454468	5974.458496	1281.573242	3.991788
343.416656	1090.615356	6264.313965	1298.365723	4.015510
343.783478	1094.479126	6510.775879	1297.771240	3.753341
344.150269	1098.342773	6633.970215	1303.344116	3.703308
344.516998	1101.983521	6636.273438	1299.331665	3.565916
344.883728	1101.537720	6520.063965	1298.068481	3.627015
345.250427	1102.503906	6415.222656	1286.328613	3.460087
345.617065	1102.280884	6261.416016	1283.133667	3.505486
345.983704	1102.578125	6164.153809	1278.972778	3.484975
346.350281	1100.051758	6011.907715	1270.130737	3.462621
346.716827	1096.485229	5885.369629	1266.787109	3.556191
347.083405	1096.931030	5774.881348	1261.585938	3.519809
347.449860	1096.411011	5687.353027	1260.619995	3.576804
347.816376	1091.061035	5667.291504	1251.629395	3.508747
348.182770	1087.197388	5656.963379	1251.035034	3.585252
348.549194	1085.562866	5722.201660	1250.440552	3.555974
348.915558	1089.426514	5807.054688	1254.378540	3.496504
349.281921	1091.358398	5920.143066	1259.802612	3.488336
349.648193	1093.810425	5955.882813	1264.112183	3.502658
350.014526	1097.599854	5980.253906	1265.523926	3.439196
350.380737	1099.234497	5983.152344	1269.536255	3.486990
350.746948	1104.955688	6047.943848	1279.492798	3.531004
351.113159	1103.766968	6121.355469	1290.266846	3.716923
351.479309	1102.578125	6195.360840	1292.644531	3.732074
351.845428	1096.188110	6308.673340	1286.551758	3.652071
352.211517	1090.243774	6426.591309	1291.455566	3.770590
352.577576	1087.940308	6570.589355	1292.718750	3.735028
352.943604	1089.426392	6709.461426	1298.142700	3.713790
353.309601	1099.234375	6871.218750	1306.761841	3.595427
353.675537	1106.590332	7049.619141	1313.003418	3.473197
354.041473	1105.029907	7200.974121	1322.068359	3.560374
354.407379	1099.754517	7315.548340	1321.399658	3.565838
354.773254	1087.643188	7426.854004	1328.309692	3.796474
355.139038	1092.993042	7598.716309	1337.003174	3.750700
355.504913	1092.027100	7858.924316	1347.331299	3.772840
355.870636	1104.881348	8157.398438	1351.120728	3.491511
356.236389	1105.698853	8423.848633	1355.133057	3.408432
356.602081	1103.246826	8719.350586	1364.940918	3.436063
356.967804	1088.980591	8899.980469	1373.337280	3.640465
357.333405	1088.757813	9022.133789	1383.293823	3.712619
357.699036	1088.757690	8992.041016	1372.817017	3.594194
358.064606	1095.222168	8955.855469	1375.491821	3.565484
358.430176	1090.689575	8885.119141	1365.238159	3.522369
358.795654	1092.473022	8929.774414	1368.879028	3.526801
359.161163	1096.633911	9116.201172	1378.315430	3.512428
359.526581	1097.599854	9525.609375	1401.423706	3.604930
359.892029	1099.383057	10059.325195	1422.822754	3.609841
360.257416	1090.986938	10667.566406	1438.723633	3.631116
360.622772	1092.695801	11137.605469	1460.271484	3.659323
360.988098	1087.717651	11464.463867	1481.299194	3.792919
361.353394	1096.931030	11528.215820	1485.385742	3.723939
361.718658	1096.856812	11393.729492	1465.918335	3.584210
362.083893	1103.023804	10953.855469	1444.593384	3.467419
362.449097	1101.612183	10366.418945	1426.389282	3.505492
362.814209	1096.485229	9663.068359	1400.234863	3.545750
363.179382	1100.943481	9030.305664	1378.687012	3.502722
363.544434	1097.525513	8561.679688	1359.219727	3.506013
363.909546	1093.810425	8289.062500	1350.600464	3.568882
364.274536	1091.655518	8136.742188	1340.941162	3.538433
364.639587	1090.615356	8002.552246	1335.665649	3.545320
365.004517	1095.816528	7940.435059	1339.306519	3.557393
365.369507	1086.603027	7882.775879	1341.164185	3.745655
365.734344	1085.711426	7875.791504	1339.380859	3.735883
366.099274	1087.346069	7845.625000	1333.362305	3.640220
366.464081	1096.188110	7816.274902	1326.377808	3.425398
366.828918	1098.565796	7744.945313	1325.040405	3.407488
367.193665	1101.983643	7660.833984	1328.086792	3.447298
367.558411	1100.646118	7580.958496	1325.857788	3.475321
367.923126	1105.401489	7498.333496	1327.120850	3.468195
368.287781	1093.587402	7441.194824	1337.300415	3.839447
368.652435	1092.026978	7393.417969	1342.130005	3.969013
369.017059	1090.020874	7421.058594	1341.238403	3.968031
369.381653	1104.955688	7484.810059	1334.402466	3.596426
369.746185	1103.321045	7569.292480	1339.232178	3.648502
370.110687	1099.903198	7657.415527	1342.427124	3.698414
370.475220	1093.364624	7734.021973	1344.433472	3.780783
370.839661	1094.182007	7798.591309	1347.554077	3.779186
371.204041	1100.571899	7838.863281	1346.142456	3.644404
371.568451	1100.200439	7826.008301	1342.352905	3.600348
371.932770	1095.816528	7813.228516	1326.303589	3.431188
372.297150	1097.079712	7776.002441	1325.263306	3.416473
372.661377	1094.776245	7813.748535	1323.925903	3.410487
373.025696	1099.828857	7853.798340	1326.154907	3.351008
373.389862	1093.661743	7908.855957	1329.424316	3.459367
373.754059	1104.435547	7976.917480	1337.449097	3.390530
374.118225	1104.212769	8107.541504	1349.634644	3.504360
374.482361	1112.534546	8292.480469	1360.037109	3.447137
374.846436	1107.482056	8530.174805	1365.238281	3.472543
375.210510	1110.751343	8844.104492	1371.702637	3.374362
375.574524	1103.246826	9182.850586	1377.275269	3.391608
375.938538	1096.708130	9519.368164	1385.374390	3.427258
376.302460	1094.850586	9769.024414	1399.714844	3.514620
376.666412	1100.571899	9927.290039	1400.383423	3.396636
377.030304	1104.361328	9912.428711	1393.770508	3.285728
377.394196	1102.801025	9766.274414	1384.408203	3.250511
377.757996	1095.444946	9501.385742	1382.773804	3.418164
378.121796	1092.027100	9191.097656	1378.315430	3.534830
378.485565	1095.816528	8902.506836	1367.393066	3.478767
378.849304	1093.735962	8699.881836	1354.984497	3.434703
379.212982	1097.971313	8591.176758	1349.560303	3.357562
379.576630	1092.250000	8524.973633	1350.749146	3.477852
379.940277	1091.284058	8519.549805	1361.002808	3.630979
380.303864	1088.386353	8481.878906	1368.507446	3.788752
380.667450	1094.404785	8506.769531	1364.866577	3.648792
381.030945	1095.593628	8493.395508	1353.869751	3.491255
381.394501	1097.302612	8557.147461	1349.263062	3.377556
381.757935	1094.553467	8623.945313	1351.343628	3.410503
382.121399	1097.748413	8730.346680	1356.767700	3.393593
382.484741	1095.444946	8884.598633	1365.535522	3.467521
382.848145	1097.599731	9019.680664	1373.634399	3.484371
383.211487	1100.943481	9148.967773	1375.491821	3.411376
383.574768	1102.875244	9215.320313	1376.086426	3.367803
383.938019	1100.497559	9256.260742	1374.971680	3.365401
384.301270	1098.640015	9308.347656	1380.247437	3.430176
384.664459	1094.776245	9335.838867	1378.315430	3.440566
385.027649	1093.290161	9361.547852	1384.482788	3.521814
385.390778	1091.061157	9439.937500	1387.900513	3.555441
385.753876	1097.674194	9550.648438	1402.092407	3.601315
386.116943	1094.999146	9678.152344	1412.866211	3.703383
386.479980	1098.194214	9734.399414	1416.358398	3.684074
386.842987	1101.909424	9758.399414	1403.058228	3.478879
387.205994	1102.132202	9733.582031	1393.547485	3.376203
387.568909	1098.937134	9707.948242	1393.770508	3.424707
387.931793	1090.764038	9626.437500	1401.052124	3.635191
388.294678	1093.067261	9630.895508	1402.984009	3.629925
388.657471	1091.432617	9628.295898	1401.349243	3.630334
389.020294	1094.107544	9705.421875	1397.039673	3.517838
389.383057	1093.364502	9880.626953	1401.720703	3.509127
389.745819	1094.033325	10093.875977	1406.996216	3.477426
390.108521	1088.683472	10391.607422	1416.655640	3.525474
390.471191	1088.312012	10654.192383	1421.856934	3.486819
390.833801	1090.392456	10923.391602	1425.051880	3.403432
391.196442	1093.884644	11068.282227	1429.509888	3.364867
391.558960	1095.073486	11115.018555	1427.875366	3.321394
391.921509	1094.256226	11048.145508	1431.813477	3.391210
392.284027	1094.479004	10990.932617	1431.218872	3.402632
392.646484	1093.810425	10917.299805	1436.048706	3.483877
393.008911	1093.215942	10909.200195	1430.847290	3.439608
393.371307	1099.160156	10926.140625	1431.962036	3.386614
393.733673	1093.958984	10914.178711	1427.726685	3.398780
394.096008	1088.980713	10832.815430	1434.339844	3.544386
394.458344	1087.568970	10693.647461	1431.367554	3.578969
394.820587	1084.225342	10468.881836	1423.491577	3.615116
395.182831	1083.259399	10242.258789	1408.259399	3.548423
395.545013	1079.692871	9997.357422	1405.361694	3.651952
395.907196	1096.633789	9815.092773	1400.531860	3.485686
396.269287	1101.017700	9690.858398	1400.160278	3.482516
396.631409	1099.011475	9623.762695	1393.398926	3.453326
396.993469	1088.832031	9590.920898	1394.736328	3.597990
397.355530	1090.095093	9610.313477	1393.696167	3.563301
397.717499	1097.451172	9671.911133	1390.946899	3.422906
398.079468	1100.274780	9713.817383	1393.547485	3.404786
398.441376	1101.091919	9720.059570	1388.494995	3.334542
398.803284	1094.924805	9653.929688	1387.826172	3.422143
399.165131	1097.451294	9635.725586	1385.299805	3.371273
399.526978	1099.606079	9596.196289	1388.717896	3.402681
399.888763	1101.760742	9613.434570	1390.649780	3.394033
400.250519	1107.110474	9619.081055	1391.467163	3.340668
400.612244	1103.395386	9662.325195	1397.708496	3.438667
400.973938	1101.314819	9743.539063	1404.247192	3.505259
401.335602	1094.924805	9852.764648	1412.940552	3.631212
401.697205	1095.742310	10023.808594	1417.027344	3.598596
402.058807	1099.531738	10196.042969	1420.519531	3.528691
402.420349	1104.212769	10456.176758	1428.024048	3.462495
402.781860	1107.704956	10700.483398	1437.757690	3.440638
403.143341	1105.253052	10946.350586	1452.320923	3.526719
403.504822	1092.398560	11151.351563	1459.751099	3.651996
403.866241	1092.398560	11320.166992	1474.017456	3.731204
404.227631	1090.615234	11428.797852	1479.812988	3.764663
404.588959	1098.417114	11432.440430	1474.909058	3.643227
404.950287	1094.627686	11360.885742	1465.769897	3.615165
405.311554	1096.856812	11233.902344	1459.751343	3.579885
405.672821	1093.141602	11129.878906	1461.831665	3.673406
406.034027	1097.228271	10988.481445	1456.110352	3.628277
406.395203	1098.342773	10810.897461	1447.119751	3.590991
406.756348	1101.017700	10662.366211	1436.643066	3.510230
407.117493	1097.748413	10589.846680	1430.252930	3.502961
407.478516	1096.336548	10643.865234	1432.482056	3.520760
407.839600	1104.064087	10727.975586	1443.924805	3.531420
408.200592	1103.098145	10892.481445	1462.054688	3.666795
408.561554	1105.401489	11054.387695	1467.850220	3.643072
408.922485	1097.599731	11218.374023	1470.227905	3.681815
409.283417	1094.330322	11320.390625	1455.887573	3.535645
409.644257	1088.757690	11396.625000	1465.398315	3.653914
410.005096	1087.568970	11456.885742	1467.107056	3.660203
410.365906	1095.742310	11445.887695	1482.190552	3.733747
410.726715	1098.491455	11416.835938	1472.531250	3.624998
411.087433	1097.153931	11348.106445	1467.107300	3.608966
411.448120	1094.182007	11287.698242	1455.144531	3.541099
411.808807	1090.615356	11256.937500	1457.150757	3.605388
412.169434	1094.404663	11197.122070	1467.107300	3.689132
412.530029	1094.256226	11255.969727	1477.881226	3.775200
412.890564	1097.079712	11333.320313	1486.425903	3.803606
413.251099	1091.952759	11516.996094	1488.209351	3.801007
413.611572	1089.129272	11703.718750	1492.890259	3.803830
413.972076	1087.643188	11896.534180	1496.011108	3.778074
414.332489	1086.825806	12014.155273	1499.131714	3.773163
414.692871	1092.398560	12220.346680	1504.778687	3.705806
415.053223	1097.748413	12400.531250	1516.518555	3.705018
415.413574	1099.457397	12708.885742	1529.595825	3.705078
415.773834	1101.835083	12958.989258	1546.833984	3.752999
416.134094	1092.175781	13307.765625	1565.186890	3.872192
416.494263	1101.389160	13623.776367	1587.849121	3.884722
416.854462	1102.132202	14003.983398	1611.997437	3.951876
417.214630	1107.630737	14443.260742	1636.294312	3.964294
417.574738	1105.104370	14864.926758	1659.699707	4.030541
417.934784	1094.776367	15388.241211	1690.461060	4.167532
418.294861	1101.537720	15949.523438	1718.027466	4.152009
418.654846	1097.971313	16604.279297	1759.265503	4.264678
419.014832	1102.132202	17247.964844	1789.804077	4.259129
419.374756	1096.336548	17958.226563	1832.007813	4.362923
419.734680	1095.890747	18717.746094	1864.181030	4.359872
420.094543	1094.850464	19323.908203	1893.605103	4.381766
420.454376	1097.599731	19668.375000	1915.004272	4.401564
420.814148	1091.581177	19842.244141	1941.010132	4.530128
421.173920	1092.175537	20025.251953	1967.610352	4.623838
421.533691	1092.621460	20165.462891	1978.681274	4.645662
421.893341	1090.615356	20189.386719	1985.517212	4.685651
422.253021	1088.311890	20089.748047	1987.003296	4.729598
422.612640	1076.349121	20029.859375	1988.712280	4.813690
422.972260	1078.503906	20046.798828	1986.334595	4.786043
423.331757	1080.213013	20174.080078	1994.953735	4.790757
423.691315	1090.243774	20319.490234	2015.461304	4.811512
424.050781	1095.667847	20334.943359	2033.442749	4.874273
424.410248	1093.958862	20154.685547	2030.841919	4.915254
424.769653	1093.215942	19801.376953	2017.467407	4.940365
425.128998	1097.971313	19418.869141	1994.136353	4.891490
425.488373	1103.246826	18899.417969	1973.851685	4.892091
425.847656	1104.955688	18466.158203	1961.220215	4.932057
426.206940	1103.915649	18026.732422	1949.926270	4.999231
426.566193	1102.280884	17623.935547	1939.598267	5.068000
426.925385	1099.160156	17116.298828	1910.471558	5.065270
427.284576	1094.850586	16619.513672	1892.564819	5.138368
427.643677	1092.695801	16267.168945	1882.682495	5.206024
428.002777	1089.797974	16048.347656	1876.515259	5.259315
428.361847	1092.398560	15886.218750	1866.855835	5.235005
428.720856	1096.188110	15677.652344	1853.035645	5.190477
429.079865	1097.079712	15514.929688	1854.373047	5.252471
429.438812	1089.946655	15458.086914	1843.599243	5.245304
429.797760	1084.373901	15457.863281	1843.747925	5.283157
430.156616	1084.076660	15355.104492	1834.905884	5.261214
430.515503	1089.500732	15270.250000	1837.060547	5.271653
430.874268	1091.209717	15250.484375	1840.032593	5.288568
431.233093	1095.073486	15380.217773	1847.165649	5.264855
431.591827	1097.525513	15576.227539	1865.369751	5.303267
431.950562	1100.869141	15736.424805	1872.502808	5.272322
432.309204	1099.531616	15893.203125	1879.115845	5.269714
432.667877	1101.835083	16050.426758	1886.694702	5.250391
433.026459	1100.571899	16112.692383	1894.868042	5.291032
433.385010	1099.977417	16215.825195	1907.276367	5.340745
433.743561	1099.977417	16183.579102	1896.725464	5.282214
434.102051	1098.937134	16257.434570	1900.515015	5.287977
434.460510	1104.807129	16280.989258	1894.050659	5.200541
434.818939	1101.240723	16291.465820	1902.223999	5.273018
435.177338	1096.485229	16290.723633	1898.657227	5.279449
435.535675	1085.265381	16279.502930	1906.384766	5.404150
435.894012	1088.906250	16291.985352	1911.883423	5.413227
436.252289	1096.187988	16449.507813	1921.691406	5.376709
436.610535	1098.714233	16529.531250	1928.081421	5.374746
436.968719	1090.318237	16831.423828	1950.000610	5.461385
437.326935	1086.751587	17082.716797	1954.087402	5.422216
437.685028	1090.243774	17424.955078	1964.712524	5.353439
438.043152	1093.958984	17707.900391	1968.650513	5.264804
438.401215	1091.655518	18043.451172	1995.548218	5.332136
438.759277	1093.215942	18424.548828	2017.096069	5.330693
439.117249	1094.479126	18941.919922	2039.386719	5.294359
439.475250	1101.166382	19407.798828	2050.829346	5.187535
439.833130	1100.571899	19890.095703	2075.052002	5.186295
440.191071	1099.605957	20061.066406	2079.584717	5.168266
440.548889	1092.027100	20177.646484	2076.389404	5.157613
440.906708	1092.101440	20081.572266	2067.398682	5.135990
441.264496	1095.444946	19863.939453	2072.525879	5.205964
441.622223	1102.057983	19529.132813	2069.850830	5.252016
441.979950	1101.166260	19147.587891	2062.717773	5.328211
442.337616	1096.856812	18899.937500	2036.711914	5.279171
442.695251	1092.844360	18686.466797	2033.516724	5.346667
443.052887	1087.494629	18619.148438	2025.120728	5.348189
443.410461	1088.460571	18742.712891	2030.841919	5.337985
443.768005	1086.602905	19002.402344	2041.170044	5.328074
444.125458	1089.352173	19320.119141	2052.166992	5.281263
444.482941	1089.203491	19703.150391	2076.389648	5.303476
444.840393	1090.763794	20246.154297	2095.634033	5.245887
445.197754	1093.215942	20748.142578	2128.327148	5.266421
445.555084	1097.079712	21180.138672	2141.701416	5.201507
445.912415	1093.513062	21388.853516	2156.785156	5.238996
446.269714	1091.581177	21525.349609	2156.116455	5.209687
446.626953	1087.568970	21529.435547	2162.357666	5.257782
446.984161	1094.330444	21406.017578	2151.658203	5.205514
447.341309	1098.268433	21185.636719	2145.268311	5.212230
447.698456	1093.364624	20848.228516	2127.583984	5.235265
448.055542	1098.417114	20558.298828	2119.113525	5.245132
448.412598	1102.578003	20168.136719	2100.240967	5.232802
448.769653	1111.791626	19763.408203	2084.042725	5.212691
449.126617	1105.847290	19260.603516	2059.968750	5.255490
449.483582	1095.890869	18933.224609	2037.306274	5.277781
449.840515	1094.107544	18665.066406	2017.616211	5.255881
450.197388	1090.095337	18510.070313	1998.817505	5.216553
450.554230	1095.370728	18337.912109	1997.480103	5.231882
450.911041	1093.884766	18236.041016	1985.220093	5.199669
451.267822	1103.618286	18283.595703	1993.690796	5.180871
451.624573	1107.110474	18377.738281	1985.294434	5.084841
451.981262	1103.172485	18352.771484	1991.238647	5.148329
452.337921	1100.571899	18149.626953	1981.876465	5.169229
452.694580	1094.627686	17779.302734	1972.068481	5.258962
453.051147	1097.599731	17580.916016	1969.319336	5.288496
453.407715	1091.506958	17202.863281	1957.356812	5.374159
453.764221	1086.231567	17082.195313	1946.285522	5.376694
454.120728	1083.036499	16695.820313	1930.013184	5.424892
454.477142	1079.321411	16660.156250	1923.251587	5.416463
454.833557	1082.887817	16519.054688	1925.257813	5.457119
455.189911	1090.912598	16544.466797	1922.731445	5.382702
455.546265	1101.240601	16613.716797	1927.635376	5.327291
455.902557	1107.853638	16727.548828	1927.561157	5.247910
456.258820	1105.401489	17000.537109	1939.078125	5.244854
456.615051	1102.057983	17298.193359	1938.557983	5.164812
456.971252	1101.389282	17638.648438	1957.208008	5.175094
457.327393	1103.172485	18260.117188	1979.795898	5.109437
457.683502	1101.315063	18984.716797	2012.786499	5.096745
458.039612	1105.550293	20008.236328	2058.482666	5.041254
458.395630	1103.172485	20919.335938	2107.745361	5.069462
458.751648	1101.760620	21744.615234	2156.933594	5.111565
459.107605	1094.924805	22537.427734	2198.914795	5.148606
459.463562	1093.958984	22827.578125	2217.713379	5.170581
459.819458	1104.881470	22709.734375	2227.372803	5.195552
460.175323	1108.299316	22001.703125	2193.639160	5.194653
460.531158	1109.339600	21195.072266	2155.001709	5.205995
460.886932	1102.652344	20366.525391	2104.698975	5.201688
461.242676	1100.274658	19641.181641	2065.169922	5.204143
461.598419	1100.646118	19074.773438	2033.516968	5.190076
461.954102	1104.138306	18463.408203	2011.374634	5.226235
462.309723	1102.280762	17963.427734	1989.603882	5.262531
462.665344	1100.051758	17533.435547	1974.966187	5.324007
463.020905	1094.181885	17391.814453	1957.579224	5.297686
463.376373	1093.884644	17356.744141	1957.505005	5.310384
463.731873	1088.832031	17438.031250	1950.743530	5.271888
464.087341	1086.677368	17475.478516	1964.266602	5.354811
464.442749	1091.729858	17613.015625	1968.873535	5.309174
464.798126	1097.228271	17695.935547	1971.251343	5.265609
465.153503	1101.240601	17879.390625	1963.598022	5.139764
465.508820	1094.702026	18025.542969	1975.040649	5.199615
465.864105	1098.119873	18128.750000	1988.935181	5.230665
466.219330	1096.856689	18324.908203	2013.009399	5.317797
466.574524	1097.673950	18351.955078	2013.975220	5.310574
466.929657	1096.633789	18271.187500	2001.343750	5.267735
467.284790	1095.890747	18086.470703	1980.687622	5.207573
467.639893	1101.909302	17867.576172	1963.672363	5.140047
467.994934	1101.091919	17696.976563	1959.214233	5.170693
468.349945	1101.537964	17484.470703	1955.870605	5.214772
468.704926	1101.314941	17307.480469	1960.180054	5.299619
469.059875	1103.766968	17149.958984	1961.740356	5.346897
469.414764	1099.308716	17071.720703	1951.560913	5.335776
469.769653	1090.764038	17054.111328	1939.672485	5.317860
470.124451	1089.129272	17164.896484	1942.867554	5.310716
470.479248	1095.519287	17214.603516	1947.697266	5.286764
470.834015	1096.559570	17278.205078	1953.938477	5.298466
471.188721	1085.042603	17419.009766	1963.151978	5.375971
471.543365	1083.928101	17700.914063	1983.585327	5.414082
471.898010	1088.386230	17956.142578	1995.027954	5.374999
472.252625	1093.141602	18318.666016	2011.969116	5.334105
472.607178	1092.324341	18591.060547	2012.414917	5.258040
472.961700	1082.887817	18703.630859	2018.433472	5.309343
473.316193	1084.002319	18701.103516	2006.396484	5.235788
473.670654	1084.151001	18628.806641	2008.848511	5.270536
474.025055	1096.485229	18777.189453	2009.517090	5.164001
474.379456	1096.559570	18859.888672	2006.990723	5.125341
474.733795	1098.268433	19033.013672	2022.817017	5.155069
475.088104	1092.026978	19326.138672	2046.148315	5.232618
475.442383	1094.553345	19649.281250	2067.696289	5.244717
475.796570	1095.519165	20015.296875	2068.587891	5.143130
476.150787	1104.584229	20474.337891	2072.822998	4.998715
476.504944	1110.082642	20959.015625	2099.274658	4.983603
476.859070	1112.608887	21324.138672	2118.073242	4.974707
477.213135	1104.881470	21579.962891	2143.113281	5.070709
477.567200	1099.011597	21854.734375	2152.995361	5.078039
477.921173	1095.890747	22179.287109	2178.109863	5.133040
478.275146	1095.370728	22404.275391	2193.862061	5.155081
478.629089	1094.924927	22702.529297	2206.716553	5.145372
478.983002	1092.695801	23126.203125	2232.499268	5.173046
479.336823	1097.154053	23749.156250	2256.647705	5.118725
479.690643	1102.057983	24458.078125	2296.325684	5.113318
480.044403	1101.537842	25380.695313	2337.712158	5.091504
480.398163	1099.234375	26633.365234	2390.467041	5.056889
480.751862	1089.203491	28423.093750	2470.714111	5.054204
481.105499	1088.683472	30837.486328	2580.979248	5.016322
481.459137	1081.996216	34329.417969	2742.439209	4.994201
481.812744	1084.151001	38855.269531	2963.489502	4.975597
482.166290	1085.785645	44224.753906	3239.747314	4.993076
482.519806	1091.135376	49371.261719	3532.648438	5.056973
482.873291	1091.506958	53518.535156	3807.345703	5.180227
483.226715	1091.432617	56087.332031	3994.885498	5.279399
483.580139	1090.541016	56988.699219	4091.702148	5.368980
483.933502	1090.615356	56375.332031	4055.442383	5.362833
484.286804	1086.454468	54467.613281	3922.069092	5.312014
484.640106	1090.764038	51658.968750	3727.469971	5.214158
484.993347	1095.742310	48771.562500	3545.948486	5.139306
485.346558	1102.726685	46579.558594	3416.736328	5.088326
485.699738	1094.256226	45657.761719	3362.346924	5.089570
486.052887	1095.519409	45992.199219	3366.136475	5.057428
486.405975	1092.473022	47112.906250	3422.680908	5.063420
486.759064	1102.652466	48293.277344	3482.271484	5.042568
487.112061	1099.903320	48829.144531	3510.060791	5.049645
487.464996	1094.999268	48370.253906	3491.039063	5.068275
487.817963	1087.717407	47058.292969	3431.076904	5.097520
488.170868	1089.203613	45012.589844	3329.653564	5.100813
488.523743	1095.370728	42717.675781	3211.735107	5.084688
488.876587	1096.336548	40653.769531	3110.609375	5.092021
489.229401	1094.404663	39429.406250	3054.956299	5.114260
489.582153	1090.392334	39283.480469	3038.089844	5.099607
489.934845	1097.153931	40039.730469	3066.622070	5.057364
490.287537	1095.816406	41367.222656	3130.893799	5.053405
490.640198	1097.302612	42715.964844	3192.565186	5.034431
490.992798	1089.055054	43414.113281	3215.747314	5.024665
491.345337	1093.215942	43099.515625	3199.103516	5.013266
491.697876	1096.188110	41725.214844	3153.555908	5.063787
492.050354	1098.417114	39564.121094	3053.990479	5.083940
492.402832	1094.776367	36815.214844	2928.641846	5.133939
492.755219	1092.175659	33912.578125	2783.156982	5.152226
493.107605	1089.277954	31300.318359	2669.993896	5.232246
493.459930	1094.033203	29328.177734	2561.140381	5.196216
493.812225	1098.937256	27939.978516	2484.311279	5.161402
494.164490	1099.828735	27100.505859	2420.559814	5.079603
494.516724	1097.748413	26675.718750	2397.451660	5.081338
494.868896	1097.748413	26604.314453	2390.615723	5.068763
495.221039	1103.989868	26842.156250	2398.714844	5.030370
495.573120	1100.497559	27148.431641	2405.996338	5.011909
495.925201	1095.667969	27486.953125	2421.302734	5.023002
496.277222	1097.599731	27654.953125	2432.076416	5.024886
496.629211	1101.909302	27662.162109	2443.221924	5.050075
496.981140	1104.732788	27512.142578	2427.172607	5.007836
497.333069	1102.726685	27241.677734	2418.256104	5.032832
497.684967	1098.342773	26880.865234	2392.918945	5.021138
498.036804	1097.451172	26380.509766	2367.135986	5.021880
498.388580	1094.850586	25849.693359	2339.718506	5.028785
498.740326	1095.742310	25331.132813	2311.928955	5.018226
499.092072	1093.810425	24788.576172	2294.839355	5.068752
499.443756	1094.033325	24317.718750	2268.759277	5.058310
499.795410	1091.061157	23897.462891	2257.465088	5.114370
500.147003	1093.141724	23591.632813	2241.713135	5.105104
500.498566	1089.946655	23283.130859	2237.477783	5.170647
500.850098	1098.417114	23050.486328	2218.976318	5.104572
501.201599	1093.661743	22868.000000	2211.026123	5.131566
501.553009	1093.290161	22776.310547	2200.326416	5.105545
501.904449	1086.677368	22781.509766	2199.954834	5.131533
502.255859	1089.649414	22898.242188	2215.855713	5.164048
502.607178	1096.633911	23079.615234	2221.280029	5.115985
502.958405	1103.246704	23157.037109	2226.183838	5.091810
503.309692	1103.395386	23168.333984	2210.208984	5.016164
503.660919	1096.113647	23194.187500	2219.719482	5.084632
504.012115	1090.169434	23222.572266	2224.549072	5.125425
504.363251	1088.311890	23236.986328	2227.447021	5.143130
504.714294	1087.717651	23094.771484	2213.701172	5.116466
505.065369	1087.271729	22971.056641	2198.617432	5.078398
505.416443	1091.432617	22817.474609	2193.862061	5.074230
505.767395	1094.702026	22792.656250	2194.976807	5.070868
506.118317	1100.051758	22773.265625	2192.896240	5.042374
506.469238	1102.206543	22950.328125	2189.255371	4.975480
506.820160	1097.302612	23101.312500	2193.490479	4.981764
507.170929	1097.822632	23366.052734	2215.558594	5.019420
507.521729	1095.370728	23612.662109	2231.830811	5.047055
507.872498	1104.584351	23930.750000	2245.279541	4.997314
508.223236	1105.178589	24242.226563	2248.548828	4.941729
508.573883	1098.714355	24503.625000	2262.220459	4.971205
508.924500	1098.342773	24754.767578	2275.297852	4.975203
509.275116	1094.181763	24937.328125	2293.279053	5.029107
509.625702	1102.355103	25159.865234	2320.473877	5.063362
509.976196	1098.640015	25353.203125	2330.356201	5.078287
510.326660	1100.274780	25572.841797	2336.968994	5.053390
510.677124	1095.147827	25699.380859	2336.077393	5.043561
511.027557	1099.903198	25867.898438	2338.975342	5.002715
511.377869	1099.383057	25998.744141	2345.216797	5.003477
511.728180	1104.286987	26056.255859	2351.606689	4.998883
512.078430	1105.773071	25968.802734	2357.253906	5.033501
512.428650	1099.011597	25836.765625	2355.916260	5.080917
512.778931	1096.782593	25676.421875	2345.216797	5.079140
513.129028	1092.918823	25547.357422	2337.043213	5.087520
513.479126	1095.519287	25386.937500	2323.817627	5.056511
513.829285	1097.525513	25246.205078	2308.808350	5.015938
514.179382	1096.708130	25164.697266	2296.474365	4.984904
514.529297	1098.491333	25138.914063	2295.285400	4.978257
514.879272	1098.714355	25286.404297	2311.780518	5.015221
515.229187	1093.587402	25407.814453	2322.628662	5.054823
515.579163	1090.763916	25851.625000	2339.124023	5.041667
515.928955	1084.373901	26409.935547	2350.789795	5.000544
516.278748	1090.466797	27239.599609	2385.043213	4.950743
516.628540	1097.896973	28127.443359	2425.315186	4.910989
516.978333	1101.314941	29119.906250	2481.041992	4.924327
517.327942	1106.887695	30089.703125	2527.555664	4.901760
517.677612	1103.766968	30824.927734	2576.298340	4.954488
518.027222	1106.070313	31257.369141	2596.360107	4.942705
518.376831	1092.695801	31336.353516	2615.233154	5.034237
518.726379	1096.633911	31067.453125	2596.062744	5.002963
519.075867	1096.188110	30554.244141	2568.570801	4.998234
519.425293	1103.395386	29845.396484	2517.970703	4.921631
519.774658	1101.909424	29125.773438	2486.912109	4.942226
520.124084	1096.708252	28405.853516	2451.915283	4.962466
520.473389	1096.113770	27829.265625	2437.500732	5.017691
520.822693	1095.593628	27409.380859	2420.634033	5.035537
521.171997	1100.497681	27148.056641	2412.980713	5.038795
521.521240	1099.160156	27108.455078	2401.463867	5.007071
521.870361	1093.884644	27228.828125	2401.612549	5.003753
522.219482	1101.314941	27559.771484	2412.906494	4.957173
522.568604	1106.218872	27933.587891	2435.865967	4.956308
522.917664	1103.172363	28476.888672	2452.435547	4.929046
523.266724	1097.896851	29115.744141	2483.717041	4.946205
523.615662	1097.971313	30087.625000	2527.407227	4.930849
523.964600	1098.194214	31281.220703	2590.193115	4.943172
524.313538	1096.485229	32691.712891	2659.963135	4.948462
524.662354	1084.151001	34115.648438	2725.349609	4.968587
525.011169	1091.655518	35530.003906	2798.166260	4.955263
525.359985	1088.014648	36925.925781	2868.382080	4.967833
525.708740	1100.497681	38434.496094	2942.164795	4.932949
526.057434	1103.098267	40234.105469	3013.718018	4.882623
526.406067	1104.807251	42496.105469	3115.661377	4.858157
526.754700	1102.132324	45463.089844	3260.329102	4.865082
527.103333	1106.293335	48861.917969	3435.906250	4.878196
527.451782	1106.739136	52316.699219	3639.198486	4.945248
527.800293	1106.070313	54722.171875	3804.076172	5.032082
528.148743	1094.701904	55936.421875	3908.620361	5.130981
528.497131	1091.655640	55761.218750	3922.886719	5.178807
528.845642	1093.067383	54516.871094	3854.676514	5.169248
529.193909	1098.788696	52086.875000	3721.823242	5.144407
529.542175	1105.921753	48711.082031	3521.725830	5.074669
529.890503	1099.977417	44999.878906	3314.644287	5.044811
530.238770	1100.943359	41742.894531	3130.299072	4.993253
530.586914	1096.708130	39461.953125	3005.024658	4.974076
530.934998	1100.943481	38289.382813	2945.656982	4.960449
531.283142	1097.302612	38263.972656	2930.053467	4.931168
531.631226	1097.079712	39093.261719	2966.536377	4.920117
531.979248	1096.931152	40498.625000	3022.114502	4.886042
532.327148	1098.417114	41926.199219	3096.194580	4.893182
532.675110	1098.937256	42876.234375	3142.559326	4.891705
533.023071	1093.884644	42967.035156	3149.097900	4.908189
533.370850	1086.825928	42122.210938	3111.277588	4.933429
533.718689	1078.355347	40713.433594	3061.569336	5.003684
534.066467	1078.875488	39018.734375	2985.780518	5.026126
534.414246	1077.463745	37389.503906	2908.505859	5.042521
534.761963	1085.116943	36089.800781	2826.178467	4.973796
535.109619	1084.745483	35383.105469	2788.135498	4.966389
535.457153	1085.265503	35128.992188	2777.807373	4.971670
535.804749	1076.572144	35165.843750	2767.553467	4.960450
536.152344	1078.578247	35064.496094	2765.621826	4.963949
536.499817	1085.116943	34697.441406	2745.114258	4.938657
536.847229	1089.872314	33948.019531	2724.160889	4.973770
537.194641	1096.113770	32998.359375	2674.823975	4.948586
537.542114	1094.033325	32005.822266	2628.904785	4.965327
537.889404	1100.423218	31272.009766	2591.381836	4.941598
538.236694	1095.296387	30906.884766	2565.970215	4.933229
538.583984	1096.856689	31179.576172	2564.260986	4.877898
538.931213	1094.107544	32103.603516	2604.533203	4.870849
539.278381	1091.878418	33799.785156	2681.362305	4.859632
539.625488	1088.757813	35972.699219	2795.417236	4.892393
539.972595	1084.745483	38663.574219	2915.712891	4.872338
540.319641	1090.466797	41258.964844	3049.309326	4.876564
540.666687	1096.411011	43299.019531	3147.017578	4.858956
541.013611	1106.293213	44414.750000	3214.335938	4.867508
541.360596	1099.977539	44526.652344	3221.096924	4.884370
541.707458	1098.788696	43710.207031	3188.849854	4.904932
542.054260	1092.844360	42126.074219	3116.924561	4.932783
542.401062	1098.045532	40193.984375	3029.173096	4.939458
542.747864	1102.132202	38107.410156	2923.885986	4.922957
543.094666	1101.686401	36044.769531	2832.270752	4.952581
543.441284	1101.760620	34066.980469	2744.296875	4.982634
543.787903	1098.268433	32483.070313	2686.860596	5.061660
544.134460	1093.884644	31206.546875	2601.041016	5.005059
544.481079	1090.912598	30274.046875	2552.000977	5.006619
544.827637	1092.547241	29620.705078	2500.583740	4.935603
545.174072	1100.274780	29216.421875	2496.497314	4.965910
545.520508	1102.355103	29100.287109	2491.147461	4.960339
545.866943	1099.531616	29059.345703	2502.738525	5.018656
546.213318	1094.850464	28973.007813	2503.481445	5.052812
546.559631	1091.135376	28657.593750	2485.128906	5.056847
546.905823	1091.135376	28162.367188	2464.769775	5.074148
547.252136	1091.135376	27387.912109	2414.466797	5.032295
547.598389	1089.426392	26424.351563	2363.643799	5.029490
547.944458	1091.804077	25337.226563	2303.161377	4.996231
548.290588	1092.175659	24282.873047	2264.226807	5.053971
548.636658	1099.160156	23331.724609	2212.511963	5.007752
548.982727	1094.850586	22545.898438	2175.286377	5.036751
549.328735	1096.782471	21954.968750	2138.358154	4.993607
549.674622	1088.906372	21492.730469	2126.098145	5.083321
550.020569	1086.305786	21197.005859	2113.838135	5.109382
550.366455	1083.928101	21033.541016	2107.893799	5.132760
550.712280	1086.380249	21021.205078	2092.141602	5.045248
551.058044	1091.358398	21109.179688	2088.723633	4.982387
551.403748	1098.194214	21242.330078	2095.039307	4.948562
551.749512	1096.633789	21450.228516	2114.135498	4.999125
552.095154	1100.943359	21585.533203	2124.017578	4.994360
552.440735	1096.113770	21657.236328	2124.760742	5.002873
552.786316	1103.766968	21591.775391	2118.519287	4.952909
553.131897	1102.057983	21400.669922	2104.996094	4.940920
553.477417	1097.896973	21070.617188	2088.278076	4.958669
553.822815	1097.005371	20650.955078	2071.634277	4.984307
554.168213	1089.797974	20296.234375	2052.464111	5.012206
554.513672	1097.154053	19977.177734	2037.380493	4.980007
554.859009	1096.782593	19713.107422	2025.269165	4.987486
555.204285	1102.875366	19445.394531	2017.913208	4.988616
555.549500	1098.119995	19243.216797	2006.767944	5.007678
555.894714	1089.872437	19078.931641	1998.743164	5.052353
556.239990	1088.460571	18981.818359	1989.232422	5.034113
556.585022	1091.878418	18875.935547	1988.712280	5.042910
556.930115	1099.828979	18747.914063	1983.882690	5.009346
557.275146	1100.720459	18567.505859	1975.189087	5.006466
557.620178	1097.599731	18494.837891	1971.696899	5.024344
557.965149	1097.005371	18404.337891	1965.158203	5.016098
558.310059	1094.107544	18354.775391	1962.706421	5.032244
558.654968	1099.308716	18227.646484	1958.396606	5.015594
558.999756	1098.119995	18222.148438	1960.625977	5.036817
559.344604	1099.382935	18247.187500	1960.551758	5.022036
559.689331	1099.605957	18349.947266	1962.483521	5.002090
560.033997	1096.485229	18430.271484	1959.065796	4.976296
560.378723	1095.593628	18575.607422	1961.146118	4.951669
560.723389	1091.581177	18654.740234	1962.334839	4.957842
561.067932	1094.479126	18695.009766	1969.245117	4.970111
561.412476	1090.689697	18653.400391	1972.885864	5.023121
561.757019	1089.872314	18604.658203	1968.650757	5.017352
562.101501	1087.420288	18569.068359	1958.396851	4.982234
562.445862	1090.986816	18477.228516	1952.452637	4.954871
562.790222	1097.525513	18422.988281	1948.068848	4.909210
563.134644	1098.640015	18391.037109	1947.028687	4.906137
563.478943	1095.147827	18512.746094	1953.195679	4.926327
563.823181	1089.426392	18622.935547	1955.276001	4.938256
564.167358	1092.844360	18837.001953	1970.359497	4.945375
564.511536	1094.850586	19102.708984	1984.922852	4.942688
564.855774	1091.729858	19474.000000	2008.699707	4.988338
565.199768	1093.438843	19908.894531	2025.789429	4.955238
565.543823	1100.051758	20231.666016	2034.854370	4.886167
565.887817	1102.355225	20454.275391	2046.519897	4.878920
566.231812	1102.280884	20408.134766	2057.665283	4.948678
566.575745	1095.073486	20241.841797	2057.813721	5.028213
566.919617	1095.816528	20016.408203	2042.358887	5.002710
567.263428	1088.014771	19770.021484	2021.108276	4.994611
567.607239	1092.324219	19580.404297	2003.498535	4.928442
567.950989	1094.107422	19346.941406	1989.083862	4.903219
568.294678	1092.918701	19235.933594	1977.566895	4.875971
568.638367	1094.181763	19148.923828	1976.155273	4.884996
568.981995	1093.884644	19139.935547	1987.077759	4.949521
569.325623	1099.828979	19181.619141	1998.594604	4.970556
569.669128	1101.240601	19251.687500	1998.297485	4.942340
570.012573	1101.760620	19433.728516	1997.331665	4.885297
570.356140	1103.989868	19699.583984	1997.034302	4.802452
570.699524	1101.612183	20001.996094	2019.845337	4.858278
571.042908	1095.296509	20385.544922	2043.622070	4.916088
571.386230	1094.776245	20591.810547	2058.036865	4.940549
571.729492	1093.513062	20748.513672	2067.918945	4.957547
572.072815	1098.714355	20695.982422	2066.358643	4.937649
572.416016	1091.729858	20591.216797	2069.256592	5.013090
572.759094	1090.318115	20412.666016	2050.978271	4.971757
573.102234	1089.054932	20212.048828	2056.402100	5.058555
573.445374	1097.005371	20041.896484	2049.343506	5.026886
573.788391	1100.943481	19890.318359	2044.662231	5.022619
574.131409	1100.943481	19802.121094	2021.331055	4.921549
574.474365	1099.085815	19683.384766	2016.650024	4.937309
574.817261	1099.680298	19566.283203	2015.164063	4.957510
575.160156	1103.024048	19374.880859	2008.551147	4.955857
575.502930	1101.686523	19101.150391	1995.696655	4.966871
575.845703	1099.085815	18770.947266	1980.167480	4.985789
576.188477	1102.800903	18408.275391	1967.164429	4.994740
576.531250	1103.692627	18068.193359	1949.108887	4.983443
576.873901	1103.766968	17702.548828	1933.802612	5.000582
577.216431	1097.376831	17353.697266	1910.248657	5.000343
577.559082	1097.005371	17020.896484	1900.663696	5.046872
577.901611	1099.605835	16699.759766	1884.391235	5.030626
578.244080	1104.881348	16332.778320	1868.341797	5.013565
578.586487	1105.773071	16094.637695	1852.515259	4.981980
578.928955	1130.144409	15854.046875	1865.518188	4.994422
579.271301	1124.869019	15694.442383	1859.128296	5.039676
579.613647	1125.166138	15434.086914	1843.599121	5.020875
579.955872	1095.742310	15248.106445	1813.209351	5.069592
580.298157	1097.228394	15108.492188	1807.413696	5.068674
580.640320	1098.491333	15042.585938	1806.150757	5.074976
580.982483	1103.246948	15014.276367	1804.961792	5.044306
581.324524	1100.274780	14965.309570	1808.379883	5.107128
581.666626	1091.655640	14913.522461	1805.630493	5.165545
582.008728	1087.494629	14830.453125	1791.810181	5.124919
582.350647	1089.129272	14745.895508	1775.612183	5.026687
582.692566	1095.816528	14633.995117	1764.986816	4.942838
583.034424	1097.228394	14553.004883	1766.398438	4.973106
583.376343	1091.581299	14489.179688	1761.866089	5.003022
583.718201	1093.735962	14456.782227	1766.101440	5.031528
584.059937	1093.661743	14384.932617	1763.575195	5.040251
584.401611	1102.132202	14312.041992	1754.584473	4.939112
584.743347	1104.435669	14292.426758	1748.268677	4.881964
585.085022	1112.311768	14294.655273	1746.188110	4.808526
585.426514	1109.859741	14270.135742	1751.463745	4.875308
585.768127	1110.751343	14238.333008	1749.903320	4.868772
586.109619	1103.023926	14206.382813	1748.565918	4.926538
586.451172	1102.726563	14244.649414	1758.002319	4.986148
586.792542	1090.838257	14297.551758	1756.962280	5.043828
587.133850	1089.797974	14370.071289	1759.414063	5.042186
587.475220	1093.438843	14419.409180	1765.284180	5.041624
587.816589	1099.680298	14482.492188	1772.491577	5.027429
588.157776	1098.268555	14610.218750	1786.163086	5.091009
588.498962	1093.438843	14747.456055	1789.209473	5.095721
588.840210	1095.667969	14847.020508	1792.033081	5.063975
589.181335	1093.884644	14908.766602	1790.175415	5.040150
589.522400	1092.175659	14924.147461	1795.005249	5.081196
589.863403	1094.850708	14928.902344	1796.416992	5.071300
590.204407	1092.473022	14825.993164	1788.986694	5.071632
590.545410	1097.748413	14750.129883	1785.420288	5.037010
590.886353	1092.918579	14579.754883	1778.955688	5.086717
591.227112	1099.457275	14452.176758	1778.807129	5.087727
591.567932	1095.890747	14297.999023	1767.810181	5.089486
591.908752	1096.782593	14231.719727	1769.964966	5.125128
592.249512	1096.411011	14240.635742	1762.311890	5.066110
592.590149	1097.897095	14273.031250	1761.791870	5.038998
592.930786	1096.262329	14354.541992	1767.364624	5.061760
593.271423	1096.113770	14479.817383	1770.262329	5.037086
593.612000	1096.336548	14699.828125	1779.698853	5.023433
593.952576	1097.673950	14926.153320	1778.807129	4.925582
594.292969	1090.243774	15122.833008	1807.265259	5.109688
594.633484	1089.500854	15282.583008	1820.193726	5.148232
594.973877	1094.256226	15493.083008	1823.017212	5.061253
595.314209	1097.153931	15791.557617	1807.636597	4.835056
595.654480	1096.336548	16147.541992	1816.775879	4.786589
595.994812	1092.844360	16537.185547	1837.803589	4.823509
596.335022	1103.692627	16819.164063	1864.552612	4.841471
596.675171	1107.927856	16944.068359	1871.834351	4.823817
597.015320	1107.704956	16854.310547	1869.828125	4.839921
597.355408	1101.686523	16523.812500	1859.648438	4.914769
597.695496	1107.853516	16058.825195	1841.369995	4.906146
598.035461	1108.447998	15468.416992	1813.209106	4.907818
598.375366	1107.333496	14925.633789	1786.386108	4.914154
598.715271	1099.531738	14487.620117	1759.414063	4.928876
599.055176	1098.268555	14133.120117	1745.222290	4.963261
599.395081	1100.497681	13910.583008	1728.652832	4.903599
599.734802	1101.389160	13730.324219	1714.535156	4.855089
600.074524	1100.348999	13664.417969	1705.693237	4.818058
600.414246	1103.915405	13627.489258	1705.841797	4.806347
600.753906	1107.407837	13641.309570	1709.557007	4.804164
601.093506	1110.379883	13690.648438	1720.925171	4.853198
601.433044	1111.345825	13843.191406	1733.333984	4.885294
601.772583	1105.327271	14056.588867	1749.086060	4.970626
602.112122	1102.875366	14370.071289	1768.033203	5.013552
602.451538	1103.321167	14752.507813	1781.630737	4.969597
602.790894	1103.915527	15182.573242	1799.760376	4.942551
603.130310	1105.475952	15654.394531	1806.670532	4.819565
603.469604	1101.389160	16085.721680	1828.664185	4.853570
603.808838	1093.438843	16479.523438	1838.472290	4.842255
604.148010	1088.312012	16760.537109	1856.453491	4.901292
604.487305	1091.358398	16810.767578	1861.208984	4.897452
604.826416	1100.051758	16683.412109	1860.317383	4.878701
605.165527	1104.807129	16319.700195	1844.565063	4.862065
605.504456	1100.348999	15865.488281	1818.559082	4.864228
605.843445	1096.856812	15312.082031	1799.686035	4.944201
606.182434	1089.055054	14847.317383	1781.259155	5.031188
606.521423	1093.438843	14474.094727	1764.541016	5.015465
606.860229	1101.909302	14179.633789	1749.680542	4.953241
607.199036	1109.859741	13963.262695	1749.457642	4.976098
607.537903	1110.305542	13871.128906	1746.485474	4.985415
607.876648	1106.516235	13961.333008	1745.148071	4.968035
608.215271	1105.475952	14159.870117	1742.250122	4.877853
608.553955	1095.593628	14439.471680	1755.847656	4.947992
608.892578	1097.822632	14644.992188	1761.494629	4.898972
609.231140	1097.896973	14788.768555	1765.135376	4.873601
609.569641	1102.800903	14782.600586	1771.599731	4.888952
609.908081	1095.593628	14712.011719	1779.698730	5.024119
610.246521	1091.506958	14475.729492	1778.807007	5.135151
610.584961	1083.779541	14127.398438	1755.550293	5.150187
610.923340	1085.562866	13695.773438	1735.934570	5.157501
611.261597	1092.918823	13281.165039	1714.460938	5.099521
611.599854	1102.132324	12930.531250	1690.609863	4.975124
611.938110	1111.568726	12644.688477	1675.600586	4.890540
612.276245	1115.878296	12417.471680	1668.244751	4.887509
612.614319	1110.454224	12226.512695	1660.665894	4.949701
612.952393	1102.875366	12045.882813	1645.730957	4.960753
613.290466	1095.667969	11893.264648	1629.532837	4.944293
613.628479	1095.816528	11720.809570	1637.037598	5.093849
613.966370	1099.457397	11625.627930	1646.845337	5.200257
614.304260	1094.330444	11538.024414	1648.703125	5.308205
614.642151	1090.689697	11502.953125	1633.991089	5.217899
614.979980	1089.277954	11460.749023	1625.669312	5.171796
615.317749	1088.832153	11409.331055	1615.192505	5.100144
615.655396	1099.680298	11372.403320	1615.341187	5.019710
615.993164	1092.547241	11329.604492	1610.437134	5.058972
616.330811	1096.410889	11322.917969	1611.997437	5.041668
616.668396	1094.479004	11305.752930	1610.734375	5.055739
617.005859	1106.739136	11305.159180	1613.186401	4.965939
617.343445	1109.190918	11301.592773	1621.211060	5.023547
617.680908	1108.596558	11319.871094	1619.725098	5.005531
618.018311	1100.125977	11303.375000	1614.449585	5.040782
618.355652	1096.856689	11287.622070	1609.099731	5.026541
618.692993	1104.361450	11223.351563	1609.619751	4.993169
619.030273	1106.887695	11143.179688	1602.709595	4.940289
619.367554	1109.636841	11068.282227	1596.542603	4.889277
619.704712	1100.720581	10991.825195	1595.650879	5.003792
620.041870	1097.376831	10984.691406	1607.762207	5.162022
620.379028	1104.212769	10947.911133	1601.966675	5.056574
620.716064	1099.903198	10946.872070	1597.211304	5.050367
621.053040	1102.355103	10937.508789	1575.589233	4.811660
621.389954	1089.426514	10930.301758	1578.041138	4.965154
621.726929	1087.643188	10936.468750	1572.468384	4.922670
622.063843	1083.408081	10931.862305	1586.586060	5.109208
622.400635	1081.996216	10914.698242	1584.431152	5.109836
622.737427	1080.881714	10909.793945	1587.626343	5.155653
623.074219	1088.237671	10922.425781	1592.901733	5.131731
623.410889	1093.958984	10971.911133	1605.755981	5.181205
623.747559	1097.748413	11029.049805	1610.362915	5.161604
624.084167	1097.376831	11099.786133	1606.201782	5.087024
624.420715	1098.417114	11204.182617	1604.715820	5.009998
624.757324	1105.550171	11355.387695	1617.495972	4.994672
625.093750	1104.732788	11539.508789	1623.886108	4.975222
625.430176	1103.692505	11734.925781	1632.728027	4.976238
625.766602	1093.290161	11926.776367	1633.545410	4.986901
626.102905	1087.048828	12134.898438	1646.771362	5.066348
626.439209	1084.225220	12282.090820	1649.743530	5.050233
626.775452	1094.627808	12395.551758	1655.167358	4.960122
627.111694	1099.531616	12341.831055	1644.690796	4.849178
627.447876	1101.909302	12233.719727	1643.724731	4.867271
627.783997	1101.240601	12034.440430	1639.192383	4.920351
628.120056	1097.971313	11903.593750	1636.517578	4.983945
628.456055	1095.222046	11724.077148	1629.161499	5.023489
628.792053	1093.735962	11539.434570	1621.879883	5.056090
629.128052	1096.708130	11351.301758	1624.257446	5.144517
629.463928	1106.367554	11234.348633	1607.242188	4.945454
629.799744	1101.612061	11136.863281	1600.777832	4.974123
630.135559	1103.469727	11043.835938	1572.468384	4.718122
630.471375	1094.627808	10900.432617	1577.446777	4.923808
630.807068	1099.085938	10781.696289	1575.663452	4.921994
631.142700	1095.445068	10692.681641	1585.768555	5.109007
631.478333	1097.377075	10639.183594	1582.573608	5.084955
631.813965	1100.423462	10608.274414	1573.731567	4.978077
632.149475	1100.126221	10542.515625	1567.936035	4.954358
632.484924	1100.126099	10538.875000	1564.220825	4.916909
632.820435	1093.141724	10548.534180	1562.660522	4.965619
633.155884	1090.392456	10615.778320	1570.833862	5.043800
633.491150	1097.079712	10657.908203	1572.839844	4.976140
633.826477	1106.144653	10668.458984	1578.635620	4.941178
634.161804	1105.995972	10616.001953	1569.867798	4.877724
634.497009	1100.423218	10550.689453	1565.781250	4.924285
634.832153	1099.531616	10472.002930	1560.654419	4.919970
635.167297	1100.423218	10370.579102	1556.196289	4.916563
635.502380	1099.531616	10241.145508	1554.858765	4.980818
635.837463	1081.550415	10104.948242	1544.307739	5.128416
636.172424	1078.949707	9990.818359	1537.323242	5.143405
636.507324	1081.847656	9894.522461	1530.487427	5.090847
636.842224	1089.426514	9790.350586	1523.651733	4.990564
637.177124	1087.643188	9679.638672	1523.205933	5.069402
637.511963	1088.832031	9582.599609	1515.106812	5.018677
637.846741	1098.937256	9494.921875	1512.729126	4.928450
638.181396	1106.664795	9418.910156	1510.574219	4.859210
638.516113	1104.212769	9349.363281	1512.506226	4.951922
638.850769	1100.943481	9280.112305	1511.465942	5.019122
639.185303	1104.584351	9184.930664	1509.088257	5.006022
639.519836	1102.057983	9102.975586	1497.645630	4.944279
639.854370	1099.680176	9025.032227	1500.023438	5.051425
640.188843	1096.559448	8976.958008	1494.376343	5.048182
640.523254	1093.661743	8927.991211	1500.469116	5.192625
640.857605	1095.890747	8906.147461	1498.240234	5.151553
641.191895	1098.491333	8874.344727	1492.890259	5.072098
641.526184	1097.599731	8844.996094	1489.100952	5.053326
641.860413	1094.181763	8773.739258	1485.459961	5.095062
642.194580	1084.448242	8730.346680	1487.689087	5.273950
642.528748	1086.231567	8676.106445	1480.630493	5.196383
642.862793	1088.237671	8655.227539	1480.778931	5.187549
643.196838	1094.256226	8628.254883	1476.915039	5.079093
643.530823	1097.005371	8605.592773	1481.893433	5.125972
643.864746	1102.726685	8575.871094	1473.942993	4.967338
644.198669	1106.738892	8566.137695	1475.875000	4.948604
644.532532	1108.670898	8537.010742	1470.896851	4.876271
644.866333	1107.482056	8539.686523	1464.135132	4.798752
645.200073	1106.070435	8537.903320	1462.797729	4.799991
645.533813	1105.550171	8554.250000	1466.364258	4.843987
645.867554	1096.633911	8579.438477	1475.354858	5.061216
646.201172	1096.856812	8585.680664	1464.655273	4.911298
646.534729	1095.147827	8609.977539	1467.553101	4.955605
646.868225	1096.336548	8588.131836	1474.611816	5.049194
647.201782	1096.782349	8586.793945	1487.911987	5.222016
647.535217	1096.039429	8592.886719	1488.432129	5.234103
647.868591	1098.714233	8600.391602	1479.812988	5.080181
648.201965	1092.993042	8567.327148	1481.299194	5.195194
648.535278	1097.748413	8524.528320	1477.063843	5.107401
648.868591	1095.222168	8519.625000	1481.670532	5.205111
649.201782	1099.011475	8510.930664	1469.782227	5.002358
649.534912	1097.599731	8508.182617	1466.884399	4.983207
649.868103	1099.382935	8486.262695	1456.556274	4.835239
650.201172	1098.640015	8522.149414	1463.317749	4.912471
650.534180	1097.599731	8541.097656	1459.156860	4.857355
650.867188	1098.714355	8558.039063	1468.741821	4.960603
651.200134	1104.435669	8522.745117	1472.011230	4.954978
651.533020	1101.240601	8479.352539	1472.308472	5.029307
651.865845	1106.144653	8444.800781	1467.999023	4.930799
652.198608	1103.023926	8456.467773	1468.370483	4.968373
652.531433	1094.330444	8452.900391	1466.438477	5.056798
652.864136	1090.689575	8441.085938	1465.918457	5.104879
653.196777	1143.890503	8430.015625	1569.793579	5.845399
653.529358	1156.447632	8383.352539	1579.898804	5.859371
653.861938	1161.054321	8309.718750	1578.041382	5.833076
654.194519	1107.110596	8189.645996	1459.825562	4.980067
654.526978	1112.385986	8173.967285	1450.909180	4.793872
654.859375	1106.144531	8164.531250	1444.444946	4.792886
655.191833	1103.766968	8179.614746	1449.571777	4.887115
655.524170	1098.045532	8143.355469	1449.348633	4.986340
655.856445	1098.714355	8106.353027	1447.565430	4.978154
656.188660	1108.447998	8083.170410	1445.782227	4.836525
656.520874	1110.454102	8118.463379	1447.193970	4.805072
656.853088	1105.550171	8228.208984	1462.128906	5.006259
657.185181	1095.742188	8346.350586	1466.587280	5.114676
657.517212	1093.958862	8485.371094	1472.382813	5.119779
657.849243	1091.209839	8654.112305	1474.983276	5.074420
658.181274	1086.974487	8875.906250	1489.100708	5.162790
658.513123	1088.683472	9112.856445	1508.345215	5.229969
658.844971	1091.061157	9305.524414	1513.323608	5.140475
659.176819	1095.965210	9440.383789	1516.890015	5.044387
659.508667	1092.547241	9481.175781	1503.664185	4.900884
659.840393	1097.153931	9437.040039	1511.985962	4.974073
660.172058	1100.794800	9325.660156	1498.834473	4.839468
660.503662	1099.680298	9125.192383	1492.815918	4.898573
660.835266	1100.943359	8923.459961	1470.896484	4.729336
661.166931	1097.525513	8694.235352	1469.633423	4.898277
661.498413	1105.401611	8544.739258	1471.491089	4.920995
661.829773	1105.847290	8360.096680	1467.850220	4.990219
662.161194	1101.389282	8206.883789	1461.460327	5.067502
662.492615	1094.999268	8027.220215	1442.735962	5.016238
662.823975	1098.862915	7899.865234	1436.717407	4.967716
663.155212	1097.748413	7767.828613	1428.469727	4.958281
663.486450	1097.079712	7669.080566	1430.921753	5.079762
663.817627	1088.460571	7570.183594	1433.596558	5.324757
664.148743	1088.163208	7497.070313	1426.760742	5.283234
664.479858	1093.067261	7419.275391	1425.423462	5.253640
664.810913	1094.330444	7382.347168	1419.256348	5.167383
665.141907	1101.612061	7347.201660	1419.404907	5.088276
665.472778	1094.850464	7349.207520	1409.151001	5.025305
665.803711	1094.850586	7350.842285	1403.429688	4.932537
666.134583	1088.386230	7354.557129	1407.590820	5.094093
666.465454	1090.392456	7348.167969	1412.643188	5.149605
666.796143	1089.352173	7313.171387	1411.677368	5.178897
667.126831	1096.485229	7332.267090	1409.002441	5.011677
667.457458	1093.141602	7344.229004	1406.030273	5.005348
667.788147	1093.810425	7368.600098	1406.550415	4.984071
668.118774	1090.689575	7371.646973	1411.974609	5.115224
668.449219	1093.067383	7383.089844	1413.460571	5.093673
668.779663	1097.302612	7394.085938	1424.754761	5.200308
669.110107	1094.256226	7381.603516	1421.188110	5.199838
669.440552	1099.828979	7358.123535	1420.667969	5.126620
669.770874	1090.764038	7313.616699	1402.389526	5.007760
670.101135	1096.485229	7279.363281	1397.634155	4.870692
670.431396	1096.188110	7227.276855	1399.194458	4.942130
670.761597	1107.704956	7171.029785	1404.915649	4.901778
671.091797	1109.413818	7112.702637	1399.789063	4.836936
671.421875	1101.389160	7062.250488	1391.987183	4.875101
671.751892	1098.416992	7044.566406	1388.420532	4.877165
672.081909	1098.268555	6991.662598	1394.810669	5.031771
672.411865	1105.327271	6961.792969	1394.216309	4.932822
672.741821	1101.686401	6922.486816	1390.426758	4.960493
673.071716	1098.268555	6935.936035	1384.333984	4.900338
673.401550	1098.491455	6908.221191	1386.265747	4.953317
673.731262	1102.726685	6904.060547	1386.860352	4.897730
674.060974	1101.463501	6857.695801	1382.922241	4.889635
674.390625	1102.206421	6835.181641	1375.937622	4.774680
674.720276	1098.565796	6777.671387	1377.126465	4.905010
675.049927	1094.776245	6748.099121	1374.005859	4.939212
675.379395	1091.061035	6726.179688	1375.194702	5.042195
675.708923	1095.667847	6698.539063	1374.377441	4.974407
676.038330	1099.011353	6678.031250	1369.919312	4.855834
676.367737	1099.457397	6671.046875	1377.646851	4.993000
676.697083	1094.999146	6689.770996	1379.875610	5.091833
677.026428	1099.383179	6699.728027	1386.637329	5.129223
677.355652	1096.113770	6691.332031	1382.848022	5.124630
677.684875	1091.729858	6734.130371	1381.064819	5.127870
678.013977	1089.352173	6804.197266	1392.061523	5.296895
678.343079	1089.946655	6902.500000	1388.643555	5.138824
678.672180	1092.249878	6968.035645	1396.668335	5.180898
679.001221	1085.859985	7058.386719	1388.346313	5.064629
679.330139	1097.228271	7149.333496	1395.702271	4.931738
679.659058	1103.321167	7254.694824	1391.690063	4.687878
679.987976	1104.064087	7332.415527	1404.321411	4.820815
680.316772	1094.776245	7362.285156	1408.259399	5.001719
680.645630	1097.451172	7365.182129	1418.958984	5.129573
680.974304	1105.921753	7315.696777	1414.055054	4.962069
681.302979	1106.441895	7273.493652	1407.516479	4.881986
681.631653	1101.315063	7198.076172	1397.114258	4.851743
681.960266	1100.646362	7151.191406	1399.268921	4.935465
682.288757	1105.104492	7080.009277	1399.714844	4.930796
682.617249	1106.367554	7010.536621	1395.776733	4.901777
682.945679	1101.017700	6899.156250	1384.928345	4.896583
683.274109	1092.993042	6787.404785	1384.705566	5.122786
683.602478	1089.055054	6667.628906	1385.002808	5.305079
683.930725	1092.398682	6558.329590	1389.460938	5.434797
684.259033	1094.850708	6467.234375	1381.436157	5.334419
684.587280	1094.627808	6397.019043	1370.365112	5.200244
684.915344	1093.438843	6339.582520	1355.653198	4.998230
685.243469	1092.695923	6305.328613	1355.801758	5.047465
685.571533	1090.244019	6266.468750	1359.071167	5.193499
685.899536	1085.339844	6246.853027	1354.092773	5.206863
686.227539	1087.420288	6211.410156	1351.194946	5.147837
686.555420	1091.135498	6222.406738	1347.479858	4.995728
686.883301	1102.206543	6249.601563	1351.195068	4.837175
687.211121	1103.023926	6286.826660	1353.424194	4.830436
687.538940	1102.652466	6309.118652	1354.390015	4.835094
687.866638	1101.760864	6304.808594	1354.687256	4.861120
688.194336	1102.949585	6293.292480	1345.845093	4.679759
688.521973	1102.652344	6256.289063	1343.095947	4.665513
688.849609	1094.850586	6207.323730	1347.851318	4.948696
689.177063	1090.986816	6137.479004	1348.817261	5.109102
689.504578	1090.095337	6054.779785	1346.736694	5.169339
689.832031	1084.745483	5982.334473	1336.780151	5.146097
690.159485	1079.544312	5904.911621	1337.151733	5.338608
690.486816	1083.705200	5852.751465	1339.975220	5.373611
690.814087	1086.974487	5790.708496	1344.061890	5.465602
691.141296	1087.271606	5754.597656	1337.448853	5.360183
691.468506	1084.373901	5688.914063	1329.201294	5.317087
691.795715	1083.110840	5639.576660	1324.371704	5.294912
692.122803	1093.438965	5604.208984	1327.641113	5.192066
692.449829	1100.720581	5579.242676	1328.012573	5.075156
692.776855	1105.104370	5543.949219	1331.727661	5.105457
693.103821	1097.525513	5491.119629	1330.464478	5.301786
693.430664	1092.398560	5463.999512	1323.628540	5.289366
693.757568	1096.039429	5454.339844	1314.415039	5.010568
694.084351	1098.862915	5461.695801	1310.848511	4.858898
694.411133	1097.228271	5461.992676	1311.442993	4.907818
694.737854	1102.206665	5455.306152	1306.538940	4.693949
695.064575	1104.584351	5456.643066	1307.207642	4.655803
695.391174	1105.624634	5479.825684	1308.768188	4.644129
695.717773	1098.863037	5515.639160	1316.792725	4.934134
696.044250	1097.376953	5561.335938	1315.306763	4.881985
696.370789	1094.999146	5622.932129	1319.244751	4.952494
696.697205	1093.438843	5721.086426	1323.034302	4.961386
697.023621	1095.816528	5857.208984	1331.281860	4.945304
697.349915	1098.268555	6024.167480	1348.297241	5.075798
697.676208	1097.525513	6213.416504	1357.807983	5.087725
698.002380	1094.404785	6462.255859	1370.959473	5.152056
698.328674	1096.782471	6689.474121	1372.742798	4.934303
698.654724	1094.776245	6881.472168	1382.625000	4.974320
698.980896	1097.897095	6956.145996	1391.987183	5.020102
699.306946	1096.411011	6950.796387	1395.256470	5.104643
699.632935	1100.571899	6856.952637	1384.705566	4.935977
699.958862	1097.971191	6696.012207	1370.885254	4.875171
700.284729	1095.370728	6512.261719	1362.043335	4.922983
700.610596	1090.763916	6306.518066	1355.133057	5.068666
700.936340	1091.135376	6094.309082	1339.529419	4.964729
701.262146	1091.804077	5874.596191	1325.486206	4.885894
701.587830	1094.924805	5696.566406	1312.334717	4.724617
701.913513	1105.104492	5537.855469	1307.653687	4.569379
702.239075	1104.361450	5396.160645	1307.728027	4.738492
702.564697	1103.692627	5275.567871	1309.659790	4.937041
702.890137	1092.993042	5167.531250	1304.161255	5.182630
703.215698	1096.931152	5093.451660	1297.919922	5.029094
703.541016	1106.590454	5015.285156	1291.307007	4.725786
703.866455	1106.739136	4973.006836	1290.786865	4.760346
704.191711	1107.482056	4942.468262	1288.854980	4.729428
704.517029	1103.766846	4918.320313	1285.808594	4.772295
704.842163	1104.509888	4872.549805	1285.808594	4.811486
705.167419	1108.299316	4826.333496	1280.310181	4.626393
705.492493	1098.565796	4800.698730	1287.443237	5.101855
705.817566	1092.770020	4791.262207	1282.910767	5.141034
706.142578	1085.934204	4779.002441	1283.876709	5.359838
706.467590	1092.844360	4771.720215	1277.338135	5.014949
706.792480	1098.045654	4764.884766	1279.715698	4.954404
707.117371	1099.011597	4786.135254	1279.938599	4.906996
707.442200	1094.107544	4804.265137	1284.248169	5.124866
707.766907	1100.125977	4812.587402	1292.124390	5.171728
708.091675	1101.834961	4810.357910	1296.062378	5.237326
708.416321	1111.940308	4811.695801	1295.022217	4.948487
708.741028	1098.714355	4832.723145	1287.369019	5.052336
709.065552	1096.113892	4855.385254	1284.991211	5.024306
709.390137	1083.853882	4857.912109	1278.898438	5.168033
709.714600	1093.661865	4903.756348	1280.681763	4.908537
710.039063	1095.667969	4932.585938	1280.013062	4.804510
710.363403	1099.531738	4993.142578	1287.369019	4.824244
710.687744	1095.965210	5036.535645	1290.712524	4.942110
711.012085	1091.506958	5096.646973	1297.771362	5.149992
711.336304	1095.370728	5122.875488	1300.594849	5.095565
711.660461	1094.404663	5129.562500	1304.904419	5.216642
711.984619	1099.085693	5097.612793	1301.635010	5.065598
712.308716	1092.770020	5048.572754	1298.737183	5.206710
712.632751	1093.067261	4992.846191	1293.536011	5.140516
712.956726	1089.872314	4939.496582	1294.873535	5.325227
713.280701	1094.330444	4913.861816	1295.913696	5.277696
713.604553	1103.098145	4866.605957	1289.449463	4.951533
713.928467	1109.636841	4842.308594	1281.350342	4.600284
714.252258	1109.042480	4806.345703	1279.046997	4.598068
714.575989	1101.315063	4806.048340	1278.006836	4.769352
714.899719	1095.444946	4810.654785	1280.681763	4.985904
715.223267	1096.039551	4829.602051	1274.366089	4.776310
715.546936	1093.513184	4823.583984	1276.000610	4.892332
715.870422	1087.717529	4814.444824	1271.319458	4.926626
716.193970	1082.070679	4813.107422	1272.805542	5.112114
716.517395	1077.463745	4796.166016	1269.462036	5.163046
716.840820	1083.185059	4750.841309	1269.684937	5.084988
717.164124	1086.974487	4680.402344	1271.616821	5.138334
717.487488	1093.884644	4616.501953	1268.421753	4.954757
717.810730	1097.525513	4549.555664	1262.626099	4.782710
718.133972	1098.714233	4455.785645	1253.561157	4.612560
718.457092	1100.274780	4377.841797	1253.932739	4.688171
718.780212	1099.977539	4306.734375	1258.465210	4.942304
719.103210	1102.726807	4268.245605	1260.248535	4.976174
719.426208	1101.760742	4221.509277	1258.836792	5.034894
719.749207	1100.274780	4182.203125	1253.561157	4.973717
720.072083	1099.605957	4137.026855	1251.406372	4.997674
720.394958	1100.051758	4094.674561	1247.765625	4.932637
720.717773	1092.695801	4035.529297	1246.799683	5.236582
721.040527	1092.324341	4008.928955	1248.211426	5.344814
721.363281	1102.800903	3983.963623	1250.440552	5.124308
721.685913	1107.259155	3994.291260	1243.233276	4.709824
722.008545	1099.457397	3970.365967	1240.484009	4.912264
722.331055	1082.739258	3963.752930	1234.539673	5.268993
722.653503	1078.949829	3948.520752	1237.586060	5.528222
722.976013	1081.104614	3952.533203	1230.155884	5.190840
723.298401	1086.825806	3942.205078	1226.589478	4.894750
723.620789	1095.593628	3938.489990	1229.487183	4.709758
723.943115	1100.571899	3916.422119	1226.886597	4.485846
724.265381	1097.674194	3901.635986	1230.453125	4.735404
724.587585	1094.107666	3896.137451	1225.846313	4.701543
724.909790	1092.473022	3915.456055	1232.384888	4.956171
725.231873	1099.977539	3924.744141	1233.796753	4.737355
725.553894	1099.828735	3936.409424	1236.546021	4.819792
725.875916	1134.751099	3979.579346	1280.607422	5.127070
726.197937	1135.048462	3999.417969	1285.808594	5.263292
726.519775	1133.116455	4009.077393	1290.489624	5.472021
726.841675	1098.937256	3989.759033	1246.874023	5.117464
727.163513	1084.671021	4006.699951	1247.096802	5.558665
727.485291	1088.460571	4014.650391	1245.685059	5.373010
727.806946	1090.540894	4029.065186	1252.000854	5.494593
728.128662	1100.200317	4061.089111	1245.090698	4.893476
728.450256	1101.314941	4105.299316	1242.564331	4.702068
728.771790	1107.184814	4126.921875	1237.437500	4.313378
729.093323	1104.212769	4120.011719	1244.942017	4.666400
729.414795	1106.144531	4096.085938	1250.886353	4.840959
729.736145	1097.599731	4078.550781	1250.812012	5.139711
730.057495	1102.726685	4058.042969	1249.697388	4.973095
730.378845	1098.714355	4060.049561	1246.576782	4.993100
730.700134	1093.067383	4066.587891	1253.635498	5.399933
731.021301	1086.974487	4102.030762	1247.914185	5.337867
731.342468	1088.460571	4113.473145	1243.158813	5.113970
731.663574	1089.426514	4134.574707	1238.923584	4.909353
731.984680	1094.181763	4137.472656	1245.536499	4.973390
732.305664	1093.736084	4141.559570	1241.449829	4.846532
732.626648	1098.417114	4160.506836	1238.403442	4.571594
732.947571	1097.674194	4167.342285	1231.270386	4.352138
733.268433	1098.045532	4169.497070	1242.861572	4.714905
733.589233	1100.051758	4144.085449	1247.914185	4.857450
733.909973	1096.931152	4108.048828	1248.062866	5.019124
734.230713	1095.147827	4055.293945	1248.360107	5.175835
734.551331	1091.878540	3985.746826	1249.251587	5.438155
734.871948	1100.943359	3938.044189	1253.784180	5.387218
735.192505	1103.841309	3899.704102	1251.109253	5.267353
735.513062	1104.732788	3855.419678	1234.911255	4.732580
735.833435	1094.033203	3798.726563	1228.372437	4.966893
736.153931	1093.290405	3738.467529	1220.347778	4.803360
736.474304	1093.215942	3703.024658	1221.388184	4.911174
736.794617	1102.875366	3679.173828	1227.629639	4.842384
737.114807	1101.537842	3682.740234	1228.372559	4.913784
737.434998	1104.286987	3690.838867	1232.756470	4.966825
737.755188	1099.308716	3701.761719	1228.001099	4.945041
738.075256	1102.875122	3729.253662	1221.239624	4.506757
738.395325	1101.909424	3747.754883	1222.279663	4.549406
738.715271	1106.664795	3766.033203	1225.697632	4.475981
739.035278	1097.302612	3786.020752	1236.397217	5.173268
739.355164	1094.404907	3783.717529	1238.031860	5.340657
739.675049	1090.986938	3767.891357	1231.939087	5.265491
739.994873	1097.599731	3728.213623	1228.744019	4.985312
740.314636	1096.559570	3699.829834	1221.908325	4.815050
740.634277	1094.033203	3674.120850	1225.103271	5.080063
740.953979	1094.479126	3638.009766	1218.861816	4.890159
741.273499	1099.457397	3598.703857	1224.806030	5.015457
741.593140	1097.302612	3565.936279	1216.707153	4.836867
741.912598	1092.993042	3537.924072	1212.471802	4.886795
742.232117	1097.154053	3505.676758	1216.335571	4.948325
742.551453	1101.166382	3478.036133	1223.097046	5.129884
742.870850	1103.023804	3450.098389	1229.264282	5.378631
743.190063	1093.215820	3434.569092	1217.375854	5.302917
743.509338	1089.277832	3404.327393	1210.465698	5.234785
743.828552	1079.618530	3387.238037	1206.304688	5.489906
744.147705	1088.386230	3366.878906	1214.477905	5.533995
744.466797	1088.534790	3351.126953	1207.864868	5.274043
744.785828	1104.658569	3338.867188	1202.143677	4.363295
745.104858	1093.736084	3316.576172	1193.821777	4.502604
745.423706	1096.782593	3283.363037	1200.806274	4.757368
745.742615	1093.884766	3237.592529	1205.338745	5.199122
746.061401	1099.977539	3222.955078	1211.728760	5.263891
746.380249	1101.983765	3226.595703	1209.722656	5.070992
746.698975	1104.287109	3232.317139	1207.939331	4.870806
747.017639	1097.005493	3223.623779	1199.171631	4.804160
747.336304	1093.587524	3227.858643	1192.781616	4.647680
747.654907	1087.866211	3233.208740	1199.171509	5.188230
747.973389	1104.955811	3238.632813	1205.190063	4.697724
748.291931	1109.933960	3225.406982	1216.038208	5.015627
748.610352	1102.652344	3226.075439	1211.505859	5.126322
748.928711	1098.714233	3244.799805	1208.979492	5.137971
749.247070	1095.444946	3260.477783	1209.648315	5.274903
749.565308	1102.206543	3269.096924	1214.626587	5.188082
749.883545	1101.612183	3249.035156	1217.152832	5.380433
750.201782	1099.977417	3245.617188	1214.403687	5.332968
750.519836	1096.485229	3232.837158	1210.985840	5.359632
750.837952	1089.500854	3226.149658	1205.858887	5.445819
751.155884	1084.819702	3209.505859	1199.171631	5.382062
751.473877	1098.342773	3200.515625	1196.125244	4.651495
751.791809	1092.695801	3201.406982	1192.112793	4.714585
752.109619	1102.429565	3192.193359	1196.942505	4.522662
752.427490	1093.141724	3176.887451	1195.605103	4.917269
752.745300	1102.503784	3179.041992	1202.886841	4.834155
753.062988	1090.838257	3194.571289	1195.382202	4.969450
753.380615	1088.683472	3216.787842	1195.605103	5.024266
753.698303	1087.791748	3218.645264	1185.722778	4.595860
754.015808	1094.553345	3195.908936	1188.769165	4.483573
754.333374	1102.132202	3175.549561	1189.809448	4.228634
754.650757	1107.779297	3151.698486	1190.775269	4.060629
754.968262	1120.262085	3145.531250	1182.899292	3.092784
755.285583	1114.763794	3143.451172	1187.728882	3.596665
755.602905	1109.711304	3143.525391	1188.769165	3.887172
755.920105	1101.835083	3140.776123	1198.800171	4.755659
756.237305	1106.516113	3139.289795	1193.078735	4.258350
756.554443	1105.624390	3128.887695	1205.338745	4.928392
756.871582	1101.909302	3139.141357	1204.967163	5.058720
757.188599	1094.924927	3142.485107	1206.453247	5.446888
757.505615	1096.485229	3180.082031	1197.982788	4.871267
757.822510	1099.977539	3211.958008	1197.536987	4.619335
758.139465	1101.389160	3238.558594	1195.456421	4.401488
758.456238	1097.525513	3245.245850	1203.555420	4.936859
758.773010	1091.655640	3260.106201	1208.087891	5.369375
759.089783	1095.147827	3287.524170	1206.750610	5.090494
759.406433	1091.506958	3314.718750	1199.765991	4.869488
759.723145	1092.621582	3328.910889	1197.165405	4.674879
760.039673	1087.346069	3334.037842	1199.245972	4.980652
760.356201	1087.866089	3334.037354	1206.304688	5.272910
760.672668	1091.135376	3324.229248	1211.431641	5.386978
760.989136	1094.255981	3318.433594	1214.923828	5.425279
761.305481	1109.785400	3320.217041	1207.939331	4.440487
761.621826	1108.819458	3326.978516	1206.750488	4.414968
761.938049	1113.426147	3346.891602	1215.963989	4.590975
762.254333	1106.664673	3387.832764	1221.388184	5.029157
762.570496	1115.209595	3457.677002	1225.326172	4.700880
762.886597	1108.670898	3578.864990	1221.685425	4.575128
763.202637	1101.835083	3775.024170	1232.384888	4.883673
763.518677	1091.729980	4025.052734	1243.158813	5.162365
763.834656	1097.154053	4269.434082	1252.966797	4.911696
764.150574	1101.537842	4401.173340	1263.071899	4.895512
764.466370	1106.441772	4405.631348	1260.397095	4.666459
764.782288	1098.491455	4302.944824	1262.106079	5.105851
765.097961	1098.714355	4172.097656	1252.743896	5.011726
765.413696	1092.770142	4012.272705	1245.016479	5.214804
765.729309	1093.884644	3838.850342	1234.836914	5.134937
766.044861	1087.420288	3674.195313	1225.920532	5.354167
766.360474	1082.442017	3563.929932	1215.741089	5.371740
766.675903	1081.401855	3481.899658	1213.140503	5.487972
766.991394	1083.259277	3409.009033	1206.230347	5.287373
767.306763	1090.986938	3334.112061	1202.440918	4.968692
767.622131	1089.129517	3273.109375	1198.800171	5.021596
767.937378	1100.051880	3214.187256	1195.382202	4.509188
768.252625	1095.073608	3161.209229	1201.400757	5.146184
768.567810	1093.958984	3107.636963	1196.199463	5.077301
768.882996	1088.609253	3077.544189	1199.543091	5.577550
769.197998	1087.197388	3058.300049	1198.725830	5.658175
769.513062	1094.479004	3034.597412	1197.462769	5.308117
769.828064	1093.067261	2995.142578	1193.821777	5.297083
770.142944	1098.194214	2967.873779	1186.168579	4.705318
770.457825	1100.869019	2942.239258	1182.379150	4.426602
770.772705	1100.051758	2919.279541	1176.880737	4.223165
771.087402	1100.943481	2892.233643	1176.360718	4.210219
771.402100	1098.194214	2888.444092	1173.462891	4.204367
771.716736	1096.113770	2883.317139	1174.874634	4.406933
772.031372	1100.348999	2865.187256	1174.726074	4.214385
772.345947	1093.958984	2841.261719	1183.270874	5.111415
772.660461	1091.952759	2828.184326	1181.784790	5.173966
772.974854	1087.048828	2821.125732	1178.812744	5.291802
773.289246	1086.231445	2811.540283	1175.914917	5.198111
773.603638	1088.832031	2796.679932	1170.639404	4.790085
773.917908	1090.169556	2776.395264	1177.549561	5.181987
774.232178	1097.153931	2758.860107	1180.893188	5.039354
774.546265	1097.748413	2744.668213	1181.041748	5.057522
774.860474	1090.615356	2733.820313	1175.543335	5.168435
775.174561	1090.466797	2724.011963	1168.856079	4.798721
775.488586	1096.633789	2712.718018	1173.388550	4.749428
775.802551	1110.305542	2705.659180	1171.753906	3.851708
776.116516	1111.791504	2692.135986	1174.726074	3.982332
776.430359	1108.076538	2690.724609	1171.010864	3.976521
776.744202	1100.794800	2686.786377	1170.565063	4.399157
777.057922	1107.110474	2690.352783	1169.153320	3.918721
777.371704	1100.348999	2681.733643	1177.921021	4.905323
777.685303	1099.828979	2669.473633	1175.394653	4.814190
777.998962	1091.061157	2658.105469	1164.546509	4.689424
778.312500	1096.633789	2648.223389	1162.020264	4.214160
778.626038	1099.457397	2636.112061	1169.004639	4.525886
778.939453	1103.098145	2632.619629	1177.623901	4.872488
779.252869	1106.516113	2640.050049	1180.670166	4.835501
779.566223	1106.813354	2647.554688	1172.868286	4.287218
779.879578	1103.321045	2649.040527	1171.828247	4.432059
780.192749	1094.479004	2641.684570	1166.627075	4.663121
780.505920	1090.838257	2643.616455	1172.868530	5.282807
780.819031	1090.541016	2631.505127	1178.366821	5.699406
781.132141	1103.989868	2620.211182	1179.109741	4.954413
781.445190	1102.726685	2615.307129	1179.852905	5.098983
781.758118	1101.017700	2614.935791	1174.503174	4.853993
782.071045	1090.392456	2606.539551	1166.849976	5.042883
782.383911	1091.581177	2582.242432	1163.357788	4.815085
782.696838	1090.838257	2571.171631	1166.032593	5.079554
783.009583	1096.782471	2549.697754	1168.113159	4.909487
783.322266	1094.256226	2531.864990	1171.605347	5.380401
783.634888	1095.965210	2501.772461	1169.524780	5.232550
783.947510	1094.553345	2492.410400	1169.524780	5.363312
784.260132	1096.411011	2481.785156	1167.221558	5.111294
784.572571	1092.844360	2486.169189	1163.134888	5.044806
784.885010	1089.426514	2473.388916	1163.654907	5.363469
785.197449	1097.674194	2473.834961	1162.168823	4.686562
785.509766	1106.813232	2464.992920	1166.998535	4.431321
785.822083	1106.813232	2470.268311	1161.128540	3.983652
786.134277	1102.800903	2463.506592	1151.617920	3.587625
786.446533	1099.011475	2461.129150	1145.599243	3.420245
786.758606	1099.234375	2456.596436	1146.342407	3.470558
787.070740	1095.742065	2467.296143	1163.357666	4.929853
787.382690	1090.912476	2478.144287	1166.404175	5.441895
787.694641	1088.757690	2501.401123	1170.267944	5.770051
788.006653	1086.008545	2534.540283	1159.568237	5.078224
788.318481	1095.816528	2584.991699	1161.574341	4.415720
788.630310	1100.794800	2642.724854	1163.654907	4.076716
788.942017	1105.698730	2679.504639	1169.450562	4.050807
789.253784	1090.466675	2691.244629	1177.772461	5.453960
789.565430	1085.042603	2673.114746	1185.202759	6.307028
789.877014	1087.717529	2635.368896	1188.174805	6.490950
790.188538	1091.655640	2589.969971	1178.961304	5.826926
790.500061	1098.194214	2546.874268	1178.961304	5.575219
790.811462	1099.085815	2507.345459	1169.450562	4.996575
791.122925	1106.516113	2487.060547	1166.552734	4.348764
791.434204	1096.485229	2463.209717	1157.116211	4.436225
791.745483	1087.494629	2456.150879	1156.596069	5.048853
792.056702	1086.305786	2429.253174	1161.054321	5.566006
792.367920	1098.045532	2402.504150	1160.162720	4.761913
792.678955	1091.655640	2386.900635	1160.237061	5.294861
792.990112	1096.411011	2367.284912	1153.995728	4.531112
793.301086	1087.866089	2353.538818	1160.014160	5.700373
793.612122	1094.181885	2341.055908	1163.209106	5.536022
793.922974	1082.813477	2343.953857	1164.323730	6.463218
794.233826	1091.061157	2370.108154	1154.515747	4.961083
794.544556	1092.101318	2377.389648	1152.955322	4.734658
794.855286	1100.646118	2379.916260	1150.726196	3.914738
795.166016	1094.033325	2377.687256	1159.270996	5.082185
795.476624	1095.519409	2389.501221	1162.688965	5.190919
795.787292	1091.135376	2413.426758	1160.088257	5.214651
796.097778	1093.067383	2449.314941	1156.298950	4.662244
796.408264	1094.182007	2472.423096	1158.305054	4.652528
796.718689	1090.243896	2487.357910	1161.128662	5.073657
797.029053	1087.197388	2487.209229	1167.444458	5.731885
797.339355	1088.088989	2483.270996	1166.181152	5.597274
797.649658	1097.153931	2469.599365	1174.131592	5.608796
797.959839	1099.160156	2441.958740	1167.592896	5.096277
798.270020	1093.661743	2414.987061	1158.379395	4.897935
798.580078	1088.980835	2392.101807	1145.450684	4.333431
798.890137	1088.014771	2361.266357	1144.113281	4.405925
799.200195	1093.141602	2343.804932	1144.484863	4.105282
799.510071	1091.506958	2332.585205	1141.215454	4.005267
799.820007	1091.135376	2337.340576	1145.822266	4.388273
800.129883	1085.414185	2321.291260	1148.868652	5.134367
800.439575	1087.866089	2310.517334	1158.527954	5.779397
800.749329	1083.779419	2290.232666	1151.766479	5.635283
801.058960	1097.674072	2294.839600	1149.091431	4.294925
801.368591	1098.788574	2289.935547	1150.577515	4.347821
801.678162	1107.927856	2289.043945	1151.617798	3.699039
801.987671	1104.361450	2281.093506	1155.556030	4.350573
802.297119	1101.240601	2271.508545	1152.286621	4.361909
802.606506	1097.971313	2256.573486	1152.806763	4.732897
802.915894	1092.844360	2258.654053	1159.048218	5.678788
803.225159	1095.073608	2253.304443	1159.791138	5.587619
803.534424	1095.816528	2264.375488	1162.317505	5.690853
803.843628	1097.897095	2248.177490	1152.063843	4.709004
804.152771	1101.240601	2246.320068	1149.314575	4.198309
804.461792	1093.438965	2220.759766	1143.593140	4.448971
804.770874	1089.798096	2211.769043	1146.639526	5.066212
805.079773	1082.144897	2214.072266	1144.261841	5.487715
805.388733	1087.420410	2242.381836	1140.843872	4.625563
805.697571	1090.244019	2270.914063	1143.964722	4.550018
806.006470	1102.429565	2278.344482	1147.977051	3.873366
806.315125	1107.482056	2280.053467	1160.014038	4.480067
806.623901	1108.968140	2267.867920	1161.351440	4.520089
806.932495	1098.045654	2272.028564	1160.534180	5.322780
807.241150	1090.764038	2265.935791	1151.915039	5.203580
807.549622	1086.900269	2261.329102	1149.240112	5.308099
807.858154	1092.472900	2250.555420	1151.692139	5.113559
808.166565	1090.838257	2229.676270	1152.955200	5.454414
808.474915	1090.095215	2207.310791	1148.274292	5.207507
808.783264	1091.358276	2187.026611	1148.125610	5.181069
809.091492	1097.153931	2184.722900	1152.806763	5.117177
809.399719	1098.862915	2189.106689	1159.939819	5.602133
809.707825	1101.983765	2188.363525	1154.961548	4.876544
810.015930	1099.234497	2169.565186	1149.388794	4.685869
810.323975	1100.200439	2150.543701	1145.450806	4.308150
810.632080	1090.243774	2133.751221	1146.045288	5.347496
810.939880	1090.689819	2125.429443	1148.794312	5.615373
811.247864	1085.265625	2116.736084	1147.754028	6.058187
811.555664	1089.723755	2111.683350	1147.679810	5.671071
811.863464	1090.169556	2119.782471	1144.113281	5.239224
812.171143	1093.661743	2128.326904	1141.364136	4.610418
812.478882	1090.838257	2120.450928	1153.029663	6.040272
812.786438	1090.169556	2105.590576	1152.732422	6.161273
813.094055	1093.141602	2094.296387	1156.447632	6.323301
813.401489	1092.324341	2082.333740	1145.822266	5.403780
813.708984	1098.862915	2065.838623	1149.463013	5.232820
814.016357	1092.993042	2053.429932	1146.565308	5.577906
814.323730	1101.017700	2058.631592	1146.936646	4.795142
814.630981	1099.828979	2058.482666	1141.587036	4.355906
814.938232	1103.618408	2067.398682	1137.277466	3.492399
815.245361	1097.079712	2054.544434	1135.717041	4.035379
815.552490	1095.370728	2067.250244	1131.927612	3.761463
815.859619	1093.067383	2071.931396	1132.670532	4.045827
816.166565	1094.256226	2089.838379	1130.218628	3.612198
816.473572	1088.386353	2085.008545	1139.952271	5.174069
816.780457	1097.153931	2085.083008	1148.794312	5.227134
817.087341	1098.714355	2088.872314	1150.354614	5.215355
817.394043	1101.240601	2102.469482	1145.153442	4.385894
817.700806	1095.073608	2111.906250	1137.574585	4.179741
818.007507	1091.506958	2122.903076	1140.695313	4.769104
818.314209	1093.438965	2133.751221	1134.231079	3.921141
818.620667	1099.903198	2141.107178	1131.853394	3.068582
818.927246	1104.732910	2162.357666	1125.760498	1.988190
819.233704	1103.395386	2191.113037	1136.980347	3.087654
819.540161	1098.342896	2240.746826	1146.565308	4.221135
819.846497	1099.828979	2302.195313	1152.955444	4.418492
820.152832	1099.977417	2381.996582	1152.658203	4.109204
820.458984	1101.017700	2469.005127	1152.435181	3.758622
820.765259	1098.119995	2563.666748	1160.905762	4.284119
821.071350	1099.754517	2689.906982	1169.524780	4.387646
821.377502	1099.903198	2882.350830	1185.425659	4.798035
821.683472	1093.958984	3255.573486	1198.502808	4.836377
821.989441	1088.460571	3999.120850	1239.517944	5.189798
822.295349	1084.745361	5196.062988	1294.873535	5.110970
822.601196	1085.488403	6753.746094	1371.479614	5.045487
822.907043	1092.993042	8163.045410	1433.819702	4.820709
823.212769	1095.519409	9016.932617	1473.794556	4.775349
823.518494	1096.708130	8963.359375	1485.311523	4.939883
823.824097	1096.856812	8217.805664	1457.670898	5.066938
824.129700	1095.370728	7075.328125	1412.048950	5.295660
824.435242	1100.274658	5937.976563	1354.612915	5.257419
824.740723	1102.949585	4992.399902	1306.093140	5.222938
825.046082	1104.138306	4293.954590	1261.883057	4.945261
825.351501	1101.091919	3825.252686	1233.127930	4.846851
825.656799	1093.587402	3510.729492	1216.261230	5.075160
825.962036	1093.290161	3309.369141	1207.419312	5.150049
826.267212	1091.061157	3198.880859	1206.379028	5.470955
826.572449	1091.952759	3203.190186	1204.967163	5.352994
826.877502	1084.448242	3343.548096	1219.604858	5.982764
827.182495	1081.698853	3649.006592	1238.329102	6.100954
827.487488	1082.293335	4039.319092	1256.458984	5.889893
827.792419	1086.974487	4372.641113	1270.056396	5.572139
828.097290	1096.856812	4500.812988	1275.852051	5.258448
828.402100	1094.999146	4379.996582	1278.081055	5.573274
828.706848	1097.971313	4067.256104	1259.059570	5.425154
829.011597	1093.810425	3650.120850	1229.561401	5.310426
829.316223	1096.336792	3254.161865	1200.583496	4.831100
829.620789	1093.587524	2920.394287	1191.592773	5.364840
829.925354	1095.370728	2675.046631	1176.657959	5.145817
830.229797	1093.587524	2484.088623	1165.884033	5.199313
830.534302	1096.411011	2367.433350	1151.023438	4.296732
830.838562	1092.250000	2272.994629	1147.754272	4.700786
831.142944	1091.432739	2200.326416	1143.444580	4.690426
831.447144	1086.157227	2142.964844	1143.741821	5.448919
831.751404	1090.466675	2126.692383	1145.153442	5.277496
832.055542	1087.494507	2125.949463	1142.924438	5.337731
832.359619	1091.209717	2134.568604	1142.181396	4.885345
832.663635	1089.277832	2156.636475	1138.540649	4.615395
832.967651	1092.472778	2202.258545	1149.165894	5.108474
833.271545	1094.181885	2305.018799	1156.373413	5.136243
833.575439	1094.627686	2458.974121	1170.267944	5.544065
833.879211	1095.965210	2698.897705	1182.973755	5.428085
834.183044	1092.175659	2958.957275	1193.004517	5.401213
834.486694	1097.153931	3182.905518	1194.936401	4.688117
834.790344	1103.841187	3293.393555	1195.753662	4.197775
835.093933	1107.184814	3239.078369	1192.335693	3.994143
835.397522	1107.704956	3073.606201	1186.317261	3.998792
835.700928	1104.955688	2827.441406	1175.023193	4.067813
836.004395	1110.602783	2614.638428	1157.487671	3.117272
836.307739	1106.144653	2421.451416	1155.035767	3.717088
836.611023	1098.268433	2284.437256	1154.367065	4.729397
836.914307	1089.723755	2165.924561	1157.413574	6.289701
837.217529	1092.324341	2088.575195	1151.320679	5.921835
837.520691	1095.222168	2026.458130	1140.323853	4.843207
837.823730	1092.398560	1970.656860	1134.305298	4.771573
838.126831	1091.581177	1918.198853	1133.785156	5.105623
838.429749	1086.157104	1876.960938	1135.791382	6.276433
838.732727	1086.008667	1857.122192	1135.568481	6.427045
839.035522	1085.414185	1845.085327	1133.116455	6.279332
839.338379	1094.256226	1833.122437	1133.785278	5.349961
839.641113	1098.862915	1833.939941	1138.317749	5.367442
839.943848	1099.754517	1869.382202	1133.339478	4.363793
840.246460	1094.776245	1921.468384	1128.063965	4.026616
840.549072	1098.862915	1986.854858	1128.435425	3.330268
840.851563	1101.017700	2026.606812	1134.973999	3.668615
841.154053	1104.955688	2041.913086	1146.045166	4.385416
841.456482	1096.262329	2008.105469	1143.221680	5.149937
841.758850	1090.689575	1951.263672	1140.918335	5.836657
842.061157	1088.609253	1893.901978	1136.534546	5.951288
842.363403	1097.674194	1834.385620	1138.169067	5.496707
842.665588	1100.794922	1778.064087	1135.494141	5.123402
842.967712	1101.983765	1735.860229	1129.252686	4.301930
843.269775	1105.475952	1703.761353	1129.475586	4.011402
843.571777	1104.732788	1688.306519	1121.302368	2.839329
843.873840	1105.401489	1663.192017	1121.079468	2.810729
844.175659	1098.417114	1639.638184	1116.546997	3.349811
844.477600	1101.017700	1632.133667	1128.881226	5.246222
844.779297	1101.612183	1618.684692	1127.989624	5.101304
845.081116	1103.915527	1615.638306	1124.794556	4.080144
845.382751	1103.989868	1596.171021	1118.776001	3.004205
845.684387	1101.092163	1585.545776	1117.661499	3.420211
845.985962	1088.832031	1578.264038	1118.998901	6.163649
846.287537	1081.773315	1565.112671	1116.918579	7.271343
846.588989	1081.253296	1559.762695	1114.094971	6.863329
846.890381	1089.352173	1541.707153	1111.568726	4.911309
847.191711	1096.336792	1540.221313	1120.410767	5.423477
847.493042	1097.971313	1528.407104	1121.673950	5.506660
847.794250	1098.491333	1515.924194	1127.989502	7.066566
848.095459	1092.398682	1508.939819	1121.525269	6.992487
848.396606	1096.039551	1507.825195	1118.924683	5.557535
848.697693	1097.971313	1523.428711	1115.952637	4.226351
848.998657	1098.640015	1520.456543	1111.048706	2.941727
849.299622	1096.931030	1518.747681	1106.813354	2.342801
849.600464	1098.862915	1509.682617	1102.132324	0.795826
849.901367	1102.726685	1507.527832	1101.166382	-0.385449
850.202087	1097.748413	1502.475220	1109.042480	2.790541
850.502808	1099.160278	1501.138062	1108.076538	2.218098
850.803467	1097.302612	1495.267944	1110.602905	3.342073
851.104065	1096.782471	1491.255737	1108.076538	2.863075
851.404663	1098.788696	1488.654907	1112.014526	3.392402
851.705139	1095.890747	1492.370117	1115.878296	5.041258
852.005615	1106.887695	1497.571289	1114.986694	2.073033
852.306030	1101.686401	1495.490845	1111.197144	2.415093
852.606384	1099.011597	1501.509277	1110.156860	2.769026
852.906616	1091.804199	1492.964478	1108.373657	4.130383
853.206909	1092.026978	1484.345337	1104.064087	3.068199
853.506958	1098.565796	1468.890503	1101.835083	0.882816
853.807129	1100.646118	1471.565430	1099.977417	-0.180282
854.107178	1104.435669	1478.549805	1104.881470	0.119162
854.407166	1107.853638	1472.902954	1108.968140	0.305302
854.707092	1106.218872	1463.392212	1119.964966	3.848578
855.007019	1104.212769	1454.550171	1120.336426	4.602323
855.306763	1094.256226	1462.723267	1118.701782	6.634394
855.606567	1100.423340	1462.797729	1109.859741	2.604048
855.906250	1096.782593	1465.695679	1109.711060	3.504475
856.205933	1104.807129	1461.386108	1107.704956	0.812675
856.505493	1103.098145	1459.008301	1117.067017	3.924831
856.805054	1106.144653	1450.463501	1123.382813	5.006453
857.104492	1099.828979	1451.206421	1122.639771	6.491820
857.403931	1098.417236	1451.503540	1110.825806	3.514316
857.703308	1097.674194	1455.961792	1103.246948	1.555386
858.002563	1095.668091	1450.983521	1104.361450	2.446660
858.301819	1086.528687	1454.029907	1105.550293	5.175930
858.601013	1089.797974	1448.308594	1106.813232	4.746096
858.900208	1095.816528	1449.348999	1103.692505	2.227794
859.199219	1102.875244	1435.825806	1101.314941	-0.468629
859.498291	1094.033325	1440.284058	1099.605957	1.609421
859.797302	1092.621460	1434.488403	1096.262329	1.064996
860.096191	1092.101440	1436.494629	1107.482056	4.466004
860.395020	1088.609253	1432.705078	1107.259155	5.419973
860.693787	1085.414185	1427.652466	1110.602905	7.359995
860.992554	1082.144897	1421.262329	1101.834961	5.806267
861.291260	1087.717407	1414.872437	1102.949585	4.655951
861.589844	1088.906372	1417.027222	1103.246704	4.370442
861.888428	1088.534790	1428.024048	1106.813354	5.384136
862.186890	1091.358276	1436.940430	1104.955688	3.934639
862.485413	1096.336548	1438.500610	1093.661743	-0.781732
862.783813	1106.664673	1438.203491	1089.277954	-5.244248
863.082153	1103.989868	1430.327515	1084.076660	-6.102026
863.380371	1093.215942	1428.321289	1096.931152	1.108669
863.678589	1084.373901	1426.983765	1096.633911	3.578417
863.976746	1084.002441	1429.138550	1103.395386	5.618927
864.274902	1094.033325	1427.058105	1106.441895	3.726020
864.572937	1090.466675	1423.268555	1105.624512	4.554613
864.870911	1095.147827	1424.160156	1102.949585	2.371266
865.168884	1100.051758	1418.958984	1100.497559	0.139790
865.466736	1108.076538	1416.358398	1108.447876	0.120454
865.764587	1109.413940	1415.318237	1112.088867	0.874433
866.062317	1106.070435	1421.485352	1116.472778	3.297987
866.360107	1110.677124	1423.862915	1112.608887	0.616810
866.657715	1108.076538	1418.215942	1113.500610	1.748914
866.955322	1110.231323	1407.442017	1104.064087	-2.075038
867.252808	1101.686523	1401.572266	1097.079590	-1.536230
867.550293	1101.389160	1400.977905	1097.896973	-1.165661
867.847717	1101.612183	1406.030640	1100.497681	-0.366109
868.145081	1102.652466	1405.658813	1106.367554	1.226076
868.442383	1099.011597	1408.408203	1099.011597	0.000000
868.739624	1090.392456	1401.943726	1104.584229	4.555196
869.036804	1091.729858	1402.909790	1106.516113	4.751674
869.333984	1092.993042	1399.343262	1107.853638	4.850852
869.631042	1095.222046	1399.788940	1103.989868	2.878784
869.928101	1093.735962	1402.240845	1109.042480	4.961516
870.224976	1095.593506	1398.971680	1111.271606	5.167840
870.521851	1100.571899	1403.801270	1115.729736	4.998802
870.818726	1105.550171	1403.429810	1107.779297	0.748331
871.115479	1104.435669	1415.244019	1114.540649	3.251193
871.412231	1097.674072	1417.770142	1108.225098	3.296206
871.708862	1086.825928	1413.089233	1111.420044	7.538119
872.005493	1086.380249	1398.377319	1106.367554	6.406248
872.302063	1099.754517	1392.804321	1108.299438	2.915860
872.598572	1104.138550	1392.358765	1104.435791	0.103130
872.895020	1106.664673	1402.984009	1109.265381	0.877671
873.191406	1095.444946	1406.550415	1106.961914	3.701950
873.487671	1099.754517	1410.414185	1105.475952	1.841705
873.783997	1105.029907	1414.055176	1097.005371	-2.596725
874.080200	1105.475830	1419.702148	1093.958984	-3.665143
874.376343	1112.609009	1425.126343	1104.807129	-2.496463
874.672424	1106.813477	1420.296509	1107.556396	0.236989
874.968445	1106.664673	1413.683594	1109.562500	0.943859
875.264465	1089.872314	1418.587524	1115.729614	7.866171
875.560364	1091.655640	1417.993042	1117.364258	7.877926
875.856201	1094.850464	1424.531738	1120.187866	7.685423
876.152039	1105.104370	1416.804199	1103.766968	-0.429067
876.447754	1106.738892	1421.485352	1103.915527	-0.897028
876.743469	1102.429443	1420.073608	1108.522339	1.918151
877.039063	1097.005493	1419.256226	1115.952515	5.879590
877.334595	1095.519409	1413.014771	1109.933960	4.540082
877.630127	1099.605957	1416.432739	1102.132202	0.797358
877.925537	1107.407715	1421.039429	1093.587402	-4.406542
878.221008	1107.036133	1425.869141	1106.293335	-0.232974
878.516296	1104.584229	1427.132324	1110.156860	1.727690
878.811646	1102.429321	1432.630737	1115.358032	3.915401
879.106812	1095.742188	1457.001953	1109.562378	3.825555
879.401978	1091.878418	1484.419800	1110.602783	4.770036
879.697083	1089.500732	1511.391602	1115.581055	6.181770
879.992126	1088.088989	1531.973511	1118.107422	6.762667
880.287109	1086.974487	1564.963867	1118.627441	6.622104
880.582031	1084.522583	1642.238647	1120.262085	6.408189
880.876892	1091.506958	1795.451050	1124.497314	4.686502
881.171753	1101.463501	2068.364990	1138.243408	3.803894
881.466492	1102.800903	2501.178467	1158.676636	3.995754
881.761230	1100.571899	3069.296875	1190.924072	4.589375
882.055786	1092.250000	3627.087158	1217.301636	4.933321
882.350403	1091.729858	3995.182861	1239.072144	5.074726
882.644958	1090.318115	4055.145264	1242.192871	5.122550
882.939453	1100.497681	3833.723389	1235.357056	4.934074
883.233826	1104.732910	3429.887939	1211.580200	4.595276
883.528137	1104.435669	3001.087158	1192.930298	4.665835
883.822449	1097.005371	2623.852295	1180.075806	5.440652
884.116577	1093.661743	2341.501709	1164.397949	5.668692
884.410828	1093.958984	2124.909424	1146.862427	5.131521
884.704956	1094.479126	1962.557983	1132.670654	4.399546
884.999023	1097.005371	1849.097656	1132.150513	4.672983
885.292969	1096.559570	1758.225220	1129.772949	5.019662
885.586914	1094.627808	1695.885254	1120.930786	4.374661
885.880798	1093.141724	1644.170532	1109.562500	2.980021
886.174622	1094.553345	1615.341187	1103.989868	1.811971
886.468384	1095.667969	1595.428101	1101.314819	1.129912
886.762085	1093.661743	1570.165039	1105.030029	2.385773
887.055664	1092.101440	1543.118774	1104.138428	2.668853
887.349304	1089.055054	1514.586548	1108.447998	4.557346
887.642822	1100.943481	1492.816040	1104.435669	0.891154
887.936340	1102.429443	1471.713989	1102.578003	0.040229
888.229736	1104.138428	1452.915405	1098.640015	-1.576484
888.523071	1089.797974	1441.769897	1098.268555	2.406607
888.816284	1093.141602	1424.977539	1101.909302	2.642179
889.109619	1090.764038	1416.655640	1103.321167	3.853161
889.402710	1090.243896	1407.367798	1107.036133	5.295166
889.695862	1090.838379	1401.349243	1114.540649	7.633315
889.988892	1096.931030	1390.872559	1112.534546	5.308374
890.281921	1103.172607	1379.132690	1098.268555	-1.777088
>>>>>End Processed Spectral Data<<<<<
