Jaz Data File
++++++++++++++++++++++++++++++++++++
Date: Fri Jun 04 13:52:49 2021
User: jaz
Dark Spectrum Present: Yes
Reference Spectrum Present: Yes
Processed Spectrum Present: Yes
Spectrometers: JAZA3586
Integration Time (usec): 35500 (JAZA3586)
Spectra Averaged: 10 (JAZA3586)
Boxcar Smoothing: 1 (JAZA3586)
Correct for Electrical Dark: No (JAZA3586)
Strobe/Lamp Enabled: Yes (JAZA3586)
Correct for Detector Non-linearity: No (JAZA3586)
Correct for Stray Light: No (JAZA3586)
Number of Pixels in Processed Spectrum: 2048
>>>>>Begin Processed Spectral Data<<<<<
W	D	R	S	P
191.335022	0.000000	0.000000	0.000000	0.000000
191.713211	271.353546	272.765289	273.434021	147.369217
192.091385	547.833984	552.217834	550.806091	67.796730
192.469528	828.698242	830.110046	827.360840	-94.730019
192.847641	839.026306	838.283264	832.116211	929.973694
193.225739	849.428711	847.273926	837.986084	531.033325
193.603790	860.648438	858.790833	848.239929	667.984253
193.981842	871.199402	870.233582	853.589600	1823.300049
194.359863	869.862000	870.605042	861.391418	-1139.986816
194.737854	871.050781	879.075500	873.577148	31.482313
195.115829	871.050781	874.617371	880.190002	256.245392
195.493774	873.577087	877.292236	879.669922	163.999741
195.871704	873.502747	867.484192	873.205566	4.937733
196.249603	877.663757	871.422302	874.617371	48.808918
196.627457	879.075500	872.685486	874.617371	69.767128
197.005310	874.543030	876.623474	874.171570	-17.854837
197.383133	868.078796	881.750305	878.852539	78.804344
197.760910	879.372742	875.434570	881.750427	-60.375370
198.138687	886.951599	871.422302	883.087830	24.880518
198.516449	885.539856	862.357422	871.793884	59.294773
198.894180	875.211731	859.905457	870.604980	30.097137
199.271866	874.468750	863.100403	871.273682	28.104950
199.649536	881.453186	861.763000	881.601746	-0.754485
200.027191	885.911377	869.267578	880.115723	34.821705
200.404816	876.326355	868.895996	876.326233	0.001643
200.782410	873.948547	884.722473	873.428467	-4.827215
201.159988	868.821777	893.564514	867.707092	-4.505100
201.537537	865.923889	907.830627	861.985840	-9.397175
201.915070	863.323303	905.230042	863.546204	0.531896
202.292557	861.911560	911.471497	871.125061	18.590624
202.670029	863.249023	913.551941	872.611145	18.611488
203.047485	858.493652	916.226868	862.728943	7.335968
203.424911	857.156189	913.626221	857.230469	0.131538
203.802292	863.843445	905.007141	860.499817	-8.122759
204.179688	863.992004	900.400391	860.871338	-8.571285
204.557037	866.369690	898.096985	866.295410	-0.234120
204.934357	863.249023	900.326111	869.639099	17.234568
205.311661	869.713318	903.892578	875.583313	17.174143
205.688934	863.769104	908.722351	869.267578	12.231540
206.066177	864.215027	908.499329	859.756836	-10.067204
206.443390	855.001404	912.883240	855.521484	0.898521
206.820587	858.567871	905.824524	856.041687	-5.345669
207.197769	857.973450	907.236267	857.379150	-1.206385
207.574921	863.843445	896.908203	853.366760	-31.685350
207.952042	858.642273	897.948425	846.010803	-32.136112
208.329147	851.063416	899.062927	841.924133	-19.040365
208.706223	852.623718	922.096741	851.360596	-1.818148
209.083267	848.537109	921.427979	850.320313	2.446401
209.460297	848.759949	921.799500	858.493652	13.326620
209.837280	846.456543	900.474609	849.428711	5.502174
210.214264	853.515381	902.406494	857.453430	8.054734
210.591217	860.945618	898.468445	850.691895	-27.326628
210.968124	860.276917	900.251709	856.116028	-10.408781
211.345016	860.276917	903.818176	859.162354	-2.559786
211.721893	855.818787	903.743958	862.208740	13.333189
212.098724	852.549377	903.149597	860.499817	15.712263
212.475555	851.360535	893.044434	860.648438	22.281752
212.852356	849.577332	891.855469	859.608154	23.725792
213.229126	854.481262	895.496399	853.738220	-1.811629
213.605865	851.955017	900.474609	844.747559	-14.854738
213.982590	857.081848	907.533447	839.992188	-33.873379
214.359283	851.880676	910.654114	844.747559	-12.136635
214.735931	851.583435	913.180481	845.862122	-9.288292
215.112579	849.428711	910.951355	860.499756	17.995073
215.489197	849.057129	908.573669	858.567871	15.979999
215.865799	858.567932	906.939026	860.054016	3.072256
216.242355	865.255188	909.911133	847.719727	-39.267921
216.618896	867.781494	907.087646	850.023132	-45.179600
216.995407	864.586426	911.397217	844.376160	-43.174374
217.371902	855.744446	908.796570	850.171814	-10.504069
217.748367	853.515320	907.236145	842.890137	-19.778519
218.124802	853.441101	905.601563	848.611389	-9.259336
218.501236	859.088074	907.013367	844.004578	-31.472935
218.877609	860.574158	909.019531	850.840515	-20.091995
219.253983	852.549500	910.654114	858.865173	10.869488
219.630295	851.657715	910.133972	857.602051	10.165383
220.006592	846.307922	917.415710	856.190247	13.897668
220.382889	853.812500	923.285645	852.995178	-1.176457
220.759140	850.023132	918.455872	853.441101	4.994640
221.135391	854.035461	911.991638	852.475098	-2.692317
221.511581	848.091309	913.254822	847.496826	-0.912293
221.887772	845.787903	923.285645	855.372986	12.368210
222.263931	840.066589	934.876770	864.883728	26.175606
222.640060	845.490662	927.743713	869.118958	28.726345
223.016159	848.165527	925.737610	860.945618	16.475115
223.392212	853.812561	920.759338	855.001404	1.775803
223.768265	848.685730	930.418701	848.314148	-0.454629
224.144302	848.759949	938.666321	852.252197	3.884317
224.520294	844.450378	940.672546	857.750549	13.822356
224.896286	848.388428	941.266846	864.660706	17.519978
225.272217	849.428711	938.443359	865.775330	18.363964
225.648148	853.292480	945.947937	857.081848	4.089740
226.024048	852.326477	948.177063	850.989075	-1.395299
226.399902	854.778503	952.858093	844.821960	-10.151493
226.775772	853.366760	953.824036	840.289490	-13.017743
227.151581	853.738281	959.916931	846.159363	-7.137893
227.527374	854.184082	970.764954	855.670105	1.274671
227.903137	854.258362	989.563538	863.026062	6.479944
228.278870	852.475098	1011.780090	859.088074	4.151142
228.654572	849.800232	1037.117310	856.041687	3.332027
229.030273	847.868347	1065.649536	866.964111	8.768326
229.405930	846.902405	1084.151001	871.422302	10.335108
229.781555	845.193542	1090.912598	869.787598	10.009014
230.157181	849.800232	1079.024170	855.150085	2.333898
230.532761	848.611328	1069.216187	857.081970	3.839735
230.908325	847.719727	1061.414429	864.066406	7.649549
231.283859	847.868347	1055.544434	869.267578	10.304138
231.659332	855.224304	1042.244263	857.973450	1.469974
232.034821	854.629883	1037.488892	854.332703	-0.162519
232.410263	854.852783	1031.321777	847.571106	-4.126321
232.785690	849.280090	1029.612671	852.920898	2.018941
233.161087	853.812500	1026.640625	850.023132	-2.192564
233.536469	851.880676	1029.612793	859.385254	4.222409
233.911804	852.475098	1036.522827	867.261414	8.033957
234.287140	851.063416	1041.872681	865.552429	7.593454
234.662430	857.453369	1056.733276	864.883728	3.728604
235.037704	866.072510	1061.340210	858.716553	-3.767114
235.412933	867.112793	1065.872437	859.979675	-3.588816
235.788162	862.951843	1061.117065	853.143738	-4.949459
236.163345	857.602051	1066.541260	859.608154	0.960137
236.538513	858.122131	1063.123291	863.471924	2.609640
236.913635	860.499817	1074.343018	862.580261	0.972883
237.288742	859.385254	1084.596802	859.162354	-0.098974
237.663834	854.704163	1099.457397	852.697998	-0.819668
238.038879	853.961121	1096.856812	858.047791	1.682479
238.413910	854.035461	1095.890747	863.620544	3.963148
238.788910	858.196472	1099.085815	879.744202	8.945074
239.163879	854.184082	1112.683228	889.329285	13.595868
239.538834	857.602051	1129.549805	881.527527	8.797821
239.913757	858.419373	1144.038940	880.041443	7.570234
240.288651	851.211975	1162.986206	866.666931	4.957098
240.663528	846.753845	1184.756836	871.719482	7.386218
241.038361	842.518555	1231.270508	865.329407	5.867714
241.413177	852.549500	1291.604248	871.125061	4.230808
241.787979	850.171692	1352.978271	874.988831	4.935723
242.162735	844.673340	1402.389648	874.394348	5.329055
242.537476	835.979797	1439.912476	868.450195	5.376493
242.912170	834.865295	1474.091675	861.242859	4.126482
243.286865	836.871582	1479.961548	863.620544	4.159443
243.661514	838.580566	1464.506470	871.273743	5.223170
244.036148	838.431885	1433.002319	873.874329	5.961017
244.410751	842.369934	1407.813599	867.930115	4.520376
244.785339	850.691895	1388.346313	866.518372	2.943615
245.159882	851.434875	1400.309082	864.140625	2.314875
245.534378	855.595886	1450.537720	875.880554	3.409521
245.908890	849.428711	1523.874512	876.995056	4.087259
246.283356	859.979736	1633.991211	883.459290	3.033489
246.657791	855.521484	1747.822876	880.115723	2.756270
247.032196	860.128235	1857.642212	884.722473	2.465553
247.406586	852.029297	1928.006958	886.877258	3.238725
247.780960	856.784668	1950.669312	885.093994	2.587963
248.155289	856.561829	1930.904785	887.620300	2.890927
248.529602	860.722717	1853.555664	880.561523	1.998202
248.903870	856.413147	1757.259399	880.561584	2.680639
249.278122	857.007568	1672.479980	874.543030	2.150344
249.652344	859.979675	1611.254517	867.112793	0.949468
250.026550	858.567871	1568.456177	867.930115	1.318833
250.400711	859.682434	1529.595825	871.199402	1.719173
250.774857	852.177917	1515.849976	881.824707	4.467084
251.148987	852.029297	1526.995239	879.595642	4.084109
251.523071	851.880676	1554.561523	876.623535	3.521209
251.897125	857.304871	1585.099976	878.258118	2.879004
252.271164	859.533875	1610.437134	878.555359	2.533147
252.645187	860.425476	1618.387573	874.245850	1.823359
253.019165	857.973450	1605.681763	872.685547	1.967625
253.393112	867.484192	1576.703735	870.010559	0.356218
253.767044	856.710388	1549.286133	878.109558	3.089795
254.140930	855.001282	1523.577271	879.744202	3.700839
254.514801	841.998352	1499.057251	880.041443	5.789906
254.888657	843.187256	1485.608521	880.784485	5.852426
255.262466	848.388489	1492.072876	885.539856	5.771675
255.636276	849.948914	1505.521606	888.140442	5.825674
256.010010	858.270752	1538.437866	885.837097	4.052878
256.383759	850.097351	1575.217773	882.047607	4.406200
256.757446	850.097412	1627.006714	880.412903	3.902063
257.131134	843.484436	1678.795776	882.419128	4.661099
257.504791	846.976746	1736.603149	878.183838	3.507887
257.878418	849.874512	1819.004883	885.465576	3.672474
258.252014	858.790833	1925.183594	887.843262	2.724365
258.625580	856.413147	2068.662109	902.332214	3.787924
258.999115	845.193420	2249.366211	905.452942	4.291461
259.372650	838.506165	2445.302490	913.180420	4.647400
259.746124	837.391602	2622.291504	915.335205	4.366833
260.119598	850.023132	2734.042969	920.610657	3.746644
260.493042	848.314148	2765.175781	920.313477	3.756105
260.866425	849.502991	2698.154541	912.808899	3.424437
261.239838	854.778564	2575.109375	906.864746	3.027684
261.613159	857.156189	2406.665039	906.047363	3.155269
261.986511	866.444031	2265.192627	911.248535	3.203185
262.359802	863.694885	2155.819092	913.328918	3.841274
262.733063	871.868164	2096.674316	909.390930	3.063568
263.106293	866.741211	2066.878662	903.000977	3.021301
263.479523	863.026123	2040.947266	896.611023	2.851201
263.852692	858.196472	2024.229126	898.468445	3.453760
264.225861	850.246094	2006.396484	900.028809	4.305903
264.598969	856.338867	2011.820435	898.988586	3.691077
264.972076	851.657898	2043.176270	892.747253	3.448487
265.345154	853.441101	2101.281006	891.484070	3.048706
265.718201	844.450439	2160.351807	893.415955	3.721063
266.091217	850.246094	2224.920654	902.926697	3.832224
266.464203	852.475159	2274.852295	907.384827	3.860415
266.837158	848.537109	2345.068115	909.391052	4.066334
267.210114	844.227539	2398.417725	906.864563	4.030203
267.583038	841.255371	2442.181885	906.270203	4.061075
267.955902	843.187256	2446.416992	909.093750	4.110858
268.328766	845.119141	2441.216064	912.660339	4.231647
268.701569	846.753723	2450.206787	914.740723	4.240036
269.074371	854.332703	2472.719971	911.768616	3.548960
269.447144	846.084961	2516.781738	908.202148	3.718041
269.819885	853.961121	2597.028809	901.663574	2.736696
270.192596	851.137634	2728.544678	905.973083	2.920808
270.565277	856.561768	2884.431641	910.431213	2.656455
270.937927	850.394714	3046.708252	920.833679	3.207145
271.310577	852.772278	3170.348389	927.149353	3.209261
271.683136	850.840515	3280.836670	934.356689	3.436885
272.055725	851.955017	3310.260498	936.288574	3.430557
272.428284	854.184082	3291.982422	940.598145	3.544759
272.800812	862.580261	3222.806641	942.009949	3.365342
273.173279	861.911560	3124.800781	942.604309	3.565917
273.545776	856.338867	3066.993408	942.232849	3.885455
273.918152	853.218079	2999.675049	930.344421	3.593193
274.290558	853.738281	2993.582031	929.972839	3.562623
274.662964	852.029297	2968.393555	933.167908	3.833868
275.035278	849.502991	2981.991211	932.573486	3.895473
275.407593	850.171692	3012.232422	937.180237	4.024334
275.779907	856.264465	3076.207031	934.282410	3.514413
276.152161	857.453369	3147.388916	940.375244	3.621145
276.524384	853.812500	3201.481201	936.362976	3.516274
276.896606	851.211914	3234.026123	932.647766	3.417633
277.268799	854.778503	3246.063232	939.483582	3.542242
277.640930	857.379089	3250.966797	936.511475	3.306016
278.013031	853.738281	3262.557861	938.369080	3.513372
278.385162	846.679504	3274.149414	938.591980	3.786349
278.757233	842.518555	3295.251221	936.139954	3.817024
279.129272	839.546448	3323.858154	936.882996	3.918049
279.501282	841.849792	3370.371338	940.523743	3.902437
279.873230	842.295654	3436.129150	945.725037	3.987510
280.245178	842.592773	3536.438232	950.703308	4.013242
280.617126	846.828064	3684.151611	950.554688	3.655791
280.988983	849.428711	3826.515869	958.207825	3.653877
281.360870	852.177917	3967.468018	969.576172	3.768453
281.732697	849.428711	4072.309326	971.359558	3.783288
282.104492	851.286316	4119.491211	975.743347	3.808116
282.476288	853.143860	4130.339844	976.263428	3.756857
282.848053	852.475098	4098.835449	978.789734	3.890962
283.219757	853.738281	4112.507324	979.235535	3.851063
283.591461	852.623718	4101.881348	971.582336	3.661102
283.963135	846.679504	4120.160156	971.285156	3.806519
284.334747	842.072754	4179.973633	971.359436	3.873293
284.706360	843.261536	4275.304199	974.554504	3.825505
285.077942	856.041687	4402.064453	979.458496	3.480429
285.449524	858.345032	4495.389160	985.997131	3.509776
285.821014	855.372864	4541.382324	986.888733	3.567974
286.192535	854.035461	4594.880371	976.486328	3.273348
286.563995	856.636047	4609.518066	974.108582	3.130195
286.935425	861.688660	4594.880371	968.387390	2.858110
287.306824	854.109802	4487.364258	970.764954	3.210762
287.678223	853.812561	4381.780762	971.805359	3.344497
288.049561	849.948792	4314.387207	979.086975	3.727536
288.420898	850.840515	4303.242188	978.418274	3.695334
288.792145	851.360596	4352.430176	979.681458	3.665190
289.163452	855.224365	4446.126465	985.402649	3.625225
289.534668	855.893066	4582.546387	991.272644	3.632739
289.905914	855.967285	4720.229004	988.597656	3.432230
290.277039	853.738281	4856.500000	988.672058	3.371017
290.648193	849.280090	4915.496094	995.953674	3.607127
291.019318	849.280090	4921.440918	997.291077	3.634704
291.390381	850.171692	4841.565918	993.724609	3.596561
291.761475	853.218079	4759.535156	992.833008	3.574081
292.132507	845.862244	4684.043457	998.182800	3.968561
292.503510	849.725891	4670.371582	998.925781	3.905096
292.874481	850.023193	4704.997070	1006.356018	4.055354
293.245422	853.961243	4813.850586	1009.625427	3.931024
293.616364	853.515442	4969.217285	1014.380676	3.908574
293.987213	857.304749	5155.494629	1012.374573	3.607794
294.358093	857.899231	5309.969727	1012.746094	3.478087
294.728943	853.366699	5451.888184	1018.616028	3.593532
295.099731	846.159363	5578.054199	1022.925598	3.735633
295.470490	847.125305	5698.052734	1028.498413	3.738937
295.841248	846.382324	5826.447754	1034.814087	3.783721
296.211975	853.143799	5961.604004	1044.770508	3.751164
296.582642	850.394592	6119.200684	1046.999634	3.731491
296.953308	853.515320	6189.639160	1053.241089	3.742900
297.323883	858.122131	6196.400879	1040.758179	3.421253
297.694519	860.945618	6066.668457	1039.866577	3.437005
298.065063	861.168457	5914.645020	1031.693237	3.374405
298.435608	852.029236	5713.730469	1033.179321	3.726064
298.806122	851.509094	5482.055176	1022.702637	3.697049
299.176575	851.360535	5256.843750	1008.882324	3.575585
299.547028	853.738281	5102.293457	1005.315735	3.567741
299.917450	851.063293	5059.197754	1004.647034	3.649687
300.287872	846.605225	5044.337402	1016.164001	4.039295
300.658234	843.781677	5027.916504	1005.910217	3.874840
301.028564	845.639221	4980.065918	1003.829773	3.826179
301.398865	846.382263	4945.812012	991.421204	3.538027
301.769135	851.583496	4880.945801	988.597717	3.400395
302.139374	852.623718	4828.116699	987.334534	3.388531
302.509583	850.097473	4773.429688	986.071350	3.465775
302.879791	847.199707	4712.724121	988.820618	3.663692
303.249939	849.577332	4651.721680	975.297546	3.306561
303.620087	856.561768	4590.793457	968.833191	3.006547
303.990173	855.150085	4576.676270	972.994141	3.166552
304.360260	852.623779	4570.137207	988.003235	3.641667
304.730286	851.732117	4584.403809	993.353027	3.794090
305.100281	849.800232	4562.409668	980.052917	3.508386
305.470276	849.502991	4572.440918	974.331543	3.352958
305.840179	854.927185	4589.679199	974.628845	3.205077
306.210144	855.298645	4624.229980	988.151855	3.524957
306.579987	856.859070	4651.276855	993.650208	3.605063
306.949890	845.862122	4688.427246	995.433594	3.892490
307.319702	852.029297	4780.562988	998.331360	3.724088
307.689484	856.561768	4901.824707	998.034119	3.497235
308.059265	857.453430	5041.662598	1010.591309	3.659900
308.429016	852.623718	5156.757813	1010.145447	3.659777
308.798737	846.753845	5250.527344	1013.043274	3.776067
309.168396	847.645508	5298.750000	1012.894714	3.712544
309.538055	849.503113	5319.628906	1014.826599	3.698408
309.907684	850.543274	5307.814453	1021.588196	3.837436
310.277313	851.880798	5322.452637	1017.798767	3.711337
310.646851	855.372986	5322.452637	1017.575867	3.631072
311.016388	852.549500	5318.216797	1013.191956	3.597278
311.385895	856.933289	5276.979004	1011.037109	3.486475
311.755371	854.109680	5218.576660	1007.173340	3.507041
312.124817	853.589661	5163.667480	1003.904114	3.487511
312.494232	847.125305	5077.625488	998.108459	3.568920
312.863617	851.434875	5040.919434	997.662598	3.490351
313.232971	856.636169	5043.743164	994.690491	3.297129
313.602295	858.270813	5137.290527	988.969177	3.054400
313.971619	858.865173	5252.459473	995.656433	3.113425
314.340820	853.069519	5297.486816	1004.944336	3.417204
314.710083	859.459534	5286.267090	1014.975159	3.513042
315.079285	857.081848	5200.670410	1011.557312	3.556402
315.448486	860.053955	5126.516113	1010.962830	3.537097
315.817596	851.583496	4988.907715	997.959778	3.537946
316.186707	850.246033	4853.156250	989.860840	3.487833
316.555786	851.434875	4710.123535	984.956848	3.460294
316.924866	847.199646	4644.291992	987.854736	3.704284
317.293884	844.524719	4622.298340	990.306641	3.858938
317.662872	841.478333	4651.721680	984.511047	3.753900
318.031830	841.478333	4677.578613	989.340759	3.854498
318.400757	844.450439	4728.104980	986.442932	3.656157
318.769684	847.422546	4767.782715	989.860901	3.633298
319.138550	852.697998	4776.996094	989.860840	3.495220
319.507416	851.137695	4745.046387	989.340759	3.549212
319.876190	852.029297	4667.474121	988.374817	3.573516
320.244995	855.298645	4604.316895	984.585388	3.448549
320.613770	858.419373	4537.815430	977.155090	3.227044
320.982483	858.419250	4522.583496	971.879578	3.096486
321.351166	861.688660	4552.824707	973.959961	3.041646
321.719818	863.917725	4627.721680	983.693665	3.182311
322.088440	862.803223	4774.172363	987.111633	3.178130
322.457062	863.100403	4950.121094	993.798889	3.197891
322.825623	859.310974	5145.611816	1003.086731	3.354309
323.194183	860.648438	5316.285156	1007.024841	3.285196
323.562653	858.270691	5412.507324	1012.003113	3.375591
323.931183	857.527649	5452.482422	1020.102051	3.538107
324.299591	860.276855	5411.095703	1027.012207	3.663854
324.668060	857.973572	5345.263672	1025.080322	3.724002
325.036407	859.831055	5245.400391	1010.294006	3.430865
325.404755	857.824951	5149.252441	1002.120789	3.362420
325.773102	851.955078	5052.139160	997.142517	3.456692
326.141388	847.868347	4981.774902	1003.829773	3.772737
326.509674	846.679504	4891.125000	1004.870056	3.911304
326.877899	855.670166	4812.587402	1003.161072	3.727420
327.246124	865.626770	4748.240723	985.848572	3.096414
327.614288	864.363586	4701.504395	980.795959	3.034352
327.982422	856.710388	4688.724609	976.412109	3.123729
328.350525	846.828125	4678.991211	981.984802	3.526903
328.718628	841.775574	4722.829590	985.105469	3.693066
329.086700	846.530945	4780.859863	987.780457	3.590181
329.454712	848.537109	4845.578125	990.158020	3.543144
329.822693	858.790833	4883.323730	998.777161	3.478325
330.190674	863.249023	4936.598145	1007.470642	3.540615
330.558563	865.180847	4986.158691	1011.631531	3.553785
330.926483	856.413086	5059.644043	1000.040344	3.417068
331.294312	847.571106	5157.054199	1003.904053	3.627650
331.662231	840.735291	5279.282715	1015.272461	3.932304
332.029999	844.970520	5398.687012	1038.009155	4.239145
332.397766	848.388489	5485.843750	1033.773804	3.997566
332.765503	855.818787	5546.771973	1025.749146	3.622512
333.133240	852.400818	5578.796875	1022.182617	3.592204
333.500916	855.893066	5570.400391	1024.411621	3.574468
333.868561	853.812561	5557.397949	1036.002808	3.873433
334.236176	852.549500	5523.441406	1033.922363	3.883045
334.603790	844.970642	5482.872559	1034.293945	4.082089
334.971344	843.484558	5428.853516	1031.841919	4.107790
335.338867	847.496887	5409.312500	1029.315552	3.985665
335.706360	852.698059	5401.139160	1027.235107	3.837294
336.073853	851.880676	5427.665039	1026.120483	3.807868
336.441284	852.549377	5448.618652	1025.228882	3.757113
336.808655	852.177917	5487.701660	1031.693237	3.872601
337.176086	853.366699	5541.868652	1038.603394	3.950872
337.543396	852.995178	5584.369141	1035.557007	3.858537
337.910706	852.697998	5600.492676	1039.346313	3.931263
338.277954	856.264587	5573.892578	1031.173096	3.707552
338.645264	851.063416	5518.240234	1033.550781	3.910016
339.012421	848.314148	5450.773438	1030.950317	3.968230
339.379669	846.159424	5347.269531	1037.934692	4.260622
339.746796	851.063293	5254.020020	1044.473267	4.392730
340.113953	859.682434	5197.697754	1043.210083	4.230682
340.481018	855.001465	5208.026367	1039.049194	4.228042
340.848114	847.794128	5234.478027	1029.464111	4.141397
341.215118	837.688904	5303.282227	1031.544678	4.341098
341.582153	839.769348	5414.216309	1036.077148	4.291400
341.949066	846.233704	5582.957520	1053.315430	4.371835
342.316010	850.023132	5803.042969	1069.290405	4.426941
342.682922	855.670105	6036.798828	1086.603027	4.457193
343.049835	856.338867	6356.003906	1101.537964	4.458437
343.416656	854.629883	6682.267090	1116.249756	4.489296
343.783478	842.369873	6983.192871	1132.596313	4.726182
344.150269	846.902405	7188.045410	1139.878052	4.620234
344.516998	842.964355	7271.264160	1138.168945	4.592266
344.883728	853.738281	7228.688965	1124.200195	4.242573
345.250427	852.029297	7106.534668	1124.200073	4.351595
345.617065	866.964111	6938.907715	1119.741943	4.163047
345.983704	859.385254	6775.888184	1115.878296	4.335214
346.350281	862.357361	6627.356934	1110.602661	4.306077
346.716827	856.413147	6463.965332	1100.051880	4.344832
347.083405	858.196472	6343.148438	1092.844360	4.278030
347.449860	857.676270	6240.536621	1096.039429	4.428188
347.816376	858.865173	6188.153809	1100.794800	4.539623
348.182770	860.722656	6168.463379	1111.271362	4.720440
348.549194	863.249023	6205.317871	1101.612183	4.462001
348.915558	852.177917	6307.855469	1108.522339	4.698672
349.281921	855.670166	6406.157715	1104.286987	4.479189
349.648193	852.103577	6459.804199	1112.311646	4.640192
350.014526	860.202576	6489.079590	1108.150757	4.404932
350.380737	855.967346	6523.407715	1118.850342	4.638478
350.746948	844.896240	6579.580566	1124.423096	4.874320
351.113159	842.147034	6634.267090	1137.203125	5.094095
351.479309	843.112976	6716.222656	1145.004883	5.140239
351.845428	842.072754	6846.698730	1141.735596	4.990533
352.211517	841.181152	6973.161621	1149.388794	5.026233
352.577576	844.301819	7135.290527	1153.252563	4.911005
352.943604	850.914795	7284.936035	1160.311279	4.808757
353.309601	852.252197	7473.293457	1161.648682	4.672928
353.675537	849.131531	7643.892578	1170.639282	4.731700
354.041473	851.955078	7805.426270	1191.295532	4.880159
354.407379	854.629883	7928.695313	1201.177856	4.898852
354.773254	856.338867	8102.637207	1216.855835	4.975188
355.139038	847.942627	8298.945313	1220.496582	5.000051
355.504913	848.537109	8589.691406	1231.864746	4.951815
355.870636	842.815735	8871.373047	1239.592285	4.942066
356.236389	848.462708	9196.670898	1257.425049	4.898804
356.602081	847.273926	9502.352539	1278.378418	4.980943
356.967804	852.920898	9757.805664	1287.814819	4.883768
357.333405	857.527649	9891.178711	1302.229614	4.922727
357.699036	852.177917	9910.200195	1304.755859	4.996432
358.064606	849.354431	9850.089844	1301.932251	5.028232
358.430176	844.376038	9767.018555	1295.616577	5.057252
358.795654	843.855957	9816.502930	1295.913696	5.038176
359.161163	841.775574	9987.845703	1312.334717	5.144932
359.526581	844.673279	10399.928711	1332.767944	5.108128
359.892029	848.388428	10962.995117	1356.173340	5.020313
360.257416	853.515320	11606.679688	1388.569336	4.975782
360.622772	853.292480	12185.051758	1419.182007	4.993836
360.988098	855.818787	12574.843750	1442.810181	5.008875
361.353394	859.831116	12781.034180	1448.308594	4.936393
361.718658	853.664001	12661.034180	1437.757690	4.946857
362.083893	858.419373	12238.327148	1418.364624	4.920473
362.449097	856.858948	11567.149414	1386.637329	4.946443
362.814209	863.100403	10814.983398	1345.696655	4.849296
363.179382	854.927063	10092.983398	1311.888916	4.946515
363.544434	852.549500	9522.934570	1288.111938	5.023565
363.909546	848.388489	9133.588867	1277.635254	5.180886
364.274536	850.691895	8928.364258	1262.923340	5.103344
364.639587	859.013855	8762.371094	1252.520996	4.978987
365.004517	852.995300	8689.183594	1245.536499	5.009338
365.369507	851.286316	8597.271484	1245.462280	5.088778
365.734344	837.168762	8561.903320	1242.861694	5.251869
366.099274	844.747620	8515.463867	1244.199097	5.207486
366.464081	842.518555	8463.377930	1238.180542	5.191829
366.828918	844.747559	8405.272461	1240.186646	5.230313
367.193665	851.360535	8331.043945	1233.202271	5.105052
367.558411	863.249023	8277.026367	1235.134155	5.016136
367.923126	866.295471	8180.357910	1224.508789	4.897597
368.287781	861.985840	8125.522949	1223.914429	4.982815
368.652435	849.725891	8082.873047	1219.233276	5.108529
369.017059	853.738281	8114.600098	1217.895752	5.015348
369.381653	858.568054	8127.603516	1216.409790	4.922822
369.746185	866.518372	8162.971191	1217.895874	4.815731
370.110687	859.756836	8255.924805	1220.422241	4.876382
370.475220	853.664001	8360.839844	1222.428345	4.912158
370.839661	852.623718	8465.680664	1219.233276	4.815536
371.204041	850.023132	8529.432617	1229.264160	4.938414
371.568451	847.199524	8531.438477	1232.013306	5.007832
371.932770	848.537109	8515.834961	1245.239258	5.173950
372.297150	854.258362	8453.495117	1241.375488	5.094158
372.661377	857.601990	8481.953125	1233.722290	4.933145
373.025696	852.920898	8504.836914	1218.267334	4.774575
373.389862	854.555481	8555.066406	1214.923828	4.679798
373.754059	855.818665	8609.828125	1233.648071	4.872697
374.118225	852.846619	8748.253906	1251.332153	5.047055
374.482361	848.165527	8956.450195	1262.849121	5.114320
374.846436	846.010742	9206.033203	1273.102783	5.108743
375.210510	852.697998	9523.676758	1290.712524	5.051500
375.574524	854.407043	9886.645508	1315.306763	5.102829
375.938538	851.657898	10264.177734	1326.972290	5.049810
376.302460	845.639343	10553.363281	1342.650146	5.119746
376.666412	845.787903	10752.421875	1353.944214	5.129455
377.030304	860.202637	10790.166992	1355.207397	4.984960
377.394196	860.053955	10678.711914	1348.223022	4.971851
377.757996	860.871338	10444.288086	1336.557495	4.963638
378.121796	844.747620	10090.383789	1320.656616	5.147391
378.485565	845.119141	9769.692383	1294.650635	5.037008
378.849304	846.753723	9469.583984	1272.211182	4.934082
379.212982	848.165527	9328.110352	1262.254517	4.883156
379.576630	850.171692	9203.208984	1264.557983	4.960906
379.940277	852.995300	9180.472656	1265.375366	4.952041
380.303864	861.762878	9131.952148	1263.517700	4.857867
380.667450	865.478027	9137.004883	1257.722168	4.742101
381.030945	862.505920	9131.506836	1251.183472	4.700418
381.394501	857.379089	9190.057617	1253.338379	4.751885
381.757935	856.858948	9276.992188	1257.276367	4.755476
382.121399	855.818787	9375.443359	1269.759155	4.858669
382.484741	858.345032	9530.290039	1278.675415	4.847014
382.848145	854.258362	9690.709961	1286.774536	4.894682
383.211487	855.372864	9838.645508	1294.650513	4.889951
383.574768	848.239807	9945.568359	1301.040527	4.977293
383.938019	851.211914	10011.772461	1308.916626	4.996470
384.301270	848.760010	10047.510742	1306.241821	4.973304
384.664459	853.069580	10074.706055	1299.480347	4.840906
385.027649	846.530945	10090.086914	1299.628906	4.901772
385.390778	847.868347	10213.948242	1313.003418	4.966166
385.753876	845.267822	10310.319336	1330.316040	5.124623
386.116943	849.131531	10452.757813	1348.743042	5.202322
386.479980	848.165527	10482.925781	1342.501587	5.130756
386.842987	846.382263	10545.859375	1342.575806	5.115673
387.205994	848.685730	10535.011719	1333.065186	5.000652
387.568909	845.267761	10538.280273	1334.328247	5.045495
387.931793	845.862244	10442.950195	1332.693604	5.072699
388.294678	844.896240	10398.293945	1333.362305	5.113009
388.657471	842.815735	10354.678711	1336.111572	5.186111
389.020294	845.342041	10426.456055	1341.609985	5.179647
389.383057	842.295654	10627.444336	1344.805054	5.135429
389.745819	848.388489	10868.629883	1356.767700	5.073523
390.108521	845.193420	11127.425781	1368.953247	5.093834
390.471191	851.063293	11414.085938	1391.169922	5.113183
390.833801	846.530823	11706.988281	1410.934448	5.196868
391.196442	844.599060	11956.942383	1414.946655	5.132559
391.558960	840.363770	12040.831055	1411.826050	5.102129
391.921509	836.797180	12010.885742	1405.436035	5.088906
392.284027	845.936523	11936.583008	1403.206909	5.024688
392.646484	850.840515	11859.606445	1403.652710	5.021564
393.008911	865.180969	11820.002930	1395.925293	4.844847
393.371307	865.106628	11827.284180	1407.813599	4.950722
393.733673	863.546204	11798.975586	1400.903442	4.913910
394.096008	849.948914	11721.254883	1409.299683	5.145203
394.458344	845.564941	11566.704102	1399.194458	5.163906
394.820587	837.317383	11327.968750	1399.417358	5.358104
395.182831	847.571106	11081.432617	1381.807617	5.220283
395.545013	848.165527	10795.739258	1363.009155	5.175570
395.907196	853.738342	10574.391602	1347.925659	5.083890
396.269287	851.880676	10445.848633	1340.123901	5.089065
396.631409	851.286316	10383.805664	1333.956909	5.063410
396.993469	847.422607	10345.316406	1332.099243	5.102991
397.355530	846.753845	10322.358398	1330.538696	5.105583
397.717499	848.611389	10374.889648	1336.037231	5.116645
398.079468	852.326477	10442.430664	1339.306519	5.077943
398.441376	857.676270	10468.583984	1340.123901	5.019793
398.803284	854.258362	10422.887695	1339.826660	5.074586
399.165131	855.298645	10390.046875	1330.836060	4.987414
399.526978	850.691833	10357.725586	1327.789673	5.018367
399.888763	848.314148	10348.437500	1327.938354	5.048611
400.250519	844.673340	10324.809570	1331.504761	5.135279
400.612244	842.221375	10340.263672	1332.544922	5.162364
400.973938	848.982910	10431.135742	1332.693481	5.048037
401.335602	844.673340	10551.729492	1337.969116	5.081827
401.697205	851.063477	10713.932617	1350.823608	5.067087
402.058807	851.880676	10898.277344	1357.733643	5.035168
402.420349	856.115967	11161.754883	1377.200806	5.056308
402.781860	852.623718	11431.547852	1395.479492	5.131484
403.143341	849.428711	11665.304688	1417.473022	5.251949
403.504822	857.304871	11895.270508	1423.342896	5.128101
403.866241	855.150085	12087.640625	1426.835083	5.089566
404.227631	858.047791	12246.872070	1423.491577	4.964900
404.588959	851.806335	12285.956055	1435.825806	5.107677
404.950287	853.961121	12233.422852	1434.562866	5.102190
405.311554	858.939453	12090.316406	1436.048828	5.138367
405.672821	857.750671	11928.930664	1419.330566	5.072449
406.034027	850.097412	11791.323242	1414.798218	5.161221
406.395203	837.911804	11598.059570	1399.417480	5.218383
406.756348	841.998474	11467.584961	1392.135742	5.177476
407.117493	845.044861	11372.179688	1390.872681	5.184961
407.478516	851.732117	11408.067383	1388.272095	5.082635
407.839600	847.422546	11491.881836	1392.804565	5.123624
408.200592	850.097412	11616.264648	1398.897461	5.097451
408.561554	850.246094	11786.195313	1413.609375	5.151480
408.922485	855.893066	11952.410156	1421.633911	5.098364
409.283417	848.462708	12082.440430	1425.274780	5.134531
409.644257	851.880676	12186.612305	1433.745239	5.133466
410.005096	841.924133	12252.221680	1440.135376	5.242731
410.365906	847.645447	12275.329102	1431.070435	5.105365
410.726715	837.317383	12271.019531	1429.881470	5.182609
411.087433	841.552734	12184.382813	1421.485352	5.112768
411.448120	849.725891	12124.569336	1424.680298	5.099444
411.808807	853.441101	12046.106445	1419.479126	5.057223
412.169434	854.035461	12015.940430	1416.804321	5.041871
412.530029	845.267761	12044.620117	1419.182007	5.124531
412.890564	844.747620	12127.393555	1428.990112	5.178240
413.251099	850.914734	12313.520508	1436.420288	5.107962
413.611572	854.481262	12452.690430	1442.067383	5.066180
413.972076	853.589661	12603.375977	1439.689575	4.988175
414.332489	856.190247	12722.780273	1449.125977	4.996682
414.692871	855.521545	12974.370117	1472.085571	5.087645
415.053223	856.784668	13198.913086	1487.540527	5.110592
415.413574	848.091309	13516.481445	1511.911743	5.239974
415.773834	854.258362	13758.114258	1514.066528	5.113264
416.134094	852.252258	14093.961914	1531.081665	5.126448
416.494263	851.955078	14421.860352	1550.549194	5.148113
416.854462	843.930359	14869.385742	1571.502441	5.187511
417.214630	846.010803	15347.226563	1595.502319	5.168474
417.574738	852.549377	15797.426758	1605.310181	5.036915
417.934784	856.338867	16319.479492	1630.350220	5.005525
418.294861	860.202637	16923.708984	1659.848511	4.978028
418.654846	856.784668	17649.349609	1690.832886	4.966771
419.014832	859.979675	18378.035156	1729.321655	4.962549
419.374756	850.617493	19157.396484	1765.135376	4.995515
419.734680	853.664001	19943.593750	1811.203125	5.015938
420.094543	847.868347	20587.423828	1836.020142	5.005948
420.454376	862.208801	20983.978516	1849.023071	4.904212
420.814148	858.270813	21232.150391	1850.583618	4.870515
421.173920	860.054016	21438.564453	1853.109863	4.825694
421.533691	854.629883	21534.044922	1859.797241	4.860715
421.893341	852.549377	21580.482422	1876.663696	4.940744
422.253021	846.159363	21530.255859	1880.453247	5.000431
422.612640	840.363770	21527.429688	1875.474976	5.003664
422.972260	843.856018	21507.888672	1860.985840	4.922223
423.331757	851.955078	21621.943359	1862.026245	4.863128
423.691315	855.744446	21800.494141	1883.722656	4.908048
424.050781	858.567932	21852.208984	1886.025879	4.894139
424.410248	852.400818	21653.003906	1876.812378	4.924913
424.769653	847.273926	21309.353516	1847.091309	4.886196
425.128998	844.673340	20898.757813	1822.125610	4.874081
425.488373	852.846680	20391.937500	1803.698608	4.866408
425.847656	857.304871	19901.984375	1786.014526	4.876478
426.206940	850.840515	19392.861328	1772.268433	4.969404
426.566193	841.998535	18947.861328	1750.274780	5.016476
426.925385	845.787903	18443.421875	1732.813599	5.040596
427.284576	847.348145	17931.400391	1708.665405	5.041645
427.643677	853.589600	17557.732422	1692.913086	5.024643
428.002777	850.543213	17268.173828	1672.256958	5.005069
428.361847	860.945618	17015.099609	1653.309937	4.905019
428.720856	860.202637	16717.369141	1639.638184	4.915352
429.079865	857.676270	16554.794922	1628.269897	4.909141
429.438812	850.543213	16522.695313	1620.765137	4.914589
429.797760	848.982849	16503.673828	1612.071655	4.874506
430.156616	845.416321	16372.528320	1609.396851	4.920300
430.515503	843.707336	16281.285156	1612.666382	4.981086
430.874268	839.546387	16294.214844	1615.489868	5.020771
431.233093	840.140869	16391.328125	1625.149048	5.047899
431.591827	850.468933	16577.904297	1636.666016	4.998889
431.950562	849.577332	16720.193359	1640.158203	4.981412
432.309204	853.663879	16883.511719	1647.811401	4.954180
432.667877	847.348206	17064.882813	1657.693726	4.996725
433.026459	854.629883	17199.296875	1675.451782	5.021955
433.385010	856.115906	17328.732422	1672.108398	4.953630
433.743561	858.493652	17345.525391	1666.981445	4.903780
434.102051	847.199646	17385.054688	1659.031250	4.908929
434.460510	852.772278	17409.054688	1659.997070	4.875640
434.818939	847.868347	17378.812500	1660.814453	4.917724
435.177338	857.602051	17317.216797	1668.616211	4.927297
435.535675	848.388489	17275.902344	1672.034180	5.013818
435.894012	851.211914	17261.935547	1667.724609	4.975483
436.252289	847.571106	17472.433594	1670.622437	4.950726
436.610535	851.509216	17552.607422	1676.492188	4.939693
436.968719	847.942688	17862.820313	1696.999878	4.990087
437.326935	850.617615	18150.072266	1714.683960	4.994761
437.685028	845.342041	18540.757813	1728.430054	4.990490
438.043152	853.589661	18797.697266	1741.284180	4.946997
438.401215	854.555603	19122.771484	1753.395630	4.920239
438.759277	863.249023	19512.787109	1773.531616	4.880992
439.117249	856.858887	20123.552734	1801.395142	4.902431
439.475250	865.032227	20545.220703	1826.955200	4.887774
439.833130	863.323242	21066.083984	1862.472046	4.945605
440.191071	868.153015	21271.382813	1869.382202	4.907209
440.548889	853.886902	21498.970703	1866.558594	4.905147
440.906708	854.704163	21379.716797	1850.509155	4.851666
441.264496	849.874512	21175.234375	1841.221313	4.877389
441.622223	861.019836	20825.492188	1833.716797	4.872139
441.979950	864.289246	20509.630859	1821.679688	4.873371
442.337616	869.564758	20260.271484	1804.664551	4.822412
442.695251	864.735046	19969.080078	1794.930786	4.869027
443.052887	861.614258	19840.238281	1786.683228	4.874268
443.410461	852.177917	19932.298828	1794.708008	4.939854
443.768005	851.286194	20210.041016	1797.159790	4.886025
444.125458	847.199646	20521.816406	1812.392090	4.905775
444.482941	848.165527	20900.314453	1838.546509	4.939027
444.840393	852.400879	21419.244141	1880.453247	4.998591
445.197754	858.270752	21946.869141	1912.403442	4.998591
445.555084	863.249023	22407.099609	1919.610840	4.903310
445.912415	861.242859	22765.164063	1920.576782	4.836276
446.269714	855.595764	22999.812500	1923.623413	4.823054
446.626953	851.657715	23002.337891	1929.493164	4.865925
446.984161	847.348206	22844.000000	1917.233032	4.863853
447.341309	846.753845	22552.585938	1904.230103	4.871853
447.698456	848.239929	22227.958984	1886.397461	4.855805
448.055542	849.057190	21954.078125	1882.310669	4.895771
448.412598	848.016907	21580.853516	1865.072388	4.905530
448.769653	848.760010	21187.050781	1851.772095	4.931644
449.126617	856.190247	20651.105469	1819.970703	4.868828
449.483582	864.289307	20296.382813	1804.218628	4.836995
449.840515	866.444031	19924.720703	1793.667603	4.865201
450.197388	859.905457	19691.857422	1790.398438	4.941033
450.554230	862.951843	19494.507813	1776.429565	4.902853
450.911041	859.756836	19457.802734	1772.416992	4.907290
451.267822	861.391418	19513.455078	1772.565796	4.885113
451.624573	856.115967	19574.382813	1784.900024	4.961913
451.981262	860.796936	19507.882813	1785.345825	4.958141
452.337921	861.762939	19308.009766	1776.132202	4.956940
452.694580	860.351135	18936.048828	1747.748657	4.909340
453.051147	853.886902	18706.453125	1727.909790	4.895783
453.407715	848.982910	18318.220703	1714.386719	4.953873
453.764221	852.103577	18165.751953	1712.454712	4.969208
454.120728	859.088074	17731.230469	1700.492065	4.986942
454.477142	858.270691	17641.916016	1690.386841	4.957899
454.833557	859.682434	17525.484375	1683.996948	4.946144
455.189911	856.041687	17556.171875	1680.058960	4.934196
455.546265	862.357361	17625.126953	1690.906860	4.942796
455.902557	857.304871	17677.064453	1690.758423	4.955205
456.258820	856.190369	17941.433594	1708.219604	4.986930
456.615051	853.812683	18237.455078	1717.210327	4.966724
456.971252	849.131531	18611.791016	1736.900391	4.997950
457.327393	846.902527	19224.712891	1763.055054	4.985102
457.683502	846.085144	19955.630859	1793.073242	4.955576
458.039612	849.205750	20981.378906	1839.586792	4.919394
458.395630	848.239929	22013.962891	1883.276855	4.890156
458.751648	843.187317	22920.458984	1939.003906	4.963551
459.107605	844.970520	23778.802734	1983.882813	4.966080
459.463562	847.794006	24115.095703	2008.105469	4.986876
459.819458	855.521484	24110.490234	2001.121094	4.926257
460.175323	847.422546	23557.974609	1960.625977	4.901701
460.531158	847.051025	22836.125000	1914.558105	4.854716
460.886932	846.010742	21982.384766	1870.125122	4.845270
461.242676	853.441101	21154.654297	1837.134766	4.845492
461.598419	859.533875	20488.083984	1815.735718	4.871485
461.954102	856.041687	19848.115234	1789.878296	4.916981
462.309723	858.493652	19281.259766	1777.692749	4.989474
462.665344	849.725891	18838.638672	1749.308960	5.000764
463.020905	854.109802	18597.302734	1735.414429	4.967001
463.376373	856.858948	18557.478516	1718.398926	4.867287
463.731873	858.270752	18501.675781	1727.463867	4.926448
464.087341	855.372986	18529.390625	1730.956055	4.954069
464.442749	855.893066	18627.468750	1735.339966	4.948615
464.798126	856.115906	18763.740234	1737.569214	4.922224
465.153503	858.790833	18978.845703	1745.891113	4.895682
465.508820	852.252197	19166.980469	1753.098267	4.918697
465.864105	854.184082	19349.837891	1756.887695	4.880625
466.219330	852.400879	19672.982422	1773.383179	4.893485
466.574524	857.750671	19742.974609	1779.921875	4.883030
466.929657	861.540039	19657.601563	1780.739136	4.890381
467.284790	864.809387	19393.085938	1762.906372	4.847169
467.639893	865.032288	19136.146484	1759.042603	4.893026
467.994934	860.499817	18937.162109	1743.216187	4.883183
468.349945	859.088074	18629.625000	1740.244141	4.958522
468.704926	856.338806	18433.017578	1728.950073	4.964597
469.059875	857.156067	18250.085938	1718.324829	4.951258
469.414764	855.967285	18194.431641	1702.349609	4.881530
469.769653	853.589661	18177.267578	1702.943970	4.902852
470.124451	858.716614	18270.666016	1705.767578	4.864768
470.479248	848.908691	18314.804688	1702.869629	4.889305
470.834015	844.599060	18370.976563	1704.504272	4.906349
471.188721	839.695068	18596.337891	1721.668335	4.967005
471.543365	845.936340	18904.248047	1752.875366	5.022280
471.898010	849.725830	19208.591797	1768.924805	5.006840
472.252625	848.611328	19529.058594	1780.961914	4.991051
472.607178	859.236633	19803.234375	1789.135254	4.908671
472.961700	858.493652	19927.767578	1790.324097	4.886555
473.316193	863.100342	19943.220703	1796.342651	4.891176
473.670654	859.756775	19887.939453	1794.484985	4.912335
474.025055	858.344971	19968.630859	1798.571655	4.920003
474.379456	856.487366	20032.904297	1799.314575	4.916597
474.733795	855.670105	20156.171875	1812.614868	4.958134
475.088104	859.162354	20449.296875	1826.509399	4.937930
475.442383	854.109802	20823.337891	1849.840332	4.986324
475.796570	849.057129	21219.000000	1868.564819	5.004961
476.150787	845.490662	21685.324219	1891.227173	5.017970
476.504944	847.051025	22099.710938	1912.997925	5.015593
476.859070	847.794128	22565.958984	1930.979126	4.987462
477.213135	851.509216	22854.404297	1944.651001	4.968173
477.567200	859.385254	23188.244141	1959.437134	4.926592
477.921173	850.320313	23484.490234	1971.771362	4.954681
478.275146	847.868347	23788.312500	1972.514282	4.902460
478.629089	838.506165	24082.998047	1991.461426	4.960123
478.983002	846.530823	24544.712891	2014.421021	4.928185
479.336823	841.701172	25130.218750	2052.761475	4.986143
479.690643	844.153259	25928.083984	2074.234619	4.903862
480.044403	841.404053	26871.650391	2111.386230	4.878871
480.398163	842.518555	28170.615234	2175.360596	4.877186
480.751862	844.153259	29973.794922	2269.799561	4.894143
481.105499	841.404053	32390.117188	2386.751953	4.898292
481.459137	844.821960	35807.746094	2566.861816	4.925331
481.812744	847.422546	40251.339844	2800.321045	4.956102
482.166290	858.345032	45601.136719	3092.182373	4.992620
482.519806	852.252197	50804.410156	3386.866455	5.074084
482.873291	836.945801	54928.511719	3652.647217	5.205435
483.226715	835.162598	57529.402344	3843.976807	5.307090
483.580139	839.620789	58557.156250	3934.477783	5.362074
483.933502	848.016907	58309.957031	3899.332275	5.310150
484.286804	843.633118	56899.839844	3771.085938	5.222353
484.640106	843.558838	54705.675781	3570.617188	5.063036
484.993347	848.314209	52113.105469	3384.042969	4.946336
485.346558	852.326599	49914.636719	3249.109375	4.885181
485.699738	860.722717	48662.261719	3192.862549	4.878797
486.052887	855.893066	48658.546875	3207.202881	4.918785
486.405975	850.840515	49440.656250	3269.542969	4.977797
486.759064	852.475098	50494.871094	3332.477295	4.995734
487.112061	858.493591	51113.062500	3360.117920	4.977904
487.464996	862.877441	50936.449219	3329.430664	4.925858
487.817963	855.818665	49931.875000	3267.016357	4.913186
488.170868	856.041687	48194.082031	3149.246826	4.844318
488.523743	862.728943	46121.113281	3036.529297	4.803089
488.876587	861.019958	43976.144531	2924.554932	4.786104
489.229401	865.329529	42457.839844	2875.589600	4.833226
489.582153	854.109863	41901.164063	2843.936523	4.847672
489.934845	853.143860	42329.519531	2873.509033	4.871123
490.287537	839.026367	43519.996094	2920.914063	4.877789
490.640198	843.558838	44877.730469	3001.458252	4.900511
490.992798	844.821960	45855.703125	3043.365234	4.884470
491.345337	852.326477	45889.808594	3033.631592	4.843311
491.697876	851.434875	44721.769531	2968.988037	4.826845
492.050354	855.521545	42692.781250	2850.846924	4.769255
492.402832	855.224365	39939.125000	2715.913330	4.760756
492.755219	858.790833	37024.746094	2562.626465	4.711159
493.107605	850.691895	34171.894531	2442.181641	4.776207
493.459930	850.320313	31871.037109	2331.470703	4.774714
493.812225	844.821960	30184.587891	2255.607666	4.808442
494.164490	852.400879	29164.265625	2201.441162	4.764929
494.516724	852.475159	28548.443359	2195.273926	4.848355
494.868896	848.537109	28359.193359	2198.246094	4.906132
495.221039	844.747620	28462.177734	2200.029053	4.907341
495.573120	847.125305	28775.287109	2205.750488	4.864714
495.925201	860.128235	29112.546875	2209.391357	4.775744
496.277222	859.756836	29390.142578	2234.728516	4.819324
496.629211	858.196472	29470.537109	2243.942383	4.843175
496.981140	852.772400	29359.904297	2250.406494	4.902752
497.333069	858.567932	29063.140625	2239.707031	4.896863
497.684967	857.527649	28672.677734	2220.685303	4.900774
498.036804	858.493591	28161.250000	2189.998291	4.876814
498.388580	851.063293	27622.484375	2165.032715	4.908105
498.740326	851.360596	27081.263672	2132.116699	4.882809
499.092072	847.348328	26571.992188	2113.318115	4.921233
499.443756	855.521545	26077.208984	2086.643555	4.881204
499.795410	854.704285	25667.578125	2073.566162	4.912216
500.147003	860.351257	25359.515625	2055.138916	4.876851
500.498566	862.060120	25051.087891	2033.442749	4.842619
500.850098	869.341797	24812.576172	2026.012329	4.830887
501.201599	861.911560	24545.162109	2006.990845	4.834976
501.553009	856.710388	24421.521484	2000.154907	4.852339
501.904449	851.657715	24364.828125	1989.604004	4.839612
502.255859	849.577332	24447.228516	1997.851563	4.866053
502.607178	850.914734	24582.609375	2008.105347	4.876140
502.958405	846.307922	24688.193359	2019.325073	4.919985
503.309692	855.595886	24745.257813	2027.126953	4.903924
503.660919	853.812561	24782.484375	2032.105103	4.924187
504.012115	862.357361	24751.720703	2038.049438	4.921404
504.363251	859.459534	24730.916016	2036.934937	4.932566
504.714294	854.406921	24646.437500	2030.990723	4.945285
505.065369	848.016907	24606.833984	2014.049683	4.907790
505.416443	850.320313	24438.687500	2009.071289	4.912383
505.767395	854.852844	24382.587891	2001.492310	4.873565
506.118317	851.955017	24318.908203	2007.436646	4.923868
506.469238	842.295593	24460.755859	2014.866821	4.964639
506.820160	844.376038	24680.093750	2039.981079	5.016023
507.170929	853.292480	24972.326172	2043.696289	4.935537
507.521729	863.546204	25293.015625	2045.851196	4.839667
507.872498	863.917786	25556.568359	2036.414917	4.748364
508.223236	859.162354	25847.687500	2053.355713	4.778967
508.573883	856.413147	26062.867188	2068.142090	4.807218
508.924500	855.818665	26292.314453	2097.417236	4.881170
509.275116	849.280090	26483.197266	2114.878418	4.937202
509.625702	848.982910	26750.390625	2124.017578	4.922646
509.976196	850.691833	26921.806641	2122.011475	4.876353
510.326660	854.406921	27120.271484	2137.243408	4.884044
510.677124	854.555603	27275.490234	2147.274414	4.892782
511.027557	848.982910	27479.375000	2164.438232	4.939677
511.377869	854.481262	27680.736328	2158.419678	4.860680
511.728180	850.171692	27785.054688	2167.113037	4.889353
512.078430	851.732117	27748.943359	2160.723145	4.866642
512.428650	850.989075	27621.291016	2151.361084	4.857517
512.778931	852.846619	27451.138672	2141.107178	4.843395
513.129028	855.670105	27289.458984	2131.299072	4.825751
513.479126	853.738281	27139.365234	2123.943359	4.832318
513.829285	859.459534	27018.103516	2119.930908	4.818565
514.179382	854.704163	26905.681641	2111.311768	4.823649
514.529297	856.710388	26864.072266	2113.541016	4.832595
514.879272	852.029297	26974.710938	2121.416992	4.859332
515.229187	856.933289	27123.912109	2131.299072	4.851589
515.579163	854.481262	27537.109375	2149.577637	4.853706
515.928955	850.691833	28049.720703	2173.651611	4.863996
516.278748	850.097473	28823.880859	2217.193115	4.887061
516.628540	844.599060	29667.140625	2250.183594	4.876685
516.978333	843.781738	30703.890625	2296.622803	4.865491
517.327942	839.472168	31783.509766	2347.891602	4.874669
517.677612	844.599060	32690.671875	2397.154297	4.875186
518.027222	842.815735	33283.605469	2421.376953	4.865977
518.376831	839.100647	33518.328125	2419.668213	4.836613
518.726379	840.883850	33343.046875	2409.191406	4.825241
519.075867	845.639221	32732.875000	2380.733398	4.814134
519.425293	850.171692	31944.228516	2355.173096	4.840158
519.774658	845.193420	31081.500000	2318.542236	4.872781
520.124084	844.450439	30397.689453	2290.455811	4.892883
520.473389	854.184082	29796.060547	2266.604492	4.880196
520.822693	859.533875	29364.361328	2249.886475	4.877604
521.171997	860.054016	29088.177734	2232.202393	4.860927
521.521240	850.840515	28952.576172	2228.412842	4.902090
521.870361	847.051025	29043.744141	2232.945313	4.915095
522.219482	851.732117	29226.380859	2245.874023	4.913336
522.568604	851.211975	29620.703125	2248.994873	4.858560
522.917664	854.927063	30095.572266	2266.158447	4.826267
523.266724	850.691895	30839.865234	2305.539063	4.851241
523.615662	858.642273	31781.130859	2354.802002	4.838419
523.964600	862.283142	33059.957031	2419.296875	4.835795
524.313538	862.877502	34415.089844	2478.739014	4.815961
524.662354	854.035461	35919.718750	2562.329346	4.871697
525.011169	846.307922	37373.527344	2632.991211	4.891375
525.359985	846.382324	38898.886719	2709.225830	4.895456
525.708740	846.976746	40453.597656	2778.921875	4.877833
526.057434	850.766113	42203.351563	2860.357666	4.859652
526.406067	852.698059	44367.562500	2973.223389	4.873106
526.754700	861.911560	47206.375000	3136.689453	4.908413
527.103333	867.484192	50439.437500	3344.662842	4.997138
527.451782	859.310974	53633.488281	3557.093994	5.111938
527.800293	851.583435	55972.761719	3717.365234	5.199057
528.148743	840.363770	57366.605469	3825.772705	5.281456
528.497131	844.821960	57588.769531	3829.710938	5.260277
528.845642	844.004578	56727.453125	3730.145264	5.164571
529.193909	842.890076	54871.000000	3552.784424	5.015712
529.542175	845.267761	52071.792969	3344.662842	4.879103
529.890503	840.066589	48702.906250	3144.862549	4.815418
530.238770	855.893066	45355.574219	2965.718750	4.741215
530.586914	861.688660	42761.589844	2846.760010	4.737651
530.934998	867.707092	41243.433594	2789.027100	4.758602
531.283142	861.391418	40921.847656	2784.271484	4.799945
531.631226	855.818787	41428.000000	2820.457031	4.842329
531.979248	855.447266	42581.550781	2888.369385	4.872063
532.327148	855.967285	43891.359375	2945.657227	4.855748
532.675110	853.961182	44987.250000	2995.440186	4.852299
533.023071	853.663879	45404.687500	3003.167236	4.824813
533.370850	852.326477	44798.593750	2973.743408	4.827298
533.718689	848.388489	43478.605469	2899.663818	4.811787
534.066467	839.695007	41767.417969	2807.379639	4.807706
534.414246	835.905579	40062.324219	2719.851074	4.802747
534.761963	840.809570	38693.886719	2665.312744	4.819960
535.109619	855.893005	37823.281250	2634.254150	4.810622
535.457153	860.202637	37446.937500	2625.114990	4.823913
535.804749	867.632813	37308.882813	2611.220459	4.784654
536.152344	867.112793	37224.847656	2607.951172	4.788083
536.499817	857.750549	36916.414063	2585.288818	4.790911
536.847229	851.286194	36319.691406	2547.468994	4.782236
537.194641	846.382263	35391.277344	2501.772705	4.791997
537.542114	856.413086	34337.816406	2464.175293	4.801956
537.889404	849.577332	33472.410156	2428.361328	4.839506
538.236694	846.679504	32948.277344	2408.671387	4.865777
538.583984	833.007813	33093.687500	2416.547607	4.908576
538.931213	836.500000	33873.941406	2463.878418	4.925861
539.278381	838.877686	35398.933594	2545.685547	4.938673
539.625488	846.233704	37459.570313	2655.802002	4.942375
539.972595	848.537109	40200.152344	2777.064209	4.900757
540.319641	847.942688	42976.468750	2907.391357	4.888490
540.666687	850.320313	45296.421875	3008.294189	4.855260
541.013611	855.224304	46608.015625	3078.064453	4.858370
541.360596	854.629883	46932.496094	3085.271729	4.841027
541.707458	858.493652	46275.808594	3045.965576	4.816383
542.054260	862.506042	44816.050781	2979.539063	4.816524
542.401062	872.908386	42955.074219	2878.784424	4.766571
542.747864	866.295410	40929.652344	2783.454102	4.785317
543.094666	861.242859	38897.843750	2664.941162	4.742007
543.441284	852.177917	36807.042969	2569.611084	4.776637
543.787903	858.790833	35028.527344	2493.748047	4.784811
544.134460	854.778503	33489.574219	2441.661865	4.862550
544.481079	852.029297	32497.259766	2388.015381	4.853768
544.827637	847.571106	31737.962891	2342.839111	4.840560
545.174072	852.846619	31359.015625	2323.520508	4.820906
545.520508	859.608215	31194.138672	2330.727783	4.849653
545.866943	862.728821	31125.259766	2329.241943	4.845970
546.213318	858.790833	31068.642578	2326.492432	4.858355
546.559631	854.406982	30740.523438	2301.898193	4.843357
546.905823	849.874512	30250.718750	2271.211182	4.834340
547.252136	850.617493	29378.107422	2225.440674	4.819293
547.598389	853.441101	28379.179688	2175.063721	4.801406
547.944458	854.332703	27307.437500	2132.711182	4.832621
548.290588	850.097473	26244.462891	2077.355469	4.832797
548.636658	848.239929	25216.634766	2025.418091	4.830758
548.982727	849.502991	24326.562500	1990.272827	4.859083
549.328735	853.886780	23653.900391	1960.700195	4.854442
549.674622	855.149963	23143.142578	1937.889160	4.857949
550.020569	858.939453	22815.914063	1910.768921	4.790411
550.366455	861.540039	22574.501953	1904.007324	4.801129
550.712280	861.540039	22506.294922	1901.703979	4.805617
551.058044	854.332703	22530.890625	1905.344727	4.848611
551.403748	846.159424	22627.556641	1907.648071	4.873373
551.749512	847.645447	22818.736328	1920.353882	4.882363
552.095154	846.828125	22993.126953	1932.167969	4.900773
552.440735	853.961243	23166.251953	1939.523926	4.865313
552.786316	850.989075	23140.765625	1944.576538	4.906229
553.131897	848.462830	22963.255859	1926.149414	4.873147
553.477417	841.701172	22624.431641	1907.499390	4.892859
553.822815	842.221375	22228.546875	1889.592407	4.897387
554.168213	850.766113	21836.455078	1881.493530	4.911573
554.513672	852.772278	21466.947266	1877.406860	4.970533
554.859009	850.246033	21103.904297	1855.487671	4.963260
555.204285	843.781738	20810.929688	1839.140991	4.984984
555.549500	840.215149	20604.070313	1821.457031	4.964830
555.894714	840.289490	20407.541016	1822.868774	5.021550
556.239990	841.849792	20214.947266	1808.082520	4.987497
556.585022	849.874512	20037.662109	1796.937012	4.935757
556.930115	856.264465	19932.298828	1785.865845	4.873137
557.275146	855.893066	19776.933594	1787.351929	4.922873
557.620178	847.719788	19661.466797	1783.636719	4.974644
557.965149	840.512390	19544.068359	1773.308716	4.987267
558.310059	837.094421	19514.421875	1769.073364	4.989894
558.654968	843.112976	19420.353516	1763.277832	4.953184
558.999756	846.159363	19454.384766	1764.689575	4.936152
559.344604	853.218079	19471.697266	1757.333618	4.856012
559.689331	849.948730	19550.531250	1762.460571	4.879591
560.033997	846.679504	19550.976563	1761.866211	4.892922
560.378723	849.354492	19678.033203	1773.085815	4.905980
560.723389	856.116028	19757.613281	1772.640015	4.848949
561.067932	855.818787	19864.164063	1783.265259	4.879154
561.412476	849.800232	19800.857422	1780.367554	4.910372
561.757019	846.679504	19761.031250	1781.928101	4.944651
562.101501	849.354431	19666.591797	1771.005493	4.897908
562.445862	849.874512	19621.267578	1764.541016	4.872662
562.790222	849.725891	19563.162109	1754.807251	4.836532
563.134644	854.481262	19554.470703	1757.407837	4.828487
563.478943	856.933289	19595.039063	1767.364380	4.858715
563.823181	855.150085	19703.966797	1781.036133	4.912171
564.167358	844.524719	19901.462891	1794.782227	4.986413
564.511536	841.701233	20232.185547	1815.438477	5.021727
564.855774	842.815735	20612.986328	1836.094604	5.024129
565.199768	848.165710	21052.115234	1857.642212	4.996432
565.543823	845.565002	21397.845703	1864.626831	4.958388
565.887817	844.004639	21712.517578	1871.536987	4.923841
566.231812	844.301758	21765.794922	1861.654785	4.862717
566.575745	855.967285	21704.939453	1852.069702	4.777705
566.919617	860.871277	21482.552734	1845.233765	4.773435
567.263428	864.586426	21152.574219	1832.007813	4.768444
567.607239	857.750549	20821.183594	1833.642578	4.888398
567.950989	858.047852	20478.201172	1821.977051	4.912955
568.294678	861.242859	20329.447266	1808.230957	4.864281
568.638367	865.552429	20194.363281	1798.720093	4.827859
568.981995	858.345032	20187.900391	1782.447754	4.780776
569.325623	851.137695	20227.355469	1788.243530	4.836371
569.669128	850.840515	20327.962891	1791.884277	4.831534
570.012573	857.304688	20530.732422	1813.283569	4.859239
570.356140	865.700989	20815.460938	1837.283203	4.870145
570.699524	858.047791	21128.718750	1847.537109	4.881384
571.042908	856.933289	21495.851563	1863.363647	4.876372
571.386230	856.561768	21792.988281	1877.109741	4.874509
571.729492	860.945618	22028.007813	1894.348022	4.882124
572.072815	859.608215	22040.492188	1899.920532	4.911562
572.416016	850.989075	21900.353516	1890.187012	4.936956
572.759094	854.555603	21647.875000	1871.611328	4.891262
573.102234	849.800232	21413.748047	1850.434937	4.865966
573.445374	857.824890	21224.794922	1837.654907	4.810877
573.788391	854.778503	21117.130859	1834.459839	4.834983
574.131409	856.041687	21025.144531	1834.459839	4.851074
574.474365	851.657776	20972.759766	1838.917969	4.906591
574.817261	851.063293	20867.771484	1832.750977	4.904341
575.160156	855.447266	20654.445313	1827.921265	4.911734
575.502930	855.224304	20322.833984	1808.528198	4.896872
575.845703	855.298645	19985.794922	1788.020508	4.875576
576.188477	859.756836	19641.626953	1773.680298	4.865987
576.531250	856.710388	19277.765625	1758.819702	4.897164
576.873901	852.846680	18888.644531	1736.380371	4.898778
577.216431	848.908508	18525.378906	1711.414673	4.879403
577.559082	849.651611	18152.601563	1693.136108	4.874802
577.901611	857.824890	17768.826172	1680.950562	4.867397
578.244080	854.555664	17371.380859	1662.226196	4.889987
578.586487	858.047852	17094.306641	1651.600952	4.887537
578.928955	895.199219	16923.632813	1684.665649	4.925412
579.271301	895.422058	16795.312500	1675.526367	4.906350
579.613647	896.090820	16609.927734	1654.572876	4.826842
579.955872	855.521545	16372.606445	1604.344360	4.825796
580.298157	866.369812	16201.485352	1593.273315	4.740124
580.640320	867.484314	16066.031250	1586.734497	4.732361
580.982483	863.471985	15987.418945	1583.688110	4.762091
581.324524	857.824890	15923.370117	1584.728394	4.824940
581.666626	858.493652	15846.838867	1594.239136	4.908784
582.008728	866.072571	15734.789063	1588.666504	4.859827
582.350647	860.425537	15657.438477	1590.524048	4.934094
582.692566	858.642273	15568.054688	1573.434448	4.859420
583.034424	852.400879	15535.956055	1575.068970	4.921616
583.376343	855.521484	15416.179688	1568.233032	4.894775
583.718201	848.314148	15371.151367	1564.740845	4.933105
584.059937	854.406921	15273.964844	1558.276733	4.881355
584.401611	843.707336	15207.464844	1549.731812	4.915318
584.743347	843.410156	15153.745117	1562.289063	5.023495
585.085022	833.825195	15104.704102	1566.375610	5.133183
585.426514	842.518555	15088.059570	1572.988647	5.127710
585.768127	852.400818	15100.020508	1567.936035	5.022139
586.109619	853.738281	15148.317383	1565.335449	4.978091
586.451172	854.406921	15188.887695	1565.632690	4.961643
586.792542	848.239929	15232.057617	1565.112427	4.983882
587.133850	856.190247	15255.909180	1562.066040	4.902011
587.475220	852.623718	15273.741211	1560.134277	4.906073
587.816589	856.710388	15343.140625	1559.539673	4.851639
588.157776	854.704285	15465.739258	1573.137329	4.917058
588.498962	855.075684	15612.041992	1577.298218	4.894112
588.840210	849.205811	15685.082031	1581.087524	4.933188
589.181335	852.846680	15750.988281	1577.223755	4.862197
589.522400	861.242859	15774.245117	1582.648071	4.837424
589.863403	861.465820	15805.155273	1594.164917	4.903067
590.204407	859.608154	15734.195313	1590.524048	4.913857
590.545410	854.927063	15653.055664	1579.824585	4.898575
590.886353	854.778503	15477.924805	1563.180664	4.844389
591.227112	852.252197	15366.545898	1557.533691	4.859220
591.567932	847.273926	15249.890625	1562.883423	4.968607
591.908752	847.719727	15180.714844	1553.001343	4.920685
592.249512	841.998474	15174.325195	1550.326538	4.942171
592.590149	844.524719	15141.409180	1544.902344	4.898813
592.930786	848.908630	15239.786133	1555.676147	4.911219
593.271423	852.177917	15368.700195	1561.100220	4.883554
593.612000	845.787842	15603.645508	1569.719360	4.905397
593.952576	846.828064	15778.851563	1578.784180	4.901922
594.292969	846.307922	15927.307617	1586.511719	4.908188
594.633484	848.834290	16105.561523	1597.582886	4.907662
594.973877	841.181152	16339.391602	1611.997559	4.973583
595.314209	844.450439	16667.068359	1630.573242	4.968349
595.654480	846.307922	17016.585938	1637.706421	4.894155
595.994812	854.035461	17401.474609	1645.731079	4.784400
596.335022	856.041687	17695.341797	1654.498657	4.741628
596.675171	859.236633	17816.529297	1672.554321	4.796271
597.015320	857.304871	17741.556641	1677.012329	4.854864
597.355408	852.995300	17431.937500	1664.380981	4.894074
597.695496	852.995300	17043.259766	1641.124146	4.867918
598.035461	847.719727	16456.046875	1608.282593	4.872802
598.375366	845.639343	15905.090820	1581.756226	4.888072
598.715271	849.057190	15391.288086	1553.149780	4.841710
599.055176	862.803223	15012.046875	1543.044556	4.807616
599.395081	862.580261	14694.774414	1529.149902	4.818973
599.734802	859.979736	14447.495117	1519.044922	4.850520
600.074524	851.583435	14318.655273	1502.029419	4.829899
600.414246	860.945618	14244.128906	1502.103882	4.790775
600.753906	865.478088	14264.338867	1506.338989	4.782951
601.093506	864.363586	14308.846680	1514.958130	4.839119
601.433044	862.877502	14483.605469	1520.159180	4.825599
601.772583	855.447266	14678.799805	1530.041626	4.880107
602.112122	855.372864	15004.692383	1549.806152	4.907892
602.451538	848.091248	15412.985352	1575.886353	4.996913
602.790894	857.304749	15879.679688	1588.740845	4.868978
603.130310	859.608154	16385.607422	1605.384644	4.803404
603.469604	863.249023	16859.435547	1619.130493	4.725386
603.808838	859.236633	17279.392578	1650.412109	4.818319
604.148010	863.174622	17577.275391	1668.690430	4.819378
604.487305	862.431641	17698.833984	1673.891602	4.819675
604.826416	853.664001	17639.318359	1660.517212	4.806802
605.165527	848.388489	17335.642578	1644.690796	4.829805
605.504456	845.862244	16895.546875	1624.554688	4.851762
605.843445	855.967285	16346.895508	1609.025391	4.861285
606.182434	847.199646	15779.074219	1586.288696	4.949740
606.521423	852.698059	15281.023438	1563.180664	4.924221
606.860229	845.044861	14882.463867	1538.214844	4.938016
607.199036	854.258484	14677.758789	1526.029297	4.859629
607.537903	850.840515	14587.854492	1523.948730	4.899961
607.876648	857.156189	14682.885742	1525.880737	4.836812
608.215271	854.035461	14884.247070	1537.397461	4.870646
608.553955	852.400818	15118.597656	1557.087769	4.939557
608.892578	846.753845	15323.153320	1576.332397	5.039779
609.231140	844.599060	15476.588867	1570.908203	4.963844
609.569641	840.883972	15500.811523	1569.199219	4.968069
609.908081	846.308044	15418.707031	1569.645020	4.963747
610.246521	851.583496	15179.081055	1568.679077	5.005030
610.584961	859.088074	14856.606445	1550.920776	4.942538
610.923340	857.527649	14503.296875	1527.515259	4.909856
611.261597	854.184082	14094.484375	1506.264771	4.924969
611.599854	849.502991	13773.348633	1480.630249	4.883432
611.938110	848.016907	13451.393555	1456.853394	4.830741
612.276245	845.787842	13200.695313	1449.869019	4.889403
612.614319	852.029297	12961.664063	1445.782349	4.903146
612.952393	852.920898	12753.022461	1442.587280	4.955137
613.290466	856.487488	12577.073242	1435.528687	4.940378
613.628479	856.487488	12438.351563	1421.188110	4.875731
613.966370	862.060120	12319.465820	1409.597046	4.778891
614.304260	868.747375	12225.843750	1394.067749	4.625481
614.642151	866.221191	12106.067383	1402.761230	4.773553
614.979980	860.202637	11994.836914	1406.921997	4.910079
615.317749	852.400879	11908.274414	1412.123169	5.062669
615.655396	851.509216	11882.862305	1410.637085	5.068534
615.993164	847.571106	11886.355469	1401.943726	5.022044
616.330811	853.143860	11897.351563	1400.234741	4.953645
616.668396	843.484558	11872.981445	1398.154297	5.028967
617.005859	843.707458	11892.522461	1399.863281	5.033624
617.343445	839.546448	11908.497070	1399.863281	5.062059
617.680908	850.914734	11942.378906	1394.662109	4.902395
618.018311	851.211914	11933.536133	1396.148071	4.917165
618.355652	851.360535	11925.215820	1393.027344	4.891402
618.692993	847.051025	11896.014648	1387.306030	4.889644
619.030273	848.685730	11861.835938	1382.550781	4.847524
619.367554	840.215149	11797.117188	1388.866577	5.007359
619.704712	844.747620	11743.471680	1392.061401	5.021815
620.041870	844.004639	11692.276367	1394.587891	5.075309
620.379028	846.530945	11647.100586	1381.139038	4.949814
620.716064	840.512390	11567.819336	1371.108032	4.946215
621.053040	843.261536	11541.739258	1368.730469	4.911623
621.389954	846.679504	11481.479492	1370.364868	4.924262
621.726929	851.286316	11469.813477	1379.727173	4.976593
622.063843	851.137695	11441.726563	1378.463989	4.979197
622.400635	846.679504	11443.733398	1375.789185	4.992989
622.737427	838.134766	11456.958008	1373.337280	5.040130
623.074219	836.128601	11465.355469	1371.405396	5.035896
623.410889	838.729065	11541.291992	1375.714844	5.017357
623.747559	848.314148	11625.776367	1379.652954	4.930092
624.084167	856.784668	11693.835938	1385.819946	4.881727
624.420715	860.871338	11775.495117	1393.621704	4.881069
624.757324	858.790833	11883.085938	1399.417480	4.903957
625.093750	845.193420	12058.143555	1403.058228	4.975183
625.430176	842.295654	12253.929688	1408.333862	4.960186
625.766602	838.283264	12423.266602	1425.720703	5.070680
626.102905	846.010803	12628.416992	1445.782349	5.090399
626.439209	842.444275	12780.811523	1457.745117	5.153978
626.775452	845.936523	12948.363281	1461.906128	5.089637
627.111694	849.651672	12959.360352	1453.658569	4.987791
627.447876	856.264587	12879.113281	1450.983521	4.946573
627.783997	855.595886	12690.383789	1430.030273	4.853778
628.120056	855.224304	12535.834961	1424.457642	4.873318
628.456055	851.732117	12354.758789	1409.819946	4.851661
628.792053	854.778503	12181.782227	1405.658813	4.863425
629.128052	848.908508	11993.127930	1391.615723	4.869854
629.463928	854.109802	11859.903320	1392.581543	4.892621
629.799744	850.691895	11743.840820	1378.612671	4.846356
630.135559	850.023132	11622.284180	1379.950195	4.919367
630.471375	849.057190	11463.645508	1367.467285	4.883940
630.807068	850.840515	11316.229492	1372.296875	4.982676
631.142700	851.063293	11211.090820	1368.433228	4.993905
631.478333	853.218201	11155.215820	1360.111328	4.920338
631.813965	854.184082	11079.278320	1354.390015	4.891945
632.149475	860.425537	11011.291992	1349.337402	4.816454
632.484924	855.521545	10963.737305	1347.851318	4.870590
632.820435	857.973633	10978.820313	1343.987671	4.802108
633.155884	854.109863	11019.315430	1346.216675	4.841091
633.491150	864.214905	11067.612305	1354.390015	4.804038
633.826477	863.546204	11076.083008	1356.396240	4.825932
634.161804	868.227234	11054.015625	1357.882324	4.807238
634.497009	868.747375	11002.969727	1355.355835	4.801636
634.832153	863.843445	10923.094727	1348.742920	4.820433
635.167297	863.769104	10774.636719	1339.455200	4.799642
635.502380	854.332703	10636.583008	1330.761719	4.870342
635.837463	862.431641	10495.184570	1329.870117	4.852595
636.172424	857.081848	10395.098633	1323.108521	4.885992
636.507324	858.122131	10287.508789	1321.251099	4.911549
636.842224	853.812561	10216.401367	1311.145874	4.884689
637.177124	857.899231	10115.348633	1303.715454	4.815757
637.511963	860.054016	10052.563477	1293.238770	4.712367
637.846741	857.379089	9956.192383	1295.170776	4.811525
638.181396	850.468933	9897.493164	1294.650635	4.909699
638.516113	848.314209	9824.083008	1291.307007	4.935430
638.850769	850.171692	9752.009766	1286.254517	4.898796
639.185303	858.939453	9678.078125	1283.282349	4.811614
639.519836	855.224304	9572.493164	1281.424683	4.889151
639.854370	857.676270	9503.318359	1274.737427	4.823946
640.188843	849.651672	9410.885742	1269.164673	4.900146
640.523254	855.893066	9333.090820	1271.691040	4.904899
640.857605	852.995178	9276.397461	1269.239136	4.941518
641.191895	851.063293	9239.246094	1268.050171	4.971123
641.526184	847.273926	9212.274414	1260.099854	4.935157
641.860413	845.564941	9151.198242	1250.366211	4.873816
642.194580	842.444275	9108.472656	1240.260986	4.812671
642.528748	839.917969	9081.723633	1236.768921	4.815097
642.862793	844.673340	9058.616211	1238.031860	4.788912
643.196838	851.583496	9033.426758	1247.617065	4.840395
643.530823	865.032227	8990.628906	1250.886230	4.748624
643.864746	862.431641	8960.165039	1250.068970	4.786985
644.198669	861.614441	8940.250977	1240.706909	4.692530
644.532532	849.800293	8914.618164	1235.654297	4.784410
644.866333	842.890076	8913.577148	1240.558228	4.927315
645.200073	840.140808	8919.297852	1244.644897	5.006761
645.533813	844.896301	8917.886719	1247.022583	4.981132
645.867554	851.063416	8913.280273	1254.750122	5.007143
646.201172	852.475098	8902.208984	1257.053467	5.025984
646.534729	847.348206	8907.855469	1254.527222	5.051531
646.868225	850.097412	8941.440430	1247.245483	4.908309
647.201782	849.651611	8954.815430	1233.722412	4.738594
647.535217	855.595886	9004.523438	1238.774902	4.702202
647.868591	851.583496	8975.397461	1239.815308	4.778935
648.201965	853.961243	8940.995117	1253.709839	4.943080
648.535278	853.812561	8882.518555	1244.273438	4.863310
648.868591	852.549500	8898.196289	1241.078369	4.829057
649.201782	853.366699	8898.567383	1240.483887	4.811778
649.534912	850.691895	8905.776367	1244.644897	4.890737
649.868103	848.091309	8869.589844	1242.564331	4.917697
650.201172	848.537109	8880.512695	1240.112305	4.875204
650.534180	844.524719	8892.996094	1243.307495	4.954764
650.867188	841.255371	8897.973633	1251.703613	5.094484
651.200134	835.979980	8907.335938	1255.121460	5.192950
651.533020	832.636414	8879.546875	1257.945068	5.285366
651.865845	840.660950	8838.308594	1253.709839	5.164630
652.198608	848.165527	8784.067383	1247.171265	5.027856
652.531433	852.623718	8721.653320	1236.322876	4.876067
652.864136	850.097412	8707.239258	1232.830688	4.871151
653.196777	1004.795715	8814.234375	1393.250366	4.974169
653.529358	1007.990723	8772.848633	1405.584595	5.120427
653.861938	1008.585144	8682.868164	1401.720825	5.122767
654.194519	853.812500	8464.714844	1233.350952	4.986773
654.526978	855.372864	8409.878906	1222.874146	4.864664
654.859375	863.323303	8379.118164	1228.966919	4.865003
655.191833	864.363464	8367.824219	1234.985474	4.939347
655.524170	864.066345	8369.680664	1236.620239	4.963670
655.856445	857.824890	8359.353516	1225.177612	4.897038
656.188660	857.156189	8391.377930	1224.211548	4.871842
656.520874	855.967285	8410.473633	1222.205444	4.847943
656.853088	855.521484	8487.674805	1230.750366	4.916422
657.185181	849.577332	8559.301758	1232.979370	4.972967
657.517212	848.982910	8701.368164	1229.412964	4.844770
657.849243	850.766113	8868.772461	1237.288940	4.820685
658.181274	852.772278	9070.430664	1251.629395	4.853659
658.513123	849.503113	9260.719727	1271.839722	5.021112
658.844971	848.462830	9472.778320	1282.316284	5.030584
659.176819	850.691833	9633.868164	1286.402954	4.960746
659.508667	852.772278	9731.873047	1288.037720	4.902134
659.840393	844.004578	9719.463867	1282.464966	4.940143
660.172058	840.512390	9605.334961	1275.406128	4.961809
660.503662	843.112976	9458.736328	1269.684937	4.951145
660.835266	853.441101	9291.183594	1263.071899	4.854744
661.166931	856.859070	9086.182617	1253.486938	4.819690
661.498413	853.664001	8893.960938	1238.626343	4.787912
661.829773	841.329773	8656.489258	1233.870972	5.022818
662.161194	836.277039	8476.825195	1225.028931	5.088010
662.492615	838.283203	8298.424805	1219.084595	5.104479
662.823975	853.589600	8146.178223	1207.790649	4.857000
663.155212	853.589661	8032.867188	1202.143677	4.855001
663.486450	850.468933	7931.592285	1192.707397	4.833110
663.817627	850.097473	7867.543457	1187.654663	4.810257
664.148743	846.233704	7773.030762	1178.143921	4.791684
664.479858	849.131531	7710.838379	1178.069702	4.793824
664.810913	843.856018	7652.288574	1177.103638	4.894630
665.141907	851.286316	7630.666016	1180.893188	4.861903
665.472778	848.908630	7591.137207	1180.447388	4.917347
665.803711	840.809631	7582.890137	1185.054199	5.105910
666.134583	843.038757	7582.221191	1181.784790	5.026515
666.465454	844.673340	7582.740723	1186.317261	5.070355
666.796143	849.874512	7572.264160	1187.134521	5.016966
667.126831	858.196472	7563.199219	1187.877563	4.916942
667.457458	872.388184	7559.484375	1184.682617	4.670105
667.788147	878.183838	7574.419434	1174.725952	4.428490
668.118774	863.471863	7566.840332	1181.116089	4.738576
668.449219	854.406982	7571.224121	1183.270874	4.896127
668.779663	856.115906	7567.583496	1183.791016	4.882317
669.110107	867.187012	7589.502441	1175.469116	4.585951
669.440552	862.877441	7607.781250	1175.766357	4.638894
669.770874	858.567871	7573.898926	1177.772461	4.753371
670.101135	844.524719	7535.707520	1189.066528	5.149191
670.431396	837.688904	7462.964844	1183.419556	5.218359
670.761597	835.385498	7400.105469	1177.029541	5.204244
671.091797	843.484558	7331.523438	1165.884155	4.969138
671.421875	847.273926	7260.638672	1167.890137	4.999189
671.751892	848.239929	7227.276855	1172.645508	5.085495
672.081909	850.989014	7168.058105	1175.840454	5.142439
672.411865	847.719727	7151.934082	1171.233765	5.131711
672.741821	853.440979	7113.519531	1163.283447	4.949498
673.071716	853.366699	7098.807129	1157.190674	4.864733
673.401550	860.797058	7036.170410	1153.104004	4.733429
673.731262	856.487488	7015.365723	1149.908813	4.764201
674.060974	854.704163	6990.103027	1151.097778	4.830878
674.390625	856.115967	6996.938965	1157.562134	4.908888
674.720276	855.447266	6963.501953	1162.837524	5.032539
675.049927	861.094238	6928.580078	1157.413452	4.883723
675.379395	855.893066	6891.428223	1142.478638	4.748304
675.708923	849.651672	6850.413574	1132.670654	4.716384
676.038330	840.215149	6844.320313	1130.292847	4.831323
676.367737	835.757019	6830.871582	1138.912109	5.056702
676.697083	841.329773	6850.041504	1137.203125	4.924073
677.026428	851.732117	6855.614746	1142.107056	4.836452
677.355652	863.843445	6873.670410	1137.277466	4.549782
677.684875	870.084900	6910.003906	1149.611694	4.627989
678.013977	866.221191	6948.270020	1146.416748	4.606927
678.343079	863.323303	7018.783203	1156.521851	4.763227
678.672180	867.781433	7113.147949	1159.939819	4.678002
679.001221	859.459473	7215.982910	1173.463013	4.939863
679.330139	853.738281	7311.610840	1175.766357	4.986597
679.659058	843.707336	7346.310059	1178.515503	5.148833
679.987976	843.261536	7401.517090	1183.939575	5.194644
680.316772	845.490723	7436.066895	1180.372925	5.081228
680.645630	848.091248	7480.351563	1183.270752	5.053775
680.974304	855.150085	7474.853516	1184.013794	4.967952
681.302979	857.899231	7459.622559	1191.295532	5.050140
681.631653	860.128235	7407.907715	1186.837280	4.989616
681.960266	859.459656	7342.892090	1180.224487	4.947454
682.288757	860.053955	7284.416016	1169.599243	4.818304
682.617249	856.858887	7227.796875	1165.661133	4.847045
682.945679	855.447205	7153.717285	1155.704468	4.767297
683.274109	850.097351	7055.042969	1155.258667	4.918034
683.602478	848.834229	6923.007813	1150.503418	4.966424
683.930725	848.165527	6796.023926	1142.701538	4.951967
684.259033	846.382324	6680.855469	1136.608765	4.974339
684.587280	842.444275	6586.713379	1137.128784	5.130061
684.915344	844.747620	6511.443848	1136.534302	5.149150
685.243469	851.286316	6435.061035	1134.156616	5.065933
685.571533	855.595764	6398.579590	1121.599487	4.798926
685.899536	858.716553	6399.544922	1116.992798	4.661329
686.227539	856.636047	6421.315918	1111.642944	4.582598
686.555420	856.338867	6458.095215	1113.797729	4.596038
686.883301	855.001465	6469.240723	1115.283813	4.636111
687.211121	856.933289	6480.460938	1121.673950	4.707733
687.538940	858.865173	6479.717285	1127.766724	4.784000
687.866638	858.567871	6487.593262	1131.927612	4.856254
688.194336	857.230469	6477.339844	1133.488037	4.915519
688.521973	857.750549	6430.306152	1124.943237	4.794796
688.849609	861.688660	6372.869629	1119.221802	4.672921
689.177063	856.041687	6307.855469	1107.853638	4.618865
689.504578	852.995178	6210.444824	1112.237427	4.838912
689.832031	846.085144	6113.404785	1112.311646	5.054307
690.159485	851.434875	6034.123535	1116.769897	5.119640
690.486816	856.115906	6004.253906	1111.865845	4.967814
690.814087	857.230469	5948.230469	1114.615112	5.055679
691.141296	851.286194	5884.181152	1111.271484	5.165720
691.468506	845.193359	5807.351563	1103.618286	5.207914
691.795715	849.502991	5739.959473	1101.612183	5.155126
692.122803	851.063416	5688.541504	1096.931030	5.082558
692.449829	854.778503	5658.226074	1096.039429	5.022662
692.776855	851.137695	5629.991699	1086.454346	4.924123
693.103821	850.543274	5585.707031	1079.915771	4.844025
693.430664	852.103577	5548.183594	1082.813599	4.912821
693.757568	845.416321	5519.652344	1082.516235	5.072485
694.084351	841.478333	5504.865723	1086.825806	5.261143
694.411133	840.066589	5497.212402	1083.110718	5.218735
694.737854	845.119141	5494.091797	1083.556519	5.128819
695.064575	851.211975	5507.392090	1086.008423	5.042684
695.391174	847.868347	5524.556152	1084.745483	5.065062
695.717773	844.376160	5543.131348	1086.380005	5.150382
696.044250	844.673340	5584.369629	1085.265503	5.076109
696.370789	843.930359	5654.213379	1091.952759	5.156087
696.697205	843.855957	5770.794434	1098.119995	5.160690
697.023621	846.605225	5912.861816	1098.268555	4.967441
697.349915	849.577332	6071.052246	1102.132324	4.836852
697.676208	849.280029	6252.648438	1114.392212	4.906425
698.002380	849.131531	6454.974609	1132.670654	5.057921
698.328674	848.165588	6675.653809	1148.868530	5.160078
698.654724	855.372986	6884.295410	1150.874756	4.901403
698.980896	854.109802	7011.947754	1160.979858	4.983406
699.306946	858.047852	7046.646973	1158.305054	4.851780
699.632935	857.453430	6980.740723	1161.648682	4.967843
699.958862	853.366760	6847.589844	1152.880981	4.996715
700.284729	841.849854	6674.242188	1144.856323	5.195234
700.610596	839.695068	6462.553223	1131.333130	5.186651
700.936340	849.280090	6246.629395	1117.735962	4.973847
701.262146	860.276855	6003.585938	1108.596680	4.828017
701.587830	855.744446	5812.404297	1101.463501	4.957352
701.913513	848.834290	5625.384277	1088.088989	5.008944
702.239075	843.855957	5495.800781	1075.680542	4.983391
702.564697	848.165527	5358.415039	1057.179077	4.634191
702.890137	847.125305	5258.923828	1059.185303	4.806657
703.215698	848.091248	5177.190918	1062.900391	4.961982
703.541016	846.307922	5112.175293	1069.364746	5.228874
703.866455	851.880676	5039.136230	1067.730103	5.154914
704.191711	853.366760	4984.672363	1063.940674	5.097031
704.517029	857.007629	4934.740723	1064.089355	5.078354
704.842163	854.704285	4897.217773	1064.535278	5.190607
705.167419	857.007629	4861.552246	1058.516724	5.032010
705.492493	853.515320	4830.122559	1057.030518	5.117810
705.817566	852.846680	4802.258789	1049.525879	4.979961
706.142578	855.075684	4770.828613	1057.401978	5.166983
706.467590	857.379089	4754.853516	1056.287476	5.103520
706.792480	855.893066	4767.560059	1056.584595	5.130588
707.117371	858.493652	4778.110840	1053.018188	4.962845
707.442200	859.831055	4800.104004	1054.132690	4.931172
707.766907	860.128357	4822.023438	1053.761108	4.887377
708.091675	854.109802	4843.348145	1053.835449	5.006611
708.416321	852.698059	4856.425781	1047.371094	4.862295
708.741028	852.920959	4851.818848	1044.696289	4.795704
709.065552	852.177917	4860.735352	1041.204102	4.715566
709.390137	853.961121	4858.134766	1044.250488	4.752275
709.714600	854.629883	4893.057129	1050.194702	4.842598
710.039063	849.651550	4941.725098	1053.464111	4.980667
710.363403	854.704163	5017.439941	1054.281372	4.794376
710.687744	859.459473	5069.674316	1055.990356	4.667954
711.012085	861.911560	5095.160645	1056.659058	4.600426
711.336304	853.069519	5117.748047	1052.943970	4.686741
711.660461	847.125305	5138.701660	1059.928345	4.958622
711.984619	846.605164	5163.072754	1059.556885	4.933472
712.308716	849.280090	5136.472168	1066.764160	5.072879
712.632751	849.725891	5091.370605	1060.299805	4.964440
712.956726	847.942688	5015.062012	1054.429810	4.955153
713.280701	849.725891	4952.871094	1049.525879	4.869435
713.604553	856.858948	4879.533691	1042.318481	4.610353
713.928467	857.379089	4819.869141	1039.494995	4.595996
714.252258	846.530945	4792.451172	1036.225830	4.807367
714.575989	837.986145	4782.345703	1040.683960	5.138928
714.899719	842.667175	4793.342773	1043.358765	5.079931
715.223267	846.753723	4777.664551	1044.919067	5.041207
715.546936	848.908508	4784.129395	1043.953247	4.956386
715.870422	850.246094	4790.965332	1049.080078	5.045627
716.193970	847.199646	4786.655762	1053.538208	5.237742
716.517395	838.877686	4766.965332	1052.646606	5.442061
716.840820	837.837463	4716.811035	1042.912964	5.286849
717.164124	839.323547	4673.715332	1035.482788	5.115785
717.487488	848.685730	4600.378906	1035.259888	4.973065
717.810730	849.280029	4523.698730	1035.334106	5.063497
718.133972	857.007629	4450.658691	1028.498169	4.772042
718.457092	860.054016	4375.464355	1023.668640	4.654211
718.780212	860.945618	4307.402832	1014.826477	4.464900
719.103210	853.812500	4238.747070	1012.151672	4.677762
719.426208	849.651550	4169.199707	1000.337585	4.539354
719.749207	846.233643	4124.395020	1008.882324	4.961583
720.072083	849.800232	4063.021484	1011.334290	5.027169
720.394958	852.698059	4045.411377	1017.798645	5.171168
720.717773	859.608154	3994.291748	1015.495300	4.972979
721.040527	857.676270	3978.985107	1012.003113	4.944299
721.363281	860.128235	3940.867920	1008.808044	4.826108
721.685913	851.211914	3935.740967	1003.309570	4.930984
722.008545	852.252258	3915.010498	1005.167175	4.992719
722.331055	847.348328	3885.735352	999.445862	5.005865
722.653503	849.651672	3852.967773	995.507813	4.856503
722.976013	854.035461	3827.555908	994.393372	4.720260
723.298401	854.555664	3826.441406	993.873230	4.687850
723.620789	848.982910	3824.361084	1005.464355	5.259212
723.943115	843.038635	3843.754150	1003.383850	5.343566
724.265381	833.602234	3844.348389	1001.897766	5.589828
724.587585	844.301758	3852.224609	991.718445	4.900947
724.909790	848.091248	3847.394531	997.142578	4.969532
725.231873	857.156189	3865.524658	1001.674988	4.803893
725.553894	847.794128	3886.180908	1006.281738	5.216177
725.875916	891.261047	3929.796631	1062.974731	5.651198
726.197937	893.490234	3949.709961	1061.711670	5.504232
726.519775	897.799744	3956.694092	1060.671387	5.324527
726.841675	849.280090	3941.536377	993.130127	4.651944
727.163513	844.821960	3953.201904	998.628601	4.948129
727.485291	841.478333	3985.597900	1000.857605	5.069122
727.806946	847.571106	4014.204346	1009.476746	5.112864
728.128662	846.382324	4035.826904	1010.962830	5.160162
728.450256	846.976746	4046.749023	1008.733704	5.055265
728.771790	848.165527	4048.309814	1009.476746	5.040748
729.093323	855.447266	4054.551025	1009.699646	4.821737
729.414795	865.180908	4049.424072	1006.578918	4.440553
729.736145	866.741211	4035.083252	1000.411804	4.218945
730.057495	864.958008	4016.433594	994.839172	4.121281
730.378845	855.521484	4022.229248	1005.910339	4.749060
730.700134	851.806335	4018.291016	1012.894714	5.087294
731.021301	850.691833	4044.891602	1019.284668	5.278093
731.342468	854.184082	4060.495117	1013.340515	4.963849
731.663574	849.577332	4107.157715	1015.718262	5.100133
731.984680	848.685730	4108.940430	1012.003113	5.009345
732.305664	847.125305	4116.965332	1010.665588	5.001476
732.626648	855.818787	4111.392578	1006.058899	4.614858
732.947571	855.521484	4122.761230	1008.510803	4.682525
733.268433	862.208801	4104.185059	1006.133118	4.439401
733.589233	854.109680	4074.018311	1006.133118	4.721359
733.909973	855.372864	4024.458008	1005.613037	4.740806
734.230713	854.927185	3971.926025	1008.510803	4.927291
734.551331	856.710388	3922.514893	1009.774109	4.992612
734.871948	847.942627	3876.595947	1007.767883	5.277106
735.192505	837.688904	3822.428955	995.433594	5.285039
735.513062	830.853027	3771.383057	992.610046	5.500947
735.833435	840.512390	3698.046143	987.780457	5.153677
736.153931	848.685730	3650.567139	993.724609	5.176482
736.474304	852.549377	3605.985596	989.043518	4.957229
736.794617	852.475098	3605.242432	993.650330	5.128484
737.114807	850.097473	3591.942139	994.839172	5.278990
737.434998	855.893066	3599.818359	992.758728	4.987951
737.755188	860.054016	3606.431396	985.105469	4.553324
738.075256	853.961243	3635.186279	983.619446	4.661910
738.395325	852.698059	3666.467773	987.186035	4.779637
738.715271	851.732117	3682.962891	991.495605	4.936492
739.035278	851.955017	3699.532471	993.130188	4.957729
739.355164	856.041687	3707.780029	995.062073	4.874935
739.675049	850.023132	3692.622314	996.845276	5.165067
739.994873	856.710449	3660.374756	1002.789490	5.210290
740.314636	850.617615	3615.570313	1003.829773	5.541222
740.634277	851.434875	3580.350830	1006.801819	5.693357
740.953979	852.623718	3548.326172	997.068176	5.358324
741.273499	854.258362	3518.976807	992.312805	5.180827
741.593140	860.351257	3481.082764	982.653503	4.666722
741.912598	859.533875	3436.946533	979.235535	4.644257
742.232117	859.608154	3393.108154	976.634949	4.619175
742.551453	853.886902	3363.312744	971.805237	4.699017
742.870850	853.961121	3336.117920	973.811340	4.828471
743.190063	855.521484	3314.272705	967.867188	4.569218
743.509338	852.177917	3282.768555	960.957031	4.475419
743.828552	848.314209	3254.533447	952.189270	4.316941
744.147705	849.057190	3232.837158	959.322449	4.625648
744.466797	850.691895	3224.812500	967.421448	4.916749
744.785828	845.564941	3214.335693	971.433838	5.313680
745.104858	844.227539	3179.041748	965.415344	5.190469
745.423706	845.713623	3165.295898	960.214050	4.936252
745.742615	855.893066	3151.846924	961.625793	4.605176
746.061401	851.583496	3156.973877	962.814636	4.824829
746.380249	853.366699	3153.481689	962.740417	4.755141
746.698975	848.537109	3156.082275	964.003418	5.003859
747.017639	848.537109	3149.766602	957.093323	4.717314
747.336304	847.719727	3121.308594	960.659729	4.967477
747.654907	853.218201	3107.860107	958.430725	4.666485
747.973389	856.115967	3105.110596	964.003418	4.797142
748.291931	852.326477	3119.079834	964.597900	4.952961
748.610352	843.707458	3133.197021	964.375000	5.270500
748.928711	844.821960	3135.723389	964.820801	5.238062
749.247070	848.165527	3142.559326	962.443115	4.980731
749.565308	850.691833	3136.912354	956.944763	4.647536
749.883545	849.948730	3140.330078	951.817871	4.447693
750.201782	857.304749	3139.884521	953.526794	4.215495
750.519836	857.601990	3132.008545	962.145935	4.596538
750.837952	861.094238	3112.318115	969.130371	4.798995
751.155884	858.865173	3094.485352	970.393555	4.988700
751.473877	857.379089	3083.191406	961.105713	4.660170
751.791809	855.670166	3077.693115	958.950928	4.648051
752.109619	851.360596	3072.640625	962.368896	4.997492
752.427490	858.270691	3061.569336	971.136536	5.122585
752.745300	854.332703	3060.157471	972.622620	5.362617
753.062988	856.115967	3055.179443	970.244934	5.189889
753.380615	851.955017	3054.584961	968.015869	5.269195
753.698303	852.549377	3038.089844	965.861084	5.184608
754.015808	844.970520	3031.922607	963.037537	5.398701
754.333374	843.112976	3026.424561	964.672180	5.567653
754.650757	842.444153	3035.934814	963.854797	5.535043
754.968262	850.691833	3023.526367	967.867188	5.392742
755.285583	857.750549	3028.207275	966.604004	5.015233
755.602905	863.026062	3009.185791	965.861023	4.791580
755.920105	860.945618	3013.272705	959.693848	4.587975
756.237305	856.264587	2999.452393	964.300598	5.040903
756.554443	853.366699	3010.597656	964.077820	5.132094
756.871582	847.794006	3025.383789	967.570007	5.500393
757.188599	845.267761	3046.411377	962.443115	5.323385
757.505615	850.320313	3065.656006	959.693909	4.937112
757.822510	853.366760	3082.225586	963.557678	4.943827
758.139465	849.131531	3100.503906	964.895081	5.141911
758.456238	848.685730	3123.463623	970.542175	5.356851
758.773010	856.115967	3143.302490	970.542053	5.002919
759.089783	863.843445	3157.197021	962.443115	4.299366
759.406433	856.784668	3165.890381	960.659851	4.498503
759.723145	849.131531	3170.497314	956.498840	4.625178
760.039673	853.589661	3179.933594	961.031311	4.618476
760.356201	857.304749	3165.667236	956.127441	4.281073
760.672668	859.236633	3151.921143	955.533020	4.200159
760.989136	858.865173	3146.422852	963.409119	4.570112
761.305481	856.264465	3175.401123	968.907532	4.857112
761.621826	856.858948	3197.097656	970.987976	4.876812
761.938049	852.623718	3206.385498	969.873352	4.981372
762.254333	852.698059	3224.812256	970.690735	4.974156
762.570496	854.927063	3299.486328	977.823730	5.027355
762.886597	849.205811	3455.968018	976.634949	4.888407
763.202637	850.097412	3675.086914	995.879211	5.160437
763.518677	847.496826	3931.059814	1010.814148	5.296383
763.834656	853.292480	4180.865723	1025.229004	5.167025
764.150574	855.893066	4338.535645	1031.321777	5.037230
764.466370	853.738281	4375.464355	1028.052490	4.949681
764.782288	855.075684	4287.118652	1027.309448	5.018404
765.097961	857.899231	4129.373535	1020.622253	4.973997
765.413696	858.270752	3950.675781	1007.099121	4.812706
765.729309	852.326477	3764.324219	998.405701	5.016460
766.044861	849.577332	3617.576904	985.031189	4.893565
766.360474	854.778503	3472.835205	983.842285	4.929755
766.675903	857.973450	3375.275391	978.195313	4.775822
766.991394	850.914795	3275.338135	973.217102	5.044594
767.306763	849.577332	3223.697510	972.399719	5.173386
767.622131	846.605286	3150.435303	968.833191	5.305422
767.937378	845.193420	3099.166260	966.232605	5.370037
768.252625	841.106750	3043.662109	960.734192	5.431302
768.567810	844.599060	3000.417969	954.195557	5.083753
768.882996	848.462708	2956.208008	948.771484	4.759056
769.197998	848.537048	2900.183594	942.752930	4.592208
769.513062	849.725891	2853.447266	944.164612	4.713166
769.828064	851.137695	2819.119385	940.598145	4.545797
770.142944	848.760010	2800.692383	939.706543	4.659307
770.457825	855.298645	2790.884521	943.570313	4.560462
770.772705	861.614319	2764.284180	949.885986	4.639358
771.087402	863.694824	2732.556641	946.319519	4.421124
771.402100	856.413147	2699.417725	940.226624	4.547654
771.716736	852.995300	2679.802002	941.638367	4.852351
772.031372	856.041565	2665.238525	947.062500	5.031013
772.345947	854.927063	2654.018799	948.325500	5.191422
772.660461	856.413086	2646.737061	944.090332	4.897284
772.974854	853.961121	2632.545166	940.226624	4.850235
773.289246	857.007568	2602.155518	932.053406	4.300256
773.603638	851.434875	2576.223877	926.332031	4.342395
773.917908	850.989014	2563.220947	930.492981	4.643294
774.232178	848.091248	2551.258545	945.130615	5.697583
774.546265	853.515320	2547.468994	951.074890	5.759282
774.860474	851.583496	2534.688477	947.285400	5.686033
775.174561	851.434875	2528.818848	941.712708	5.382061
775.488586	844.970520	2507.865479	938.963440	5.652367
775.802551	849.354431	2497.537354	933.762268	5.121266
776.116516	846.530945	2481.264893	924.845947	4.790688
776.430359	851.732117	2483.345459	927.000793	4.613144
776.744202	852.400879	2477.846924	930.641602	4.813492
777.057922	863.471924	2479.110107	940.078064	4.741540
777.371704	855.224365	2470.565430	943.198730	5.446179
777.685303	855.521545	2456.596680	939.706543	5.258029
777.998962	845.193542	2442.256104	931.161804	5.382899
778.312500	852.029297	2419.668213	923.508545	4.559676
778.626038	847.942566	2427.247070	926.480652	4.972954
778.939453	851.360535	2431.333740	928.412598	4.876796
779.252869	849.428711	2443.890869	930.344421	5.074797
779.566223	842.444275	2416.844727	927.743835	5.417908
779.879578	845.416321	2407.259521	926.777832	5.209326
780.192749	846.976746	2398.863281	924.846008	5.017716
780.505920	852.698059	2415.061523	927.892395	4.812858
780.819031	844.153259	2412.980957	922.468323	4.991948
781.132141	847.422546	2420.634033	929.601318	5.223632
781.445190	851.509216	2407.779785	925.068848	4.726661
781.758118	850.171692	2403.915771	934.951111	5.456460
782.071045	844.599060	2395.668213	927.966614	5.374845
782.383911	846.679504	2386.826416	933.465088	5.634890
782.696838	851.509216	2370.182617	927.075012	4.975777
783.009583	853.441101	2335.334717	924.028748	4.763341
783.322266	855.447266	2314.901611	922.839844	4.617656
783.634888	850.914795	2294.171143	927.966736	5.338757
783.947510	852.549500	2290.158691	932.201965	5.540620
784.260132	846.530945	2273.514893	930.567383	5.889095
784.572571	854.332703	2273.068848	928.858398	5.252964
784.885010	853.440979	2257.910889	929.972900	5.449168
785.197449	859.533875	2252.709961	932.201965	5.216002
785.509766	869.341797	2248.548828	931.310303	4.493053
785.822083	875.657532	2253.973145	927.223633	3.741240
786.134277	870.902283	2245.428467	924.697266	3.913711
786.446533	860.499817	2227.446777	922.096680	4.506163
786.758606	853.664001	2210.728760	927.372253	5.431447
787.070740	859.459656	2220.833984	921.502380	4.557360
787.382690	859.088074	2235.100342	922.839844	4.633082
787.694641	859.756836	2271.731445	916.078308	3.988845
788.006653	851.063416	2306.356445	922.171082	4.886141
788.318481	846.753845	2351.384033	921.205139	4.948146
788.630310	839.992188	2387.717773	921.725281	5.280852
788.942017	841.626892	2412.237549	919.941956	4.986281
789.253784	842.221375	2440.770020	925.589050	5.215210
789.565430	852.846619	2434.974365	929.155579	4.823186
789.877014	854.927063	2420.931152	934.728210	5.095845
790.188538	858.270691	2380.361816	934.579590	5.013425
790.500061	853.441101	2342.095947	933.242126	5.360613
790.811462	852.475098	2308.510986	930.938782	5.388856
791.122925	853.738281	2269.576416	926.109070	5.111516
791.434204	854.332703	2233.911133	918.976013	4.685730
791.745483	850.766113	2206.196289	911.620056	4.489641
792.056702	854.332703	2192.524658	910.505554	4.197668
792.367920	852.400818	2174.617920	916.301086	4.832812
792.678955	857.676270	2154.704590	920.982239	4.880847
792.990112	853.366760	2129.738770	922.171082	5.390616
793.301086	852.995300	2121.416992	913.180481	4.744888
793.612122	850.543274	2101.355225	915.260986	5.174056
793.922974	850.766174	2097.491455	914.146423	5.083738
794.233826	855.893066	2094.073486	926.629211	5.712911
794.544556	858.419250	2109.008545	927.892395	5.555233
794.855286	855.595886	2118.965088	928.783997	5.793090
795.166016	848.759949	2129.070068	926.777832	6.093671
795.476624	849.800232	2152.475586	920.684998	5.441476
795.787292	851.137634	2171.496826	917.638672	5.036587
796.097778	857.601990	2208.351318	914.517883	4.213654
796.408264	858.270691	2226.406982	916.598328	4.263291
796.718689	854.184082	2254.716064	924.400146	5.013528
797.029053	847.868347	2255.236328	928.486755	5.728311
797.339355	841.998352	2253.304443	923.657043	5.786036
797.649658	851.509094	2232.573975	915.260925	4.616136
797.959839	857.081848	2208.648438	911.917236	4.057172
798.270020	864.957947	2181.230713	913.774719	3.708713
798.580078	860.722656	2169.119385	909.465332	3.725374
798.890137	855.893066	2159.906006	907.087646	3.925926
799.200195	843.633057	2151.063721	902.852356	4.529441
799.510071	838.803406	2130.927734	909.762512	5.491663
799.820007	835.905579	2111.906250	908.499329	5.689162
800.129883	841.181152	2096.674072	916.078186	5.965548
800.439575	841.478271	2083.002441	916.821289	6.068591
800.749329	848.982910	2086.049072	908.499329	4.811094
801.058960	858.270752	2077.949951	899.434509	3.374966
801.368591	861.540039	2063.832520	892.672913	2.589459
801.678162	860.574158	2042.656250	902.183655	3.520018
801.987671	853.515381	2028.910156	910.802795	4.873887
802.297119	857.601990	2026.978149	915.632507	4.962519
802.606506	853.886902	2005.579102	911.620056	5.012898
802.915894	850.246094	1999.337524	905.304382	4.791463
803.225159	846.679443	1989.752563	899.954529	4.660689
803.534424	849.874512	1990.718384	900.549011	4.441844
803.843628	848.834229	1985.145874	909.836853	5.368476
804.152771	853.812561	1980.167603	915.112305	5.442311
804.461792	847.794128	1984.699829	919.570496	6.313308
804.770874	859.905457	1986.631836	920.090637	5.341597
805.079773	852.252258	1995.399536	919.719055	5.901847
805.388733	859.236633	2003.349976	918.455994	5.176005
805.697571	858.865173	2014.941040	915.706726	4.916766
806.006470	859.459656	2027.943970	915.112305	4.762806
806.315125	860.425537	2046.148315	911.694336	4.323843
806.623901	861.614319	2043.993530	903.595398	3.550560
806.932495	863.323425	2035.820190	908.276550	3.833966
807.241150	859.831116	2015.461304	916.301086	4.886509
807.549622	859.236633	2010.631470	921.279480	5.388494
807.858154	858.642273	1990.792969	914.740723	4.955034
808.166565	857.453369	1971.177124	911.768738	4.876916
808.474915	848.685730	1955.424805	912.511719	5.767032
808.783264	850.097412	1949.851929	918.010193	6.175267
809.091492	848.537048	1938.260742	915.260925	6.123009
809.399719	849.280090	1934.619995	911.174255	5.702745
809.707825	850.914734	1925.777954	899.731628	4.541684
810.015930	855.447266	1927.264038	905.229980	4.644704
810.323975	857.602051	1906.830688	896.759521	3.732025
810.632080	854.927063	1897.022827	901.960693	4.513370
810.939880	846.456543	1878.892944	894.084656	4.613176
811.247864	846.456543	1879.784546	901.217712	5.299495
811.555664	844.153137	1867.896118	901.737793	5.624913
811.863464	853.292419	1870.942383	901.886414	4.775119
812.171143	847.125305	1855.413208	899.954590	5.239504
812.478882	856.190186	1850.286255	900.994812	4.507072
812.786438	855.149963	1841.890137	897.874023	4.329819
813.094055	860.499817	1837.134766	898.394226	3.880100
813.401489	850.914795	1834.385376	892.227051	4.200660
813.708984	851.657898	1829.333008	897.799744	4.719548
814.016357	848.908630	1835.945923	896.165039	4.787703
814.323730	852.772400	1822.868652	902.332214	5.108752
814.630981	848.982910	1815.884155	898.914307	5.164064
814.938232	847.868347	1804.441528	905.675842	6.043186
815.245361	850.097412	1808.751099	895.942200	4.782205
815.552490	855.075684	1808.751099	894.902039	4.176091
815.859619	855.893066	1812.317749	892.524231	3.830010
816.166565	853.589661	1816.850220	895.645020	4.365938
816.473572	852.549500	1819.525024	897.651184	4.664201
816.780457	851.509094	1819.450806	898.840027	4.889853
817.087341	853.812561	1815.735718	906.344543	5.461141
817.394043	842.889954	1838.769409	907.533386	6.491090
817.700806	846.976746	1850.360718	911.620117	6.442536
818.007507	841.626953	1864.849609	905.527283	6.245008
818.314209	849.577332	1857.196411	911.174316	6.113122
818.620667	843.856018	1868.416138	907.830627	6.244105
818.927246	843.484558	1888.255005	913.626282	6.713601
819.233704	849.800293	1929.344360	913.477722	5.898549
819.540161	856.933289	1985.814453	912.363098	4.910155
819.846497	862.283020	2062.866455	910.728516	4.035162
820.152832	854.852844	2143.707764	911.099915	4.364111
820.458984	850.691895	2237.997803	917.861511	4.841731
820.765259	847.942688	2349.823730	926.480652	5.229306
821.071350	845.342041	2474.503662	936.437195	5.591536
821.377502	847.348206	2663.975830	949.068665	5.599411
821.683472	843.335754	3027.464600	974.108704	5.987419
821.989441	846.828125	3783.569092	1009.105286	5.525757
822.295349	847.199646	4974.790039	1061.711548	5.197025
822.601196	855.298584	6465.228516	1127.915283	4.859539
822.907043	858.345032	7840.423340	1193.004517	4.793121
823.212769	852.623718	8659.610352	1238.775024	4.946227
823.518494	851.509216	8725.814453	1242.861694	4.969994
823.824097	843.410217	8072.693848	1214.552246	5.133870
824.129700	848.760010	7043.898438	1159.716797	5.019368
824.435242	844.970520	5934.187012	1102.652344	5.063291
824.740723	845.936523	5011.718750	1039.495117	4.646392
825.046082	845.267822	4308.740234	995.284912	4.331407
825.351501	844.821960	3793.971436	971.582336	4.298201
825.656799	844.599121	3425.503906	971.730957	4.925863
825.962036	844.376160	3196.354492	965.489563	5.149427
826.267212	848.091309	3084.974854	964.003479	5.181860
826.572449	854.629883	3084.751953	966.083984	4.997668
826.877502	855.595764	3218.051025	979.681396	5.252401
827.182495	855.670105	3508.128906	994.467590	5.232786
827.487488	853.515381	3865.153564	1007.470520	5.112007
827.792419	852.400818	4155.008301	1021.662354	5.125088
828.097290	849.057190	4256.208496	1027.457886	5.236066
828.402100	852.103577	4123.429688	1021.439453	5.176368
828.706848	851.732117	3823.321045	1002.269348	5.065884
829.011597	856.561768	3420.080078	973.142761	4.547695
829.316223	852.326477	3030.362305	953.006653	4.622521
829.620789	855.224304	2706.030518	937.477356	4.444174
829.925354	849.577393	2466.255859	929.378418	4.936110
830.229797	853.812561	2284.883057	919.198914	4.569052
830.534302	851.509216	2142.073486	919.124695	5.239219
830.838562	856.115967	2038.718140	918.827454	5.302839
831.142944	856.858948	1969.096313	917.415771	5.444596
831.447144	859.310974	1920.948242	916.152527	5.354141
831.751404	852.400818	1881.567871	909.539551	5.551940
832.055542	853.886902	1858.682495	912.288818	5.812318
832.359619	851.880676	1857.122070	910.579773	5.839303
832.663635	853.218079	1881.419067	910.877014	5.607750
832.967651	853.292480	1950.595093	906.493164	4.848315
833.271545	851.360596	2062.940674	912.363098	5.034954
833.575439	867.781433	2249.143311	925.143127	4.152547
833.879211	864.289246	2499.692139	943.941711	4.870511
834.183044	865.478088	2777.733154	950.554688	4.449019
834.486694	859.459534	3001.384033	966.009705	4.974506
834.790344	862.357361	3079.625000	969.353333	4.825578
835.093933	857.824890	3005.098877	974.851746	5.450020
835.397522	849.205811	2813.546875	960.882813	5.685215
835.700928	845.416321	2598.737549	945.353577	5.699883
836.004395	850.840515	2385.191406	932.127625	5.297818
836.307739	847.348328	2213.031982	922.468262	5.500537
836.611023	854.258362	2050.606445	915.632385	5.130114
836.914307	854.704163	1933.802734	900.474670	4.241550
837.217529	856.933289	1839.512573	896.313721	4.007863
837.520691	853.218079	1772.937378	896.759521	4.734210
837.823730	855.224304	1716.838501	905.081482	5.786485
838.126831	860.351257	1681.099121	901.291992	4.988223
838.429749	857.750671	1646.028198	899.062988	5.240834
838.732727	853.961121	1625.594849	887.174500	4.304293
839.035522	848.834290	1595.502319	889.923645	5.503029
839.338379	849.428711	1587.180542	883.607910	4.632886
839.641113	852.177917	1579.973145	888.289001	4.961709
839.943848	854.704163	1620.245239	886.357117	4.134717
840.246460	853.515320	1672.628540	892.895752	4.807691
840.549072	850.840515	1747.674316	893.564514	4.763870
840.851563	851.732117	1778.732788	890.963867	4.232117
841.154053	851.955078	1788.540649	888.660583	3.919076
841.456482	857.081848	1740.986938	894.753418	4.261947
841.758850	854.109802	1690.461060	898.245605	5.277185
842.061157	851.806396	1632.802246	897.725525	5.879561
842.363403	841.403992	1584.579712	890.666748	6.628682
842.665588	849.354431	1526.326538	887.025879	5.564697
842.967712	849.280090	1488.580688	882.419128	5.183640
843.269775	851.583435	1459.454102	877.886719	4.327118
843.571777	845.193359	1440.284058	876.697754	5.294049
843.873840	844.896179	1417.993164	874.914490	5.237911
844.175659	850.394592	1398.377319	876.549133	4.772877
844.477600	853.218079	1399.491821	875.286072	4.039732
844.779297	858.122131	1383.516602	874.394470	3.097166
845.081116	855.744446	1374.971802	877.886658	4.264454
845.382751	854.778503	1344.359009	876.252014	4.386104
845.684387	850.023132	1334.848389	879.744202	6.130264
845.985962	849.205811	1323.034302	870.084900	4.406466
846.287537	853.069580	1314.117920	869.044617	3.464937
846.588989	855.224365	1300.297607	866.072571	2.437398
846.890381	855.595886	1296.508179	867.261414	2.645771
847.191711	846.382324	1302.080933	868.821716	4.924174
847.493042	847.868347	1302.675293	869.787598	4.819463
847.794250	847.050964	1291.529907	871.273743	5.449702
848.095459	846.382324	1284.768433	870.159180	5.423725
848.396606	838.134766	1277.932617	875.954834	8.599421
848.697693	836.871582	1273.325806	877.440918	9.295210
848.998657	841.255371	1264.929565	874.840271	7.927058
849.299622	845.119141	1265.523926	871.199402	6.203607
849.600464	848.239929	1260.545654	870.976501	5.514493
849.901367	847.422546	1259.876953	875.806152	6.881635
850.202087	853.366699	1248.954468	872.759766	4.902342
850.502808	848.834229	1248.880249	873.725647	6.222139
850.803467	853.440918	1237.363281	868.821716	4.006226
851.104065	853.961121	1235.580078	870.307800	4.283508
851.404663	857.527649	1235.505737	870.827942	3.518800
851.705139	857.379089	1238.849365	873.131348	4.129354
852.005615	854.629883	1227.703857	875.286133	5.536770
852.306030	861.168457	1228.892700	872.388184	3.051125
852.606384	863.100403	1227.406616	876.400574	3.650822
852.906616	865.255188	1239.963745	877.960876	3.390819
853.206909	857.007629	1234.316772	873.354187	4.332404
853.506958	852.400879	1237.511719	866.518311	3.665810
853.807129	847.942627	1230.007202	861.837219	3.636713
854.107178	846.679443	1228.595581	869.862000	6.070065
854.407166	840.586731	1220.942261	872.313965	8.341468
854.707092	845.119202	1216.335571	867.781433	6.104858
855.007019	852.549500	1211.357300	868.895996	4.555781
855.306763	852.698059	1197.165405	874.765869	6.406358
855.606567	858.345032	1203.258301	879.298340	6.074950
855.906250	853.366699	1199.765991	879.149841	7.443185
856.205933	854.481262	1208.756714	878.109558	6.669470
856.505493	844.376160	1208.756714	876.029114	8.686785
856.805054	845.564941	1219.827759	866.815613	5.678008
857.104492	847.199524	1219.753540	856.041687	2.373391
857.403931	844.747559	1219.530518	849.131531	1.169736
857.703308	842.444153	1214.849487	852.475098	2.693556
858.002563	841.924072	1214.329468	853.886902	3.212314
858.301819	841.255371	1209.945435	863.694824	6.086265
858.601013	844.747559	1206.973389	863.471924	5.169252
858.900208	849.800110	1198.874390	863.397644	3.895313
859.199219	847.348206	1190.032349	861.019958	3.989608
859.498291	846.010803	1176.955078	862.283020	4.916905
859.797302	839.546387	1184.311157	862.580261	6.681041
860.096191	852.400879	1181.487549	862.134521	2.957775
860.395020	856.264587	1186.837402	862.431641	1.865566
860.693787	860.128357	1180.744629	867.484192	2.294280
860.992554	858.419373	1183.939575	865.403809	2.145623
861.291260	848.388489	1176.732300	864.586426	4.933224
861.589844	844.153259	1177.177979	863.917725	5.934834
861.888428	846.976746	1169.376343	868.375793	6.637430
862.186890	859.088074	1180.744629	866.146729	2.194469
862.485413	865.849609	1183.196533	866.741211	0.280955
862.783813	866.666992	1190.923950	868.895996	0.687419
863.082153	859.236633	1184.311035	867.929993	2.674268
863.380371	853.441101	1185.276978	870.233398	5.060422
863.678589	844.153137	1185.648560	859.831055	4.590960
863.976746	844.673340	1180.373169	862.654541	5.356333
864.274902	843.781738	1173.834351	867.558594	7.203959
864.572937	852.995300	1166.775513	872.239685	6.133078
864.870911	860.202637	1172.496948	872.982666	4.092303
865.168884	863.026184	1173.685669	860.945618	-0.669726
865.466736	855.670166	1170.490723	863.397644	2.454566
865.764587	847.794006	1173.314331	867.855774	6.162985
866.062317	857.007507	1176.137817	870.307800	4.167668
866.360107	859.088074	1179.332642	869.490479	3.248269
866.657715	861.465637	1174.800293	868.153015	2.134261
866.955322	850.840393	1176.955078	865.775208	4.579620
867.252808	851.583496	1177.103638	865.329407	4.222753
867.550293	845.044861	1180.893188	865.775208	6.172533
867.847717	847.942688	1164.695190	869.118958	6.685431
868.145081	846.010803	1168.410278	861.688660	4.862866
868.442383	854.555603	1159.939819	857.750671	1.046245
868.739624	855.818665	1158.750977	863.620544	2.575453
869.036804	851.509094	1151.840820	871.422363	6.630424
869.333984	847.571106	1154.664307	873.279968	8.371680
869.631042	851.732117	1160.385742	866.741272	4.862783
869.928101	855.150085	1165.958374	870.010559	4.781235
870.224976	863.620422	1169.450562	869.936279	2.065152
870.521851	858.196472	1171.159546	869.118958	3.490024
870.818726	864.660706	1171.976807	862.431702	-0.725313
871.115479	859.088074	1168.113159	866.518372	2.404432
871.412231	860.871338	1167.815918	869.416199	2.783845
871.708862	856.784668	1160.980103	873.799988	5.593549
872.005493	851.063293	1165.735352	875.286133	7.697804
872.302063	855.149963	1169.376221	873.056946	5.698754
872.598572	856.636047	1169.301880	871.868164	4.871692
872.895020	853.886902	1166.998535	867.558594	4.366395
873.191406	844.747620	1166.032593	871.422363	8.302518
873.487671	845.639343	1164.843750	871.199402	8.007426
873.783997	855.967468	1167.815796	871.348083	4.932082
874.080200	857.007629	1175.394775	874.988770	5.647571
874.376343	855.001465	1177.252319	875.063171	6.225493
874.672424	842.741455	1174.874634	879.892761	11.185665
874.968445	847.348145	1165.066650	876.697754	9.237614
875.264465	848.388428	1164.992310	879.446960	9.809903
875.560364	857.007568	1159.716919	874.617371	5.817396
875.856201	855.150085	1159.419678	870.307800	4.981673
876.152039	857.453430	1170.565063	873.354187	5.078303
876.447754	857.304871	1172.199707	871.050842	4.365258
876.743469	855.744446	1178.143921	867.855774	3.756622
877.039063	844.598938	1170.936523	859.608215	4.599310
877.334595	846.159363	1172.051025	856.858948	3.283172
877.630127	845.490723	1175.914795	858.567871	3.957686
877.925537	848.982910	1175.469116	862.877441	4.255779
878.221008	847.719727	1183.865234	860.648438	3.846165
878.516296	850.246033	1187.134644	860.574036	3.065703
878.811646	851.509216	1195.902222	860.053955	2.481101
879.106812	842.518555	1207.939331	863.769226	5.815398
879.401978	843.410156	1227.258057	869.787781	6.871895
879.697083	848.314148	1263.146362	872.685547	5.875001
879.992126	856.933289	1296.656738	872.834045	3.616081
880.287109	862.060242	1348.891602	867.335632	1.083618
880.582031	860.276855	1424.308960	863.694824	0.605988
880.876892	858.790833	1570.536743	874.765869	2.244486
881.171753	853.515381	1847.017090	893.861755	4.061027
881.466492	847.199646	2299.594971	916.524109	4.773113
881.761230	851.806396	2898.103516	946.393738	4.622366
882.055786	850.171692	3484.797607	970.690735	4.574427
882.350403	857.007568	3866.490967	995.210632	4.592252
882.644958	850.394714	3918.725586	997.588379	4.797190
882.939453	846.679504	3696.931885	984.065247	4.820126
883.233826	837.763184	3336.860596	967.049805	5.173333
883.528137	838.729187	2942.239258	947.062439	5.150118
883.822449	845.267761	2588.781250	933.985168	5.088427
884.116577	851.286316	2277.601318	913.923523	4.391541
884.410828	857.676270	2047.411499	899.880188	3.547337
884.704956	858.047852	1862.249146	893.341614	3.514610
884.999023	856.636169	1716.244263	884.796814	3.275986
885.292969	851.955078	1602.486816	881.527527	3.940200
885.586914	848.314270	1509.162476	882.344727	5.149512
885.880798	854.332703	1456.407593	887.397400	5.491791
886.174622	859.831055	1414.129395	883.162109	4.209115
886.468384	864.214905	1385.894165	875.583313	2.179195
886.762085	864.215027	1356.916138	872.091003	1.598530
887.055664	858.790833	1331.281860	874.022888	3.223777
887.349304	856.784668	1303.864136	875.286072	4.138281
887.642822	847.199646	1273.177124	867.558594	4.779348
887.936340	844.673340	1246.428101	869.936279	6.288149
888.229736	840.809570	1216.632690	868.153015	7.275615
888.523071	841.626953	1202.738159	876.029114	9.526750
888.816284	851.657776	1186.243042	871.199463	5.840570
889.109619	858.939453	1174.725952	869.787598	3.435278
889.402710	867.409973	1159.791138	862.134460	-1.804327
889.695862	867.930115	1145.673584	861.094238	-2.461220
889.988892	864.363525	1138.243286	859.905457	-1.627747
890.281921	855.298645	1131.036011	861.763000	2.344389
>>>>>End Processed Spectral Data<<<<<
