Jaz Data File
++++++++++++++++++++++++++++++++++++
Date: Fri Jun 04 14:01:54 2021
User: jaz
Dark Spectrum Present: Yes
Reference Spectrum Present: Yes
Processed Spectrum Present: Yes
Spectrometers: JAZA3586
Integration Time (usec): 40000 (JAZA3586)
Spectra Averaged: 10 (JAZA3586)
Boxcar Smoothing: 1 (JAZA3586)
Correct for Electrical Dark: No (JAZA3586)
Strobe/Lamp Enabled: Yes (JAZA3586)
Correct for Detector Non-linearity: No (JAZA3586)
Correct for Stray Light: No (JAZA3586)
Number of Pixels in Processed Spectrum: 2048
>>>>>Begin Processed Spectral Data<<<<<
W	D	R	S	P
191.335022	0.000000	0.000000	0.000000	0.000000
191.713211	266.152344	268.975861	268.455719	81.578239
192.091385	547.388123	546.645081	536.614258	1449.967163
192.469528	823.571350	825.949036	810.271179	-559.374695
192.847641	842.147034	837.763184	820.896484	484.746246
193.225739	843.261536	840.735291	840.958191	91.176613
193.603790	856.338867	850.766113	849.131531	129.331680
193.981842	857.973572	862.506042	859.459656	32.787502
194.359863	862.580261	865.700989	866.815613	135.716797
194.737854	865.923889	857.973572	872.982666	-88.786102
195.115829	869.267517	854.927063	868.004395	8.808107
195.493774	874.543152	863.174805	861.688660	113.072655
195.871704	876.474915	869.490479	863.769226	181.914307
196.249603	878.406921	881.453186	868.450256	-326.848328
196.627457	872.016785	876.029053	867.335632	-116.670975
197.005310	871.273743	879.446960	869.564697	-20.910313
197.383133	865.180908	860.276855	874.171570	-183.331253
197.760910	869.490417	872.165344	875.583252	227.775757
198.138687	869.787598	877.589417	867.855774	-24.761196
198.516449	879.224121	888.809143	854.258362	-260.466370
198.894180	877.663757	883.756531	851.583496	-428.052368
199.271866	870.010559	872.611145	854.629883	-591.431213
199.649536	863.174744	864.660706	859.385254	-255.019302
200.027191	863.620544	853.441101	858.939453	45.985729
200.404816	857.899231	857.156189	849.948792	1069.985229
200.782410	862.951843	872.313965	853.366699	-102.382179
201.159988	864.512207	886.951660	848.462708	-71.523575
201.537537	879.224121	893.193054	855.670105	-168.617142
201.915070	874.394348	895.422119	853.366699	-99.999420
202.292557	870.530701	896.016541	858.493652	-47.230339
202.670029	856.710388	894.084656	860.128235	9.144919
203.047485	855.744446	886.803040	865.849609	32.535805
203.424911	853.218201	887.991882	857.676270	12.820238
203.802292	852.697998	888.511963	850.023193	-7.468608
204.179688	851.360535	891.558350	839.843689	-28.650427
204.557037	849.577332	895.719238	847.496826	-4.508928
204.934357	850.617493	903.966858	850.840515	0.418041
205.311661	853.143860	896.982422	847.794006	-12.203533
205.688934	860.128357	896.165100	846.456604	-37.938370
206.066177	864.215027	890.592468	851.063416	-49.859314
206.443390	857.527771	898.022705	852.029358	-13.578027
206.820587	850.617493	890.592346	844.004578	-16.542686
207.197769	850.171692	896.090820	843.484436	-14.563116
207.574921	846.530823	891.112488	843.335938	-7.166366
207.952042	849.131531	895.570740	847.571106	-3.360145
208.329147	855.595886	894.158936	850.023132	-14.451020
208.706223	876.400635	910.282654	865.106628	-33.333332
209.083267	879.075500	909.688232	866.369690	-41.504986
209.460297	873.428528	909.242432	860.797058	-35.269737
209.837280	857.379089	901.812195	848.685730	-19.565050
210.214264	850.468933	904.115479	852.920959	4.570707
210.591217	848.314148	899.805908	846.530945	-3.463084
210.968124	848.462708	892.524231	854.258484	13.153827
211.345016	854.555603	891.855469	846.976746	-20.318726
211.721893	849.502930	897.502502	853.143860	7.585339
212.098724	849.428711	908.425110	848.462708	-1.637394
212.475555	846.233704	914.294983	854.332703	11.899570
212.852356	844.970520	913.031921	850.989075	8.842831
213.229126	840.215149	910.654114	842.444336	3.164707
213.605865	840.140808	899.731628	844.821960	7.855493
213.982590	849.280090	897.725525	848.462830	-1.686972
214.359283	844.153137	888.140442	845.713562	3.547444
214.735931	845.416321	891.706970	835.682678	-21.027233
215.112579	843.484558	890.295227	829.887024	-29.047937
215.489197	853.218079	894.084717	843.930359	-22.726900
215.865799	851.434875	898.840027	843.410156	-16.927948
216.242355	846.605225	896.090820	839.992249	-13.363437
216.618896	848.537109	905.230042	836.722900	-20.838945
216.995407	845.564941	900.474670	844.004578	-2.841689
217.371902	846.828125	904.561340	848.016907	2.059095
217.748367	837.986084	895.867920	835.757019	-3.851061
218.124802	846.382324	897.799805	826.989258	-37.716873
218.501236	847.273926	893.341614	826.840637	-44.354927
218.877609	851.954895	890.369568	829.292664	-58.993687
219.253983	843.038574	891.112549	831.967590	-23.029058
219.630295	830.778625	897.874084	837.986145	10.742187
220.006592	830.778625	907.310547	842.518555	15.339911
220.382889	831.744629	907.830627	849.205811	22.949270
220.759140	842.221375	905.601563	843.930359	2.696402
221.135391	844.004639	904.264160	843.930359	-0.123266
221.511581	847.942688	902.926697	837.986023	-18.108292
221.887772	841.924133	910.579895	841.552551	-0.541225
222.263931	843.187317	906.121765	839.992249	-5.076819
222.640060	839.100586	904.635742	840.512390	2.154270
223.016159	846.308044	906.344666	837.911804	-13.985198
223.392212	845.490662	917.490051	841.998474	-4.850302
223.768265	846.753845	923.880066	844.450378	-2.986619
224.144302	848.239807	925.217468	849.428650	1.544400
224.520294	849.205750	920.462097	848.165527	-1.459831
224.896286	847.051025	924.771729	847.868347	1.051614
225.272217	843.855957	926.109131	843.410156	-0.541986
225.648148	839.992249	936.065674	843.335938	3.480347
226.024048	843.707458	938.517639	845.639343	2.037634
226.399902	847.719788	945.427795	850.023132	2.357376
226.775772	850.543213	943.272949	845.639343	-5.288346
227.151581	850.543274	948.548523	845.862122	-4.776430
227.527374	841.998474	947.285339	839.620789	-2.258293
227.903137	835.905579	953.675476	844.301758	7.129308
228.278870	841.552673	967.644348	848.239807	5.303391
228.654572	849.205750	985.848450	846.753845	-1.794391
229.030273	852.549377	1008.659363	853.515320	0.618758
229.405930	845.119141	1015.495178	847.571106	1.439149
229.781555	844.004578	1027.755249	847.348206	1.819655
230.157181	840.586670	1023.371338	849.280090	4.756099
230.532761	836.425781	1023.594238	854.035461	9.408465
230.908325	835.237000	1010.739929	858.865173	13.463122
231.283859	831.596130	1006.653259	850.246033	10.653609
231.659332	832.784973	1005.315735	844.004578	6.502959
232.034821	833.973816	1001.006287	842.518555	5.115615
232.410263	841.775574	997.291199	844.524719	1.767762
232.785690	839.843567	983.545105	845.787903	4.136585
233.161087	844.524719	981.761902	849.354309	3.519156
233.536469	841.998535	980.944519	851.583496	6.898336
233.911804	847.719788	987.631836	851.880676	2.973932
234.287140	841.924133	997.365417	843.038635	0.716992
234.662430	840.289368	1013.117615	844.004578	2.149654
235.037704	835.608398	1025.228882	845.342102	5.133255
235.412933	835.682678	1029.018311	847.794006	6.264406
235.788162	841.478271	1028.572510	848.017029	3.494900
236.163345	850.245911	1027.903809	845.119141	-2.885754
236.538513	853.589600	1035.111206	852.995300	-0.327399
236.913635	854.704102	1036.894531	845.267761	-5.179383
237.288742	850.394592	1034.070923	848.611389	-0.970840
237.663834	848.016907	1032.956421	850.617493	1.406182
238.038879	845.342041	1033.179321	859.088074	7.318054
238.413910	846.233643	1041.872681	864.512146	9.342974
238.788910	848.016907	1043.730347	862.877441	7.593007
239.163879	850.320313	1057.550659	861.985840	5.629256
239.538834	849.280090	1067.135742	857.601990	3.819914
239.913757	847.868347	1091.284058	856.710449	3.632511
240.288651	843.261536	1105.698853	856.784668	5.152900
240.663528	838.134766	1146.862549	854.109680	5.174434
241.038361	828.252441	1178.069702	853.292419	7.158017
241.413177	830.258545	1221.536743	855.447205	6.437532
241.787979	834.939636	1256.682007	859.162354	5.743487
242.162735	840.735168	1296.879761	858.939453	3.990902
242.537476	840.140808	1319.839233	860.276855	4.197647
242.912170	839.026306	1340.049561	859.905457	4.167302
243.286865	837.466003	1341.758423	866.369690	5.731533
243.661514	836.648621	1332.396484	865.180847	5.755391
244.036148	834.791016	1304.607178	871.793762	7.876006
244.410751	842.444275	1285.065552	869.638977	6.144011
244.785339	842.369934	1278.229736	872.982727	7.023541
245.159882	850.097351	1295.616577	869.341858	4.319568
245.534378	847.571106	1330.316040	870.233459	4.694478
245.908890	851.732117	1397.114136	868.227356	3.024529
246.283356	844.821960	1490.661133	872.016785	4.210773
246.657791	843.410156	1590.821289	874.245850	4.125667
247.032196	844.227539	1668.096069	875.063171	3.742785
247.406586	848.834290	1710.299927	871.719421	2.656534
247.780960	849.874512	1720.850952	871.868103	2.525165
248.155289	847.571106	1705.544556	877.738037	3.516068
248.529602	843.038757	1650.560547	871.793762	3.560895
248.903870	845.267761	1576.703735	869.490479	3.311666
249.278122	848.091248	1506.190552	855.150085	1.072610
249.652344	852.252136	1456.110352	860.128357	1.304316
250.026550	851.880676	1422.079712	852.846619	0.169404
250.400711	850.097412	1404.470093	863.992004	2.506363
250.774857	852.623718	1408.556641	866.518311	2.499329
251.148987	847.645447	1422.451172	874.245789	4.627710
251.523071	850.468933	1445.633667	864.586426	2.372031
251.897125	851.286316	1458.636719	864.586426	2.189858
252.271164	855.298584	1483.156616	861.911560	1.053260
252.645187	854.258301	1484.345581	867.038513	2.028324
253.019165	844.524658	1477.955566	863.100403	2.932560
253.393112	841.924072	1452.246704	868.078796	4.285393
253.767044	832.710510	1423.937378	866.444031	5.705681
254.140930	843.484436	1399.714722	865.403809	3.940701
254.514801	846.233643	1377.572388	866.369812	3.789705
254.888657	851.434875	1375.417603	871.422363	3.814532
255.262466	851.806396	1382.625000	867.409973	2.939531
255.636276	852.400818	1406.847656	860.722717	1.500937
256.010010	852.177917	1436.865845	860.351257	1.397898
256.383759	844.450378	1474.537476	865.849609	3.396234
256.757446	835.385437	1504.258667	863.843445	4.254619
257.131134	841.329773	1538.437866	864.735046	3.357481
257.504791	843.558777	1585.099976	870.679260	3.657313
257.878418	853.738281	1666.461426	877.366516	2.907292
258.252014	853.441101	1764.764038	880.858704	3.008550
258.625580	858.196472	1899.177734	887.025879	2.769445
258.999115	854.927063	2060.340088	891.409668	3.026565
259.372650	855.075684	2228.635986	895.719299	2.958997
259.746124	850.989075	2366.615967	895.496338	2.936558
260.119598	842.444275	2442.256348	898.171326	3.483350
260.493042	838.357605	2461.054688	896.833801	3.603642
260.866425	841.924133	2396.262939	900.623291	3.776471
261.239838	847.645508	2284.660156	898.171204	3.516018
261.613159	845.862122	2146.308594	895.867859	3.845274
261.986511	836.574402	2030.767578	878.183838	3.484314
262.359802	839.323547	1949.926147	882.864929	3.920519
262.733063	842.667175	1896.651245	879.447021	3.489602
263.106293	848.759949	1871.462524	889.849304	4.017723
263.479523	849.354431	1853.407104	883.830811	3.433722
263.852692	844.821960	1856.304810	887.843262	4.253290
264.225861	850.394592	1851.846680	886.654358	3.620719
264.598969	851.955017	1860.837280	889.849365	3.756072
264.972076	855.372864	1875.920776	886.802917	3.079724
265.345154	845.193420	1918.942017	881.453125	3.376927
265.718201	844.450378	1980.687622	882.567688	3.354696
266.091217	847.199524	2049.566162	883.607971	3.028065
266.464203	851.434875	2108.414063	891.112549	3.156589
266.837158	852.623718	2153.367188	889.700745	2.850449
267.210114	845.342041	2192.004639	892.895752	3.531227
267.583038	840.660950	2223.583252	892.895813	3.777136
267.955902	842.890076	2245.948486	892.747253	3.553464
268.328766	845.639343	2245.205322	891.484070	3.275639
268.701569	847.794128	2241.564697	889.254944	2.974723
269.074371	844.896301	2249.589111	891.186829	3.295420
269.447144	844.376160	2284.065674	887.917480	3.024355
269.819885	844.450439	2365.352783	897.874084	3.512628
270.192596	837.837402	2481.710938	899.880188	3.774182
270.565277	837.391663	2631.356689	909.093750	3.996850
270.937927	835.385498	2770.080078	906.418884	3.671556
271.310577	844.599060	2875.218018	917.341370	3.582273
271.683136	846.010742	2960.369141	921.353699	3.563396
272.055725	847.422546	2988.678467	929.972839	3.855228
272.428284	838.951965	2953.458984	918.976013	3.784525
272.800812	841.998474	2885.843506	914.963684	3.569997
273.173279	841.404053	2802.996094	907.830627	3.386360
273.545776	844.376160	2771.863281	918.381592	3.839478
273.918152	843.707336	2730.773438	923.508484	4.228848
274.290558	847.050964	2729.436279	926.703552	4.231471
274.662964	852.029297	2716.953125	917.564270	3.514083
275.035278	849.057190	2740.804443	913.477600	3.405339
275.407593	848.685730	2766.290039	914.294922	3.421415
275.779907	846.085144	2833.682861	921.576660	3.798129
276.152161	844.450439	2888.146729	922.691223	3.828396
276.524384	846.530945	2937.707031	926.332031	3.816087
276.896606	837.614563	2951.229736	914.963684	3.659565
277.268799	839.992249	2952.567383	916.821289	3.636748
277.640930	840.289490	2956.208008	909.316711	3.262282
278.013031	853.292419	2973.669189	918.604553	3.080214
278.385162	852.549377	2990.907471	919.867676	3.148130
278.757233	852.029297	2999.749268	924.028625	3.352361
279.129272	847.496826	3018.324951	928.486816	3.730834
279.501282	848.388489	3046.560303	930.790222	3.748648
279.873230	854.332703	3120.268311	929.452820	3.315192
280.245178	857.007568	3229.122070	938.294739	3.426781
280.617126	856.487488	3375.944092	941.266907	3.364988
280.988983	843.930237	3507.757080	945.873596	3.826951
281.360870	842.964355	3621.960693	940.746765	3.518623
281.732697	844.376160	3705.922607	949.885986	3.687161
282.104492	846.605225	3761.946533	962.666016	3.981036
282.476288	845.193542	3780.076416	961.402893	3.959591
282.848053	846.679504	3777.773193	958.505127	3.815150
283.219757	850.766174	3775.098389	953.229675	3.503825
283.591461	851.583496	3749.092041	961.997314	3.810647
283.963135	851.434875	3754.218994	962.145996	3.813963
284.334747	848.016907	3826.664307	962.220215	3.834066
284.706360	846.085144	3935.963623	955.904541	3.554166
285.077942	838.951965	4041.696289	966.381165	3.978750
285.449524	835.905579	4120.531738	969.724792	4.074108
285.821014	828.029480	4148.320801	970.244934	4.283222
286.192535	835.608398	4196.840820	964.597961	3.837568
286.563995	842.592834	4192.902832	968.164551	3.748063
286.935425	850.989075	4181.311035	969.650574	3.563064
287.306824	847.348328	4099.429199	955.681580	3.331198
287.678223	846.308044	4010.860596	947.656921	3.202629
288.049561	845.639343	3964.867188	953.452454	3.456404
288.420898	844.227539	3950.600830	954.567078	3.552037
288.792145	843.335876	3992.136475	963.632019	3.820380
289.163452	848.239929	4085.014893	963.632019	3.565033
289.534668	851.954895	4216.010254	974.554443	3.644397
289.905914	852.995178	4332.220215	976.932129	3.562200
290.277039	853.961182	4434.980957	982.802063	3.597883
290.648193	853.143860	4495.240234	989.489441	3.743602
291.019318	851.137695	4515.153320	993.873230	3.895604
291.390381	847.348206	4445.085938	993.204407	4.054109
291.761475	842.295654	4353.173340	990.380920	4.217899
292.132507	836.574402	4286.598145	983.025085	4.244918
292.503510	838.357605	4282.511719	983.916687	4.226265
292.874481	843.410217	4352.950684	992.461426	4.247029
293.245422	847.868347	4452.516602	998.257019	4.172076
293.616364	848.165527	4602.904785	998.925781	4.015199
293.987213	850.023193	4760.203613	997.662598	3.775770
294.358093	849.948792	4899.149902	998.331360	3.664490
294.728943	845.416321	5017.959473	1001.377747	3.737803
295.099731	842.221375	5136.918457	1002.195129	3.724913
295.470490	846.828125	5265.164551	1011.780090	3.733350
295.841248	851.434875	5379.145020	1011.854431	3.543062
296.211975	853.218079	5482.724121	1010.219788	3.391328
296.582642	846.456604	5608.963379	1003.532532	3.298177
296.953308	844.078918	5662.164551	1019.879089	3.648756
297.323883	841.701172	5659.415527	1024.040161	3.784761
297.694519	843.484436	5535.106934	1027.458008	3.921321
298.065063	845.936462	5404.036621	1008.287903	3.561823
298.435608	845.639221	5204.608398	1011.185730	3.797836
298.806122	846.159363	4996.932129	999.743164	3.700125
299.176575	839.917969	4793.862793	1001.452148	4.085393
299.547028	838.134705	4676.390625	983.173645	3.778772
299.917450	843.261536	4626.979004	983.545105	3.707559
300.287872	840.586731	4638.793457	973.885742	3.509525
300.658234	846.382324	4624.675781	977.675232	3.474926
301.028564	842.444275	4593.171387	976.783508	3.581685
301.398865	841.998352	4531.128418	982.207703	3.800607
301.769135	841.552551	4474.509766	974.108704	3.648712
302.139374	841.849854	4431.786133	969.576233	3.557901
302.509583	852.549377	4400.727051	961.774414	3.078342
302.879791	853.292419	4351.315918	962.517395	3.122477
303.249939	852.475098	4306.437012	963.483398	3.213941
303.620087	849.948730	4255.316895	964.746521	3.371083
303.990173	843.781677	4238.970215	973.291321	3.814505
304.360260	840.958191	4221.657715	972.399719	3.887998
304.730286	838.952087	4210.363770	972.696960	3.967029
305.100281	843.856018	4210.883789	971.285156	3.784618
305.470276	842.444275	4207.094238	974.108643	3.913167
305.840179	844.896240	4250.041504	973.737122	3.783712
306.210144	838.134766	4261.186523	976.040527	4.028737
306.579987	852.326477	4333.409180	976.634949	3.570971
306.949890	851.434875	4363.873535	984.585388	3.790828
307.319702	861.094238	4456.825684	984.585388	3.434382
307.689484	854.555603	4566.645020	980.201477	3.384775
308.059265	853.663879	4683.226074	976.189148	3.199459
308.429016	848.611328	4783.534668	979.607117	3.329056
308.798737	849.874512	4847.063965	981.761902	3.299503
309.168396	842.815735	4905.391113	984.065247	3.476846
309.538055	839.769348	4936.003906	983.693787	3.513579
309.907684	831.373108	4923.967285	991.569824	3.914307
310.277313	830.184326	4945.292480	995.953613	4.028309
310.646851	838.208984	4930.580566	997.068176	3.881837
311.016388	843.187256	4925.824707	1000.114563	3.843773
311.385895	858.642273	4853.453613	1003.309631	3.621382
311.755371	856.487488	4791.410645	1006.504639	3.812454
312.124817	850.766113	4740.067871	1006.281738	3.998549
312.494232	846.085022	4684.637695	1005.761658	4.159813
312.863617	844.673340	4660.415039	997.068176	3.993846
313.232971	855.075684	4672.526855	997.513977	3.731241
313.602295	850.691833	4755.150879	996.176575	3.726118
313.971619	847.422546	4868.462402	1001.452148	3.830591
314.340820	840.809570	4896.623535	1002.566650	3.988277
314.710083	844.153259	4892.536621	1008.065125	4.048823
315.079285	851.211975	4800.772949	1004.498535	3.881104
315.448486	860.351257	4718.148926	1001.674988	3.663327
315.817596	858.122131	4577.939453	990.752441	3.565506
316.186707	856.115906	4471.092285	981.390381	3.465430
316.555786	850.245911	4367.662598	974.034424	3.519302
316.924866	844.821960	4317.954102	966.826965	3.512824
317.293884	837.837463	4305.471191	972.325439	3.878379
317.662872	838.060364	4321.966309	970.542175	3.802680
318.031830	841.255371	4358.671387	969.501953	3.646045
318.400757	852.549500	4398.200684	972.325378	3.378107
318.769684	849.205811	4429.928223	973.737122	3.477826
319.138550	850.171692	4442.187988	975.000305	3.475168
319.507416	848.611389	4418.336426	972.548340	3.471891
319.876190	850.097412	4381.185547	974.108643	3.511983
320.244995	854.332703	4302.944824	974.628723	3.488245
320.613770	850.097473	4235.180664	972.771179	3.623950
320.982483	847.794128	4215.341797	969.650574	3.618551
321.351166	843.261719	4255.613770	965.935364	3.594988
321.719818	839.992371	4338.759277	969.873352	3.712193
322.088440	840.512390	4479.562500	972.325378	3.622181
322.457062	847.868347	4661.901367	986.219971	3.627436
322.825623	852.252136	4834.654785	998.182800	3.664387
323.194183	852.029297	4965.130371	1000.857605	3.618397
323.562653	850.766113	5041.513672	1003.235352	3.638235
323.931183	848.982910	5067.520020	998.925781	3.554381
324.299591	851.731995	5034.083496	1004.572754	3.654422
324.668060	848.314148	4953.242188	996.845276	3.618361
325.036407	849.577332	4871.286133	992.164246	3.545431
325.404755	852.400818	4790.370605	984.065247	3.343460
325.773102	852.326477	4721.194824	990.455322	3.570265
326.141388	858.345032	4648.378418	984.585449	3.330852
326.509674	852.846680	4558.249023	992.461426	3.767870
326.877899	855.893066	4477.407715	982.356384	3.492001
327.246124	853.812561	4415.364746	986.368652	3.721863
327.614288	851.211975	4365.433594	976.337708	3.560553
327.982422	845.639221	4351.315918	975.520325	3.704880
328.350525	842.072693	4359.563477	977.600891	3.852980
328.718628	848.834229	4405.111328	981.316101	3.725297
329.086700	852.623718	4460.318359	989.117859	3.783417
329.454712	848.165527	4512.181152	985.922852	3.759736
329.822693	842.741516	4555.796387	989.117859	3.942208
330.190674	841.775574	4606.322754	992.684326	4.008683
330.558563	842.890076	4666.359375	995.730713	3.997433
330.926483	848.685730	4753.294434	990.529602	3.632730
331.294312	848.908630	4839.484863	994.839111	3.656878
331.662231	856.413147	4946.480957	1003.532532	3.596991
332.029999	848.611389	5046.566406	1013.489075	3.927572
332.397766	843.558777	5115.073730	1016.684082	4.053019
332.765503	837.466003	5171.246582	1018.838867	4.185095
333.133240	843.930359	5197.178223	1018.318848	4.005939
333.500916	851.434875	5201.562012	1016.907043	3.803847
333.868561	847.794006	5164.782227	1010.962830	3.779691
334.236176	846.382324	5122.132324	1021.068054	4.085499
334.603790	841.255371	5090.851074	1018.764648	4.177086
334.971344	842.072754	5055.854492	1019.507629	4.210823
335.338867	838.951965	5035.644043	1016.981262	4.242134
335.706360	843.484558	5034.009277	1023.371399	4.292704
336.073853	847.273926	5062.021484	1025.749023	4.234538
336.441284	847.273926	5092.485840	1032.584961	4.365178
336.808655	847.794006	5122.132324	1038.974976	4.472762
337.176086	849.057129	5154.230957	1043.358765	4.513212
337.543396	852.623718	5181.277344	1039.049194	4.306777
337.910706	844.524719	5199.778809	1029.092651	4.237823
338.277954	851.657715	5205.648438	1035.631348	4.225402
338.645264	861.168457	5177.933594	1039.792358	4.137911
339.012421	864.140625	5132.088867	1043.581665	4.204387
339.379669	857.750671	5028.214355	1036.225708	4.279501
339.746796	848.165527	4918.691895	1032.882080	4.537903
340.113953	851.360596	4850.556152	1029.612793	4.457201
340.481018	845.267761	4823.583984	1027.755127	4.587050
340.848114	843.855957	4844.240234	1030.430054	4.663904
341.215118	843.484558	4876.933594	1033.402222	4.708568
341.582153	850.097412	5003.842285	1048.188477	4.768975
341.949066	847.496887	5200.818848	1059.779785	4.876343
342.316010	842.444275	5443.565918	1080.213013	5.167625
342.682922	840.809631	5711.353027	1096.188110	5.243326
343.049835	843.261536	6033.677734	1108.373657	5.107724
343.416656	852.920898	6378.219238	1121.599487	4.862698
343.783478	846.679504	6643.406250	1132.522095	4.931104
344.150269	851.434875	6794.611816	1150.057495	5.024630
344.516998	849.651611	6820.469238	1153.624146	5.090970
344.883728	849.502991	6735.021484	1147.011108	5.054918
345.250427	846.382263	6597.412598	1141.289917	5.127910
345.617065	837.391663	6417.154297	1128.286743	5.213395
345.983704	844.747559	6278.802734	1126.726440	5.189106
346.350281	840.066589	6127.002441	1118.181763	5.260423
346.716827	848.982910	5982.335449	1130.590210	5.485836
347.083405	836.722961	5857.357910	1129.029907	5.822111
347.449860	845.787903	5795.612793	1125.314697	5.647206
347.816376	841.552551	5775.029785	1113.351929	5.509286
348.182770	852.698059	5792.119629	1113.351929	5.277012
348.549194	840.735291	5815.525391	1114.986572	5.512821
348.915558	845.416321	5885.815918	1127.618042	5.598797
349.281921	841.924133	5955.066406	1138.094849	5.792343
349.648193	844.970520	6018.148926	1144.484863	5.789755
350.014526	840.809570	6057.604004	1137.797607	5.692922
350.380737	844.747559	6106.494629	1136.385864	5.542614
350.746948	845.490662	6159.769531	1143.964722	5.616455
351.113159	845.193420	6216.314453	1156.001709	5.786656
351.479309	846.010742	6292.325684	1159.642578	5.758606
351.845428	852.177917	6401.699219	1165.661133	5.648833
352.211517	849.651611	6539.382324	1171.605347	5.658506
352.577576	848.462708	6661.907715	1179.927246	5.701689
352.943604	848.462830	6801.819824	1190.329590	5.742420
353.309601	849.280090	6953.471191	1204.224243	5.814762
353.675537	852.177979	7141.828613	1217.524414	5.808692
354.041473	848.462830	7293.480957	1217.821655	5.730920
354.407379	847.496826	7400.550781	1220.570679	5.693130
354.773254	841.255371	7535.187500	1232.756348	5.848595
355.139038	841.552673	7734.467285	1245.462158	5.859778
355.504913	843.856018	8048.024902	1263.815063	5.829389
355.870636	846.382324	8361.730469	1282.242188	5.799596
356.236389	843.633118	8658.198242	1302.155151	5.867531
356.602081	843.335938	8930.741211	1320.062134	5.894674
356.967804	846.828125	9109.959961	1323.108521	5.763921
357.333405	849.428711	9234.268555	1326.080566	5.684687
357.699036	848.314148	9221.116211	1334.402588	5.805565
358.064606	846.382324	9154.690430	1338.637817	5.924858
358.430176	849.874512	9065.155273	1343.987671	6.014562
358.795654	851.360535	9090.194336	1344.061890	5.980232
359.161163	852.029297	9291.852539	1361.151489	6.032380
359.526581	848.165527	9674.584961	1387.900513	6.114993
359.892029	846.679504	10226.877930	1414.055054	6.048652
360.257416	845.713562	10829.472656	1444.816406	6.000774
360.622772	845.044922	11357.319336	1472.680054	5.970498
360.988098	840.066589	11712.262695	1495.565063	6.029127
361.353394	836.500000	11841.550781	1507.453613	6.096779
361.718658	834.122314	11669.687500	1505.670288	6.197628
362.083893	836.945801	11229.295898	1482.710815	6.213850
362.449097	839.546570	10569.561523	1453.212524	6.306938
362.814209	840.289490	9883.599609	1408.482422	6.283019
363.179382	842.518555	9212.274414	1376.086426	6.374951
363.544434	836.797302	8757.021484	1337.523315	6.322119
363.909546	840.215149	8462.411133	1318.204590	6.271020
364.274536	846.828125	8321.310547	1300.966309	6.075848
364.639587	848.016907	8160.444824	1294.724976	6.108889
365.004517	850.691833	8064.073730	1286.774536	6.045468
365.369507	847.050964	7979.294922	1285.437134	6.146539
365.734344	843.038635	7981.375488	1280.013062	6.121516
366.099274	843.335876	7942.664063	1281.870605	6.177130
366.464081	837.168762	7934.193848	1278.378296	6.216824
366.828918	847.645447	7881.661621	1282.464966	6.181668
367.193665	842.667175	7798.665527	1278.155396	6.260614
367.558411	853.366760	7682.307129	1270.427856	6.107259
367.923126	859.162415	7573.453125	1259.579712	5.963657
368.287781	866.592590	7537.416504	1256.087524	5.838783
368.652435	864.512207	7503.757324	1256.310425	5.901247
369.017059	859.013733	7536.673828	1261.437378	6.026417
369.381653	855.595886	7571.521484	1269.016235	6.155821
369.746185	852.103699	7640.548828	1272.657104	6.195136
370.110687	845.713562	7731.718262	1271.319580	6.180739
370.475220	842.295654	7834.033203	1272.359863	6.151035
370.839661	838.506165	7914.205566	1282.762207	6.278617
371.204041	849.205811	7960.570801	1291.604126	6.221004
371.568451	857.230530	7958.639160	1288.186401	6.068597
371.932770	858.270752	7913.982910	1284.768433	6.044715
372.297150	853.143860	7853.054688	1282.242065	6.130053
372.661377	851.286316	7857.736328	1281.127563	6.134936
373.025696	856.710388	7921.115723	1277.561035	5.957340
373.389862	857.601990	7979.071777	1279.864380	5.929428
373.754059	846.605164	8068.086426	1288.483398	6.118942
374.118225	834.122375	8216.840820	1294.576294	6.236916
374.482361	837.243103	8405.792969	1294.873413	6.046473
374.846436	845.119141	8637.170898	1307.579224	5.935023
375.210510	849.800232	8937.354492	1328.086792	5.913859
375.574524	844.970520	9293.414063	1357.733643	6.069321
375.938538	844.078857	9622.574219	1377.423828	6.075585
376.302460	848.388367	9866.807617	1392.061401	6.028474
376.666412	846.530823	10021.875977	1405.658813	6.093809
377.030304	848.611328	10041.045898	1412.568848	6.135018
377.394196	847.868347	9934.645508	1410.488403	6.191635
377.757996	848.908630	9689.520508	1389.758179	6.117784
378.121796	850.097473	9364.891602	1361.523071	6.006318
378.485565	850.023132	9047.322266	1340.346802	5.981527
378.849304	843.930359	8809.256836	1323.257202	6.017667
379.212982	838.060364	8657.159180	1323.777344	6.211931
379.576630	839.769348	8556.552734	1316.867065	6.182599
379.940277	844.450378	8524.453125	1325.337524	6.261549
380.303864	845.639221	8515.909180	1316.644165	6.140656
380.667450	848.611328	8553.135742	1314.563599	6.047775
381.030945	840.883850	8562.348633	1313.003296	6.114377
381.394501	843.112976	8609.159180	1326.675049	6.226618
381.757935	846.307922	8657.009766	1332.916626	6.230025
382.121399	853.218079	8737.703125	1334.105347	6.099159
382.484741	855.818787	8898.419922	1334.996948	5.958000
382.848145	850.097473	9067.086914	1342.501587	5.992513
383.211487	853.664063	9220.075195	1348.891602	5.919235
383.574768	846.976746	9321.499023	1359.219604	6.044504
383.938019	848.611389	9357.461914	1367.095703	6.093471
384.301270	840.066589	9411.479492	1377.869629	6.274380
384.664459	838.431946	9416.532227	1376.383667	6.271222
385.027649	828.921204	9447.516602	1376.457886	6.352969
385.390778	838.506165	9531.627930	1379.504272	6.223289
385.753876	837.391663	9642.858398	1381.733276	6.181860
386.116943	846.530945	9762.932617	1389.460938	6.089116
386.479980	840.809631	9788.343750	1392.135742	6.161766
386.842987	849.503113	9808.553711	1396.965454	6.110718
387.205994	846.679504	9806.473633	1402.835327	6.207239
387.568909	846.233704	9798.002930	1398.600098	6.170472
387.931793	842.369934	9724.145508	1399.120117	6.268456
388.294678	833.527893	9701.483398	1386.488770	6.235495
388.657471	836.425781	9678.895508	1386.786011	6.224056
389.020294	838.506165	9765.680664	1397.336914	6.259883
389.383057	852.623718	9947.351563	1417.695923	6.213184
389.745819	847.348206	10193.368164	1430.327271	6.237726
390.108521	844.896240	10449.117188	1448.680176	6.286652
390.471191	838.283386	10706.874023	1464.655273	6.347126
390.833801	843.038635	10939.515625	1479.069946	6.299537
391.196442	845.713623	11113.979492	1476.395020	6.142044
391.558960	838.654785	11140.578125	1483.973755	6.264063
391.921509	839.917969	11095.253906	1493.930542	6.377291
392.284027	845.044861	11051.489258	1497.274048	6.390367
392.646484	855.893066	11010.028320	1488.060547	6.225715
393.008911	845.862122	10999.774414	1484.271118	6.287321
393.371307	839.695007	11011.364258	1481.967773	6.314330
393.733673	836.128601	10983.055664	1487.243164	6.416865
394.096008	843.484558	10889.063477	1486.500366	6.400983
394.458344	839.472168	10731.913086	1480.407593	6.479042
394.820587	845.787903	10501.426758	1458.488159	6.345518
395.182831	848.982910	10251.621094	1430.104492	6.180409
395.545013	852.475098	9976.700195	1411.008789	6.121438
395.907196	853.961121	9788.268555	1404.024414	6.156754
396.269287	855.372864	9706.312500	1401.795288	6.173609
396.631409	858.047791	9675.848633	1400.977905	6.157206
396.993469	856.190247	9645.012695	1400.754883	6.196105
397.355530	853.886902	9632.530273	1404.544312	6.272694
397.717499	853.218201	9680.678711	1398.451538	6.176559
398.079468	846.085144	9718.573242	1393.250366	6.166987
398.441376	841.032532	9743.167969	1390.649780	6.173993
398.803284	838.580505	9670.647461	1391.244141	6.257466
399.165131	834.716736	9666.784180	1394.067749	6.333183
399.526978	839.323547	9629.112305	1398.600098	6.362798
399.888763	842.815735	9643.824219	1401.646484	6.349622
400.250519	848.834290	9645.755859	1400.903442	6.275708
400.612244	855.001404	9692.045898	1394.067749	6.100075
400.973938	852.623718	9772.293945	1393.547485	6.064392
401.335602	850.320313	9853.877930	1403.949829	6.149008
401.697205	845.044861	10010.062500	1412.494751	6.191476
402.058807	837.614563	10170.706055	1427.132324	6.316425
402.420349	841.255432	10448.374023	1436.717407	6.198133
402.781860	843.038757	10684.136719	1460.345703	6.272745
403.143341	852.995178	10921.162109	1469.039063	6.118729
403.504822	852.995178	11129.581055	1483.156616	6.132011
403.866241	849.651611	11282.050781	1481.744751	6.058943
404.227631	853.812561	11382.879883	1497.125488	6.109876
404.588959	853.664001	11389.938477	1492.518677	6.063383
404.950287	854.109802	11329.902344	1486.871704	6.040229
405.311554	846.605225	11232.937500	1477.732544	6.076518
405.672821	847.125305	11086.856445	1476.989624	6.151180
406.034027	842.964417	10948.952148	1473.125854	6.235526
406.395203	843.261536	10769.139648	1462.871948	6.242374
406.756348	839.992249	10654.120117	1457.745117	6.294527
407.117493	838.357605	10607.159180	1464.283691	6.407399
407.478516	839.026367	10645.795898	1462.500488	6.357589
407.839600	841.775574	10701.969727	1464.952515	6.320128
408.200592	850.171814	10828.656250	1465.992798	6.171488
408.561554	852.995300	10972.803711	1476.692383	6.163131
408.922485	847.794128	11146.523438	1481.076172	6.149128
409.283417	849.800293	11268.378906	1489.398071	6.139012
409.644257	846.976746	11370.247070	1492.593140	6.135131
410.005096	845.713562	11459.411133	1498.462891	6.150065
410.365906	843.410156	11430.210938	1489.769531	6.105332
410.726715	839.026184	11389.418945	1494.079102	6.208801
411.087433	841.998352	11263.995117	1484.568359	6.165517
411.448120	839.100586	11228.999023	1481.001831	6.178128
411.808807	841.775574	11191.700195	1473.571655	6.104354
412.169434	848.016907	11168.144531	1474.611694	6.071579
412.530029	849.428711	11209.829102	1480.258789	6.088858
412.890564	852.103516	11298.992188	1485.757202	6.065477
413.251099	855.967285	11496.414063	1501.509399	6.066870
413.611572	861.614258	11656.758789	1517.187378	6.072852
413.972076	856.190247	11829.885742	1526.475098	6.108105
414.332489	850.766113	11935.171875	1532.567993	6.151000
414.692871	837.317383	12145.299805	1544.381958	6.252791
415.053223	839.100647	12334.252930	1551.515137	6.197521
415.413574	841.403992	12617.418945	1559.391235	6.097031
415.773834	850.914734	12844.488281	1568.381836	5.982096
416.134094	857.676270	13154.776367	1588.220703	5.940786
416.494263	854.109802	13468.260742	1606.870728	5.967591
416.854462	857.676270	13894.312500	1630.201782	5.925804
417.214630	853.812500	14336.117188	1658.585327	5.969104
417.574738	855.893066	14770.043945	1686.597534	5.970213
417.934784	844.524719	15265.495117	1730.361694	6.142700
418.294861	843.038757	15836.288086	1777.395142	6.231847
418.654846	841.849854	16485.693359	1820.416626	6.255283
419.014832	847.645508	17131.310547	1844.119141	6.119468
419.374756	844.599060	17849.001953	1875.326538	6.061533
419.734680	841.032471	18586.751953	1925.480835	6.111042
420.094543	837.986084	19157.990234	1974.000488	6.200951
420.454376	840.512390	19514.345703	1982.619629	6.116083
420.814148	842.295654	19740.673828	1983.437012	6.038303
421.173920	850.617493	19936.908203	1984.700073	5.941870
421.533691	851.955078	20056.906250	2001.566772	5.986017
421.893341	849.502991	20064.632813	1996.811401	5.970860
422.253021	843.335938	19980.001953	1997.257202	6.029897
422.612640	842.964417	19926.503906	1991.238647	6.017092
422.972260	842.444336	19939.951172	2002.458374	6.074164
423.331757	845.639343	20073.771484	2002.235352	6.015123
423.691315	842.592834	20242.214844	2014.049683	6.038555
424.050781	842.518555	20237.607422	2014.123901	6.040732
424.410248	836.648621	19988.693359	2009.517212	6.123987
424.769653	839.917969	19597.490234	1992.576050	6.145028
425.128998	840.735291	19180.132813	1968.576172	6.149825
425.488373	842.295654	18710.541016	1938.929321	6.137332
425.847656	846.233704	18248.376953	1907.573608	6.098903
426.206940	845.416321	17796.617188	1881.418945	6.111677
426.566193	851.880676	17353.845703	1845.233765	6.019605
426.925385	849.502991	16899.337891	1825.543579	6.081312
427.284576	854.258362	16457.457031	1804.813110	6.092051
427.643677	850.840515	16141.820313	1785.271484	6.110995
428.002777	850.617615	15901.004883	1770.782593	6.113895
428.361847	855.372986	15696.226563	1749.383301	6.023982
428.720856	855.372986	15484.316406	1740.986938	6.053848
429.079865	861.688660	15344.032227	1732.516479	6.013031
429.438812	856.041687	15305.320313	1739.055176	6.111125
429.797760	856.190247	15306.210938	1739.500977	6.112868
430.156616	845.565002	15152.106445	1734.299805	6.212087
430.515503	848.239929	15008.778320	1729.990356	6.226814
430.874268	844.153137	14993.694336	1726.052246	6.232705
431.233093	841.701172	15147.723633	1727.761230	6.193616
431.591827	841.924072	15358.446289	1724.120483	6.077188
431.950562	838.060364	15526.445313	1732.368042	6.088537
432.309204	847.273926	15680.996094	1744.330688	6.047415
432.667877	844.673340	15855.235352	1765.209839	6.132592
433.026459	852.475098	15941.128906	1783.042480	6.167332
433.385010	842.518555	15998.862305	1782.596680	6.202539
433.743561	841.552673	16012.311523	1773.903320	6.145709
434.102051	839.026367	16041.363281	1766.993164	6.104106
434.460510	837.243103	16106.450195	1766.101563	6.083213
434.818939	838.580566	16056.445313	1772.937134	6.139866
435.177338	840.289490	16049.312500	1770.410767	6.115588
435.535675	851.509094	16011.269531	1770.410767	6.061452
435.894012	849.428711	16029.696289	1763.872192	6.023896
436.252289	848.016907	16228.903320	1779.773071	6.057883
436.610535	844.673340	16325.719727	1782.150757	6.055646
436.968719	848.314148	16646.410156	1809.865723	6.086503
437.326935	850.766113	16900.525391	1825.395020	6.072545
437.685028	850.617493	17208.435547	1853.481445	6.130793
438.043152	853.218079	17454.302734	1860.168579	6.065571
438.401215	855.521484	17758.126953	1878.521484	6.052321
438.759277	852.252136	18182.468750	1892.936157	6.005026
439.117249	852.029297	18751.927734	1920.205444	5.967498
439.475250	849.800110	19184.367188	1939.672485	5.944358
439.833130	854.184082	19624.388672	1976.898071	5.981362
440.191071	843.781738	19737.328125	1988.192017	6.057149
440.548889	844.227539	19850.341797	1998.817383	6.074834
440.906708	840.958252	19751.296875	1989.752563	6.074954
441.264496	850.543274	19538.867188	1982.471069	6.056871
441.622223	843.633118	19197.818359	1965.009888	6.109651
441.979950	842.518555	18879.726563	1951.338013	6.147401
442.337616	841.775574	18708.755859	1928.452759	6.082042
442.695251	843.781738	18483.173828	1915.970093	6.078374
443.052887	848.239929	18375.060547	1907.053711	6.041106
443.410461	846.307922	18437.996094	1914.409668	6.071628
443.768005	846.456543	18670.712891	1926.818237	6.061188
444.125458	849.057190	19016.666016	1941.381470	6.012482
444.482941	847.719788	19404.080078	1962.186401	6.005847
444.840393	850.766174	20001.548828	1984.625610	5.920694
445.197754	844.821960	20470.548828	2015.535645	5.965199
445.555084	844.524719	20873.640625	2044.959473	5.993449
445.912415	852.772278	21079.386719	2067.324463	6.004723
446.269714	857.007568	21203.619141	2065.243896	5.938268
446.626953	855.744446	21201.539063	2072.822998	5.981966
446.984161	850.617615	21067.048828	2062.717773	5.995618
447.341309	849.948914	20831.138672	2055.436279	6.033111
447.698456	847.571106	20482.583984	2037.157715	6.058497
448.055542	844.153259	20209.523438	2033.814087	6.143238
448.412598	844.004639	19862.380859	2014.123901	6.152572
448.769653	845.936523	19492.353516	1982.916626	6.097579
449.126617	849.057190	18985.013672	1945.542358	6.045918
449.483582	849.280090	18631.185547	1924.291870	6.045537
449.840515	853.366760	18332.412109	1903.264160	6.006607
450.197388	848.611389	18150.966797	1889.295288	6.014695
450.554230	848.462708	18049.021484	1871.685547	5.948777
450.911041	844.821960	18016.404297	1866.112915	5.947565
451.267822	846.605164	18091.597656	1883.276733	6.011436
451.624573	841.329773	18102.373047	1900.589233	6.136706
451.981262	844.524719	18052.738281	1908.242554	6.181454
452.337921	845.862244	17854.052734	1886.248901	6.116974
452.694580	849.725891	17521.919922	1861.357422	6.067777
453.051147	845.119141	17288.607422	1841.815918	6.061347
453.407715	838.580566	16916.203125	1823.017212	6.123024
453.764221	838.357605	16797.837891	1828.961548	6.206994
454.120728	838.208984	16430.708984	1809.865845	6.231565
454.477142	839.026367	16368.442383	1805.110352	6.220994
454.833557	837.986084	16239.156250	1779.475952	6.113106
455.189911	841.775574	16257.881836	1790.175415	6.152006
455.546265	847.868347	16315.168945	1783.711060	6.050459
455.902557	844.747742	16392.666016	1796.119629	6.118967
456.258820	847.496826	16698.943359	1814.992554	6.103517
456.615051	841.032532	17015.025391	1844.936523	6.206903
456.971252	849.354431	17357.115234	1869.753784	6.181331
457.327393	846.010803	17899.525391	1896.948608	6.162588
457.683502	853.664001	18589.646484	1937.294922	6.109787
458.039612	848.760010	19629.662109	1993.765015	6.096645
458.395630	849.502991	20621.605469	2042.284668	6.032650
458.751648	841.181152	21482.031250	2079.138916	5.997611
459.107605	843.484558	22210.498047	2110.271729	5.928705
459.463562	840.809570	22434.294922	2133.156982	5.984895
459.819458	848.982910	22339.781250	2141.775879	6.015565
460.175323	847.125305	21731.763672	2118.370605	6.086987
460.531158	841.478333	20980.785156	2075.795166	6.128895
460.886932	838.729187	20154.017578	2023.634644	6.134547
461.242676	838.803406	19369.380859	1986.631836	6.194240
461.598419	845.416321	18781.646484	1957.876587	6.202308
461.954102	842.444153	18188.265625	1923.920288	6.234793
462.309723	845.787903	17728.107422	1880.007324	6.126050
462.665344	844.821960	17385.648438	1846.497070	6.055774
463.020905	848.017029	17229.314453	1844.416504	6.082543
463.376373	840.215149	17178.564453	1847.165649	6.163110
463.731873	845.119141	17151.744141	1849.691895	6.160519
464.087341	845.490662	17179.310547	1835.797241	6.062921
464.442749	849.354309	17302.056641	1851.772461	6.092726
464.798126	849.651550	17450.216797	1863.660767	6.108282
465.153503	844.599060	17659.898438	1877.555542	6.142957
465.508820	838.877747	17879.539063	1877.704102	6.096162
465.864105	833.379333	17978.361328	1873.097290	6.064270
466.219330	840.809570	18239.015625	1884.614258	5.999496
466.574524	844.153137	18276.611328	1884.391235	5.967248
466.929657	845.713562	18186.259766	1881.344849	5.972311
467.284790	846.902405	17929.693359	1876.069336	6.024583
467.639893	847.422546	17658.041016	1866.112915	6.059803
467.994934	851.286316	17493.386719	1868.639160	6.113128
468.349945	852.177917	17253.314453	1851.400879	6.092401
468.704926	855.967285	17122.986328	1858.236694	6.161359
469.059875	852.326477	16980.251953	1848.131470	6.174415
469.414764	842.964355	16883.955078	1842.930298	6.233817
469.769653	841.478333	16807.052734	1835.871582	6.228359
470.124451	841.924133	16843.609375	1828.292603	6.164154
470.479248	843.112976	16894.505859	1827.698242	6.133955
470.834015	842.295593	16974.085938	1809.568359	5.996066
471.188721	837.391663	17233.400391	1821.011108	5.999140
471.543365	840.066589	17591.837891	1837.877808	5.956452
471.898010	843.558777	17863.488281	1859.202759	5.967381
472.252625	851.657715	18128.302734	1876.218140	5.930321
472.607178	853.515320	18322.751953	1897.022827	5.973401
472.961700	849.725891	18448.548828	1912.180542	6.037078
473.316193	849.428711	18506.132813	1910.843140	6.011396
473.670654	846.679504	18450.925781	1912.997925	6.057166
474.025055	849.131531	18554.431641	1919.536621	6.045675
474.379456	845.862122	18586.232422	1932.465210	6.125030
474.733795	845.936523	18716.632813	1931.944946	6.077035
475.088104	842.221375	19000.617188	1944.130737	6.068319
475.442383	841.106750	19349.392578	1964.638306	6.070425
475.796570	838.729187	19759.173828	1991.164429	6.090952
476.150787	840.140930	20158.476563	2020.662476	6.110886
476.504944	838.803467	20515.798828	2041.318726	6.111275
476.859070	842.890137	20837.158203	2061.900391	6.096799
477.213135	838.060364	21068.833984	2066.507080	6.072169
477.567200	838.877747	21384.322266	2089.020752	6.084770
477.921173	833.973694	21711.031250	2112.574951	6.124433
478.275146	841.701233	22035.437500	2134.642822	6.100584
478.629089	844.004578	22354.271484	2141.998779	6.034300
478.983002	849.131531	22826.462891	2165.552490	5.989903
479.336823	842.146973	23393.693359	2201.960938	6.029803
479.690643	839.026367	24146.970703	2249.366455	6.050899
480.044403	843.558777	25050.861328	2297.440186	6.005962
480.398163	850.246094	26359.111328	2371.297119	5.962833
480.751862	851.360535	28115.330078	2476.732666	5.961612
481.105499	846.159424	30528.687500	2613.524170	5.954226
481.459137	845.193420	33941.707031	2821.645752	5.971785
481.812744	844.004639	38449.652344	3081.854248	5.950834
482.166290	842.964355	43768.613281	3417.405029	5.997442
482.519806	838.654785	48946.691406	3750.503906	6.052729
482.873291	842.072754	53043.230469	4081.671143	6.205990
483.226715	842.964355	55520.332031	4309.483887	6.339953
483.580139	857.601990	56273.390625	4402.361816	6.396660
483.933502	858.270691	55674.062500	4336.604004	6.345495
484.286804	859.608154	53877.574219	4163.478516	6.231606
484.640106	845.416321	51206.761719	3939.084717	6.142942
484.993347	838.134766	48370.105469	3724.201172	6.071843
485.346558	830.630127	46077.199219	3579.608154	6.075550
485.699738	832.933533	45138.902344	3509.763428	6.041691
486.052887	840.735291	45306.011719	3521.131592	6.028066
486.405975	846.159363	46335.324219	3580.350830	6.010643
486.759064	855.893066	47313.890625	3656.957031	6.029240
487.112061	857.453430	47823.386719	3696.931885	6.045826
487.464996	857.601990	47508.714844	3676.126953	6.041710
487.817963	845.862122	46330.718750	3590.902100	6.035064
488.170868	840.289368	44447.593750	3469.268311	6.028759
488.523743	836.202820	42250.386719	3326.384521	6.012871
488.876587	841.626892	40246.140625	3192.490967	5.965976
489.229401	841.626892	38977.500000	3104.590576	5.933949
489.582153	846.679504	38756.152344	3087.649658	5.911373
489.934845	849.800293	39481.417969	3140.107422	5.928582
490.287537	850.840515	40780.156250	3228.378906	5.954368
490.640198	847.273926	42059.425781	3313.901367	5.985194
490.992798	845.936523	42721.761719	3350.384033	5.980652
491.345337	853.292480	42506.433594	3348.452148	5.990328
491.697876	857.899170	41118.082031	3264.787109	5.978333
492.050354	856.561768	39005.878906	3144.491211	5.997301
492.402832	842.444153	36234.910156	2972.554688	6.018543
492.755219	830.630127	33446.402344	2797.645752	6.030873
493.107605	827.212219	30873.451172	2651.418213	6.071329
493.459930	839.174988	28920.552734	2522.651611	5.994993
493.812225	850.246094	27516.080078	2450.949463	6.002825
494.164490	854.778564	26694.962891	2395.965576	5.964303
494.516724	853.069580	26280.501953	2380.659424	6.007645
494.868896	851.955078	26256.353516	2373.377686	5.988816
495.221039	857.081848	26480.599609	2388.609619	5.977040
495.573120	853.069519	26762.798828	2400.349365	5.971810
495.925201	855.075684	27082.302734	2423.457520	5.979976
496.277222	851.137634	27260.406250	2428.733154	5.973643
496.629211	848.239807	27322.373047	2429.996094	5.974724
496.981140	847.794128	27153.408203	2415.061279	5.957919
497.333069	846.753845	26891.492188	2417.736328	6.031861
497.684967	848.611328	26529.193359	2389.947021	6.001950
498.036804	849.800232	26070.521484	2350.417969	5.949940
498.388580	842.667053	25505.376953	2314.678223	5.968571
498.740326	847.868347	24924.255859	2293.427734	6.004054
499.092072	850.245911	24384.890625	2276.040771	6.058281
499.443756	850.171692	23961.734375	2230.047607	5.970500
499.795410	845.639221	23614.296875	2203.075439	5.961864
500.147003	847.794128	23319.537109	2187.026123	5.959627
500.498566	858.196472	23030.275391	2187.695068	5.996274
500.850098	865.032288	22846.156250	2175.435059	5.961492
501.201599	859.756836	22701.787109	2156.933594	5.938902
501.553009	858.047852	22619.607422	2138.283691	5.883015
501.904449	850.691895	22535.642578	2126.246582	5.882212
502.255859	856.858948	22589.437500	2129.441650	5.855646
502.607178	850.394592	22745.103516	2137.763428	5.879817
502.958405	853.292480	22893.263672	2159.088379	5.924672
503.309692	850.543274	22979.677734	2162.952148	5.930684
503.660919	852.475098	23026.931641	2174.692139	5.962793
504.012115	853.812561	23008.060547	2171.942871	5.949786
504.363251	848.759949	22936.953125	2175.286377	6.005590
504.714294	856.338867	22821.562500	2166.667236	5.965468
505.065369	855.372864	22728.906250	2157.825439	5.954468
505.416443	856.933289	22604.599609	2154.333252	5.965697
505.767395	848.165527	22554.294922	2147.274414	5.984986
506.118317	851.880676	22512.015625	2148.388672	5.985688
506.469238	850.097351	22680.533203	2151.955322	5.963500
506.820160	851.360535	22858.193359	2163.843750	5.963980
507.170929	852.326477	23118.845703	2180.710693	5.965837
507.521729	851.657776	23328.525391	2186.431885	5.938435
507.872498	849.205750	23586.505859	2198.468750	5.934139
508.223236	841.032410	23922.875000	2209.911377	5.930544
508.573883	842.741455	24185.236328	2238.443604	5.979233
508.924500	844.227478	24432.890625	2255.161865	5.981409
509.275116	844.747620	24600.587891	2268.016357	5.991238
509.625702	842.592834	24781.443359	2273.960449	5.979267
509.976196	842.667175	24939.634766	2277.229736	5.953291
510.326660	839.620789	25114.468750	2289.266846	5.971803
510.677124	839.546387	25332.398438	2296.920166	5.950201
511.027557	841.106750	25487.912109	2314.678467	5.978754
511.377869	847.125305	25612.521484	2327.309814	5.976826
511.728180	849.874512	25624.556641	2342.244385	6.023770
512.078430	846.976746	25615.119141	2342.095947	6.036460
512.428650	848.685608	25540.593750	2339.495361	6.037645
512.778931	841.626953	25434.416016	2322.108643	6.019983
513.129028	839.992188	25213.365234	2313.489502	6.045521
513.479126	834.345276	25048.189453	2292.684814	6.022751
513.829285	842.295593	24867.632813	2284.957275	6.004751
514.179382	842.518555	24796.154297	2271.880127	5.967201
514.529297	846.679504	24764.427734	2277.750000	5.983300
514.879272	843.410156	24938.890625	2288.598145	5.997756
515.229187	849.726013	25164.771484	2296.028320	5.948178
515.579163	844.153259	25601.595703	2320.770996	5.964338
515.928955	842.815735	26130.259766	2346.999756	5.948344
516.278748	841.849792	26847.283203	2405.178955	6.011548
516.628540	842.295654	27680.140625	2457.116455	6.016954
516.978333	846.530945	28607.068359	2516.336182	6.015032
517.327942	841.552673	29586.156250	2574.886719	6.030119
517.677612	846.753845	30354.000000	2614.044189	5.989343
518.027222	853.441101	30830.429688	2634.105957	5.940106
518.376831	849.280090	30956.296875	2620.285400	5.882367
518.726379	849.428711	30697.500000	2596.360107	5.852745
519.075867	847.719727	30117.048828	2560.471680	5.851696
519.425293	857.379089	29382.937500	2528.521484	5.858404
519.774658	855.818787	28613.755859	2488.175049	5.880682
520.124084	851.657776	28034.193359	2465.290039	5.936284
520.473389	846.010803	27539.115234	2439.506836	5.969692
520.822693	845.787903	27169.607422	2420.634033	5.982590
521.171997	842.072754	26918.240234	2403.395752	5.987548
521.521240	842.444275	26864.593750	2393.364990	5.960002
521.870361	843.038757	26997.968750	2389.872803	5.914120
522.219482	837.243103	27257.431641	2392.844727	5.887928
522.568604	842.592957	27570.990234	2409.117188	5.860898
522.917664	840.140869	28071.937500	2454.813477	5.929365
523.266724	848.759949	28745.195313	2502.366943	5.927664
523.615662	842.369934	29712.617188	2561.957764	5.956263
523.964600	841.329773	30905.474609	2621.325928	5.920661
524.313538	837.911804	32230.367188	2694.662354	5.914639
524.662354	848.388428	33586.019531	2777.361328	5.892219
525.011169	859.831055	34939.292969	2875.515381	5.914660
525.359985	863.546204	36326.597656	2957.991211	5.905993
525.708740	857.379089	37707.593750	3037.123779	5.915148
526.057434	847.719727	39363.351563	3124.206299	5.910552
526.406067	849.800232	41470.351563	3259.437500	5.932065
526.754700	849.057129	44467.574219	3441.330322	5.943057
527.103333	851.880676	47856.968750	3667.953857	5.990996
527.451782	847.050964	51208.769531	3909.140625	6.080193
527.800293	844.301758	53617.218750	4112.433105	6.192819
528.148743	848.908508	54936.386719	4226.413574	6.244524
528.497131	852.475098	54977.175781	4225.595703	6.232128
528.845642	858.865173	53804.828125	4127.145020	6.172859
529.193909	846.605164	51521.875000	3948.000732	6.120136
529.542175	840.660950	48232.871094	3708.894531	6.052120
529.890503	830.332947	44662.921875	3471.943115	6.026589
530.238770	831.373230	41322.937500	3254.236328	5.983624
530.586914	836.425781	39095.121094	3121.308594	5.972192
530.934998	837.837463	37891.933594	3038.981201	5.940352
531.283142	850.617493	37975.675781	3032.962891	5.878362
531.631226	850.023132	38706.812500	3073.606445	5.873671
531.979248	858.270813	39991.656250	3147.612061	5.850098
532.327148	845.490723	41204.574219	3236.403564	5.924101
532.675110	846.753845	42031.785156	3274.074951	5.893697
533.023071	843.335938	42171.996094	3288.861572	5.917264
533.370850	845.416321	41301.316406	3239.524170	5.917821
533.718689	839.917969	39989.355469	3182.534180	5.983780
534.066467	842.964355	38222.359375	3076.578369	5.975522
534.414246	844.673340	36676.191406	2974.115234	5.942929
534.761963	844.747620	35422.113281	2895.280029	5.930274
535.109619	842.146973	34725.597656	2859.168701	5.952823
535.457153	845.044739	34450.605469	2849.583984	5.964903
535.804749	846.753845	34386.925781	2843.862305	5.954377
536.152344	849.725891	34316.785156	2831.379639	5.921207
536.499817	853.143860	34011.773438	2807.602539	5.894269
536.847229	858.493652	33334.058594	2772.606201	5.894009
537.194641	859.682434	32386.845703	2719.330811	5.898559
537.542114	858.122070	31454.048828	2664.495361	5.903967
537.889404	850.989075	30711.544922	2608.322754	5.885134
538.236694	850.543274	30344.189453	2587.963623	5.890830
538.583984	854.332703	30542.578125	2607.282471	5.904524
538.931213	857.230469	31421.953125	2658.180176	5.892250
539.278381	853.812683	33023.550781	2746.897461	5.884676
539.625488	846.085144	35109.074219	2866.302002	5.896207
539.972595	844.376160	37698.527344	3027.093018	5.922580
540.319641	844.599060	40209.957031	3194.571045	5.969644
540.666687	849.354431	42233.886719	3324.675049	5.981270
541.013611	850.617493	43340.402344	3401.578369	6.003704
541.360596	848.685730	43452.308594	3404.402100	5.998824
541.707458	848.462708	42713.886719	3355.510986	5.988350
542.054260	842.295654	41176.042969	3270.211182	6.019564
542.401062	840.586670	39381.109375	3161.878174	6.022989
542.747864	834.196716	37325.230469	3038.089844	6.039546
543.094666	842.592957	35373.816406	2918.685547	6.012218
543.441284	845.342102	33455.097656	2797.646240	5.986872
543.787903	845.193542	31937.091797	2712.346436	6.005271
544.134460	835.459778	30630.849609	2640.570313	6.058355
544.481079	836.871582	29710.611328	2592.718994	6.081122
544.827637	844.747742	29083.720703	2549.177734	6.035737
545.174072	853.366760	28800.181641	2521.982910	5.970685
545.520508	855.001465	28758.052734	2519.976807	5.967001
545.866943	855.967285	28720.900391	2527.555908	5.998897
546.213318	856.487488	28644.591797	2521.983154	5.993556
546.559631	850.840515	28338.166016	2500.880615	6.002912
546.905823	842.444275	27805.193359	2461.871826	6.006166
547.252136	832.116211	26970.697266	2410.454590	6.038347
547.598389	831.819031	25982.695313	2357.179688	6.064841
547.944458	832.413391	24977.005859	2295.136719	6.058182
548.290588	839.174988	23959.431641	2239.781250	6.057918
548.636658	839.397766	23066.537109	2177.886963	6.021869
548.982727	843.633118	22262.953125	2131.744873	6.013785
549.328735	853.069580	21701.521484	2089.243896	5.929334
549.674622	857.602051	21196.785156	2071.039795	5.966010
550.020569	856.338867	20925.728516	2049.714844	5.946249
550.366455	850.617493	20776.529297	2044.290894	5.990558
550.712280	857.230469	20855.289063	2041.169922	5.920272
551.058044	856.264587	20940.216797	2051.795410	5.952667
551.403748	853.738281	21049.664063	2058.185303	5.963812
551.749512	839.472168	21165.056641	2068.290527	6.045673
552.095154	835.905579	21290.478516	2073.566162	6.050777
552.440735	837.094482	21408.470703	2075.943604	6.022198
552.786316	839.769348	21355.791016	2062.420654	5.959496
553.131897	845.490662	21127.679688	2052.092529	5.949071
553.477417	844.450378	20828.685547	2035.448730	5.959689
553.822815	845.193420	20390.300781	2011.374634	5.966614
554.168213	843.335938	20025.474609	1987.300659	5.963697
554.513672	842.964417	19662.431641	1970.062378	5.989000
554.859009	845.342102	19423.251953	1958.768433	5.993280
555.204285	844.227539	19193.728516	1949.034668	6.020911
555.549500	843.335876	18964.728516	1936.403320	6.031917
555.894714	842.369934	18807.505859	1926.223633	6.033095
556.239990	840.883850	18718.787109	1912.700684	5.995205
556.585022	843.261536	18614.763672	1910.694336	6.006430
556.930115	838.283203	18529.759766	1909.431274	6.054600
557.275146	837.020203	18402.775391	1909.059692	6.103008
557.620178	840.289490	18372.089844	1900.960815	6.049985
557.965149	845.787842	18325.279297	1887.957642	5.962243
558.310059	853.663879	18235.150391	1878.967163	5.898824
558.654968	858.642273	18083.275391	1874.880493	5.899912
558.999756	852.252197	18005.332031	1874.806274	5.961344
559.344604	846.308044	18024.724609	1874.732056	5.986722
559.689331	836.277161	18125.033203	1874.657593	6.006103
560.033997	844.153259	18169.169922	1881.493530	5.987528
560.378723	845.119141	18277.427734	1890.038452	5.994153
560.723389	847.868347	18339.099609	1886.694702	5.939127
561.067932	850.394714	18447.878906	1892.564453	5.922265
561.412476	855.224365	18418.306641	1882.682251	5.850100
561.757019	853.515442	18380.412109	1885.580078	5.888463
562.101501	853.515442	18317.404297	1875.177734	5.850142
562.445862	851.880676	18196.884766	1883.871216	5.949785
562.790222	852.252258	18102.224609	1875.846313	5.933888
563.134644	852.103699	18061.505859	1878.669922	5.965147
563.478943	854.629883	18171.101563	1874.137573	5.887502
563.823181	853.664001	18322.308594	1881.196289	5.882152
564.167358	845.713562	18525.525391	1894.570679	5.932513
564.511536	841.924133	18834.847656	1912.849121	5.951923
564.855774	841.998535	19245.222656	1942.793091	5.981531
565.199768	849.948914	19679.298828	1962.409180	5.908118
565.543823	852.772400	20006.306641	1974.669067	5.857387
565.887817	853.366760	20176.681641	1987.449219	5.868986
566.231812	853.143860	20134.181641	1985.294434	5.871835
566.575745	856.041687	19977.625000	1986.780396	5.913416
566.919617	856.190247	19776.560547	1970.285156	5.888336
567.263428	850.691895	19488.562500	1946.731079	5.880710
567.607239	846.679504	19226.423828	1938.780884	5.941875
567.950989	846.085144	18968.146484	1920.799438	5.930420
568.294678	848.388489	18828.755859	1918.273315	5.950294
568.638367	848.091248	18702.142578	1906.682007	5.929135
568.981995	850.394592	18654.664063	1907.648071	5.938201
569.325623	849.800232	18700.435547	1912.552124	5.953581
569.669128	848.016907	18848.521484	1913.443726	5.918872
570.012573	852.475098	19080.568359	1926.000854	5.889402
570.356140	858.196472	19361.951172	1949.554688	5.898036
570.699524	861.614319	19657.007813	1976.452271	5.931442
571.042908	857.453430	20049.996094	1998.817383	5.946914
571.386230	852.475098	20329.523438	2013.529419	5.961141
571.729492	851.657715	20493.878906	2021.256958	5.954516
572.072815	853.218079	20414.001953	2014.346680	5.936003
572.416016	849.354431	20282.933594	2006.916504	5.956504
572.759094	840.660950	20089.078125	1984.105835	5.940461
573.102234	841.478271	19850.492188	1962.780762	5.898794
573.445374	841.552551	19610.792969	1946.062622	5.884682
573.788391	840.066589	19426.373047	1941.158569	5.924211
574.131409	839.174866	19327.177734	1944.427856	5.978217
574.474365	839.026367	19272.193359	1932.688110	5.933119
574.817261	853.589661	19216.019531	1924.068970	5.829726
575.160156	842.295715	19074.101563	1917.233032	5.895945
575.502930	843.781738	18817.091797	1904.453003	5.901368
575.845703	839.620789	18492.312500	1879.041382	5.888171
576.188477	850.543152	18108.835938	1851.995239	5.802730
576.531250	849.205750	17734.794922	1830.818970	5.813319
576.873901	844.524719	17359.195313	1811.500366	5.855253
577.216431	842.890076	17020.968750	1797.085571	5.898077
577.559082	845.193542	16693.962891	1785.197144	5.931083
577.901611	841.775574	16381.890625	1769.073608	5.967124
578.244080	839.472168	16072.644531	1751.983887	5.990294
578.586487	842.667175	15816.375000	1738.237915	5.980955
578.928955	858.716492	15566.864258	1774.274780	6.224838
579.271301	859.236633	15371.151367	1761.420288	6.216848
579.613647	860.722656	15204.118164	1739.203735	6.124638
579.955872	848.834290	15075.129883	1687.191895	5.893014
580.298157	849.725891	14970.882813	1673.817383	5.835864
580.640320	846.308044	14841.151367	1678.869751	5.949060
580.982483	842.741516	14768.855469	1677.383789	5.993361
581.324524	841.255371	14686.825195	1675.823608	6.027691
581.666626	839.026367	14636.448242	1667.650024	6.005641
582.008728	842.295654	14555.605469	1653.978516	5.918942
582.350647	843.112976	14516.894531	1662.449097	5.992023
582.692566	843.633118	14434.343750	1663.043457	6.029194
583.034424	837.168762	14379.286133	1663.860718	6.104599
583.376343	843.484558	14268.128906	1641.049805	5.941053
583.718201	849.205750	14220.797852	1635.402832	5.879607
584.059937	853.663879	14152.141602	1631.093384	5.846004
584.401611	848.388489	14114.172852	1639.043579	5.960108
584.743347	851.434875	14124.946289	1640.901367	5.947684
585.085022	847.868408	14100.872070	1642.981812	5.999496
585.426514	846.530945	14061.195313	1640.752563	6.010154
585.768127	841.849854	13963.933594	1631.464844	6.017451
586.109619	847.942627	13952.120117	1625.297729	5.932117
586.451172	847.125305	14018.843750	1624.108887	5.898878
586.792542	841.924133	14088.911133	1622.177124	5.890041
587.133850	842.221375	14119.820313	1634.659790	5.968236
587.475220	852.029297	14177.627930	1640.901245	5.919974
587.816589	852.995178	14292.128906	1647.811401	5.914192
588.157776	848.165527	14434.864258	1649.743164	5.899723
588.498962	831.670349	14520.757813	1659.105347	6.044486
588.840210	836.202820	14572.250000	1669.507813	6.066556
589.181335	841.255371	14651.010742	1677.161011	6.053008
589.522400	855.075684	14686.823242	1676.120728	5.935946
589.863403	852.252197	14674.862305	1676.566528	5.963521
590.204407	851.955017	14574.106445	1669.656616	5.958990
590.545410	843.484436	14503.965820	1661.260132	5.986434
590.886353	845.713562	14397.414063	1650.040527	5.935247
591.227112	846.679504	14331.137695	1643.204712	5.906987
591.567932	846.456604	14217.082031	1644.690796	5.970059
591.908752	839.620789	14145.901367	1635.105835	5.978268
592.249512	834.791199	14102.359375	1634.882813	6.030431
592.590149	837.837463	14080.512695	1624.183228	5.937968
592.930786	842.444275	14151.918945	1641.941528	6.006979
593.271423	844.153137	14217.601563	1643.204712	5.974911
593.612000	844.078918	14389.835938	1644.542114	5.909328
593.952576	837.986084	14533.760742	1646.399780	5.902650
594.292969	833.304993	14745.523438	1660.442993	5.945407
594.633484	833.973694	14944.653320	1678.572754	5.985531
594.973877	840.289490	15211.920898	1691.798462	5.924929
595.314209	847.348206	15498.953125	1717.953125	5.942045
595.654480	840.586670	15821.723633	1745.519531	6.040482
595.994812	836.797363	16183.578125	1760.974609	6.021961
596.335022	834.048096	16464.666016	1759.562866	5.921165
596.675171	843.187317	16561.927734	1758.894043	5.825573
597.015320	842.147034	16475.960938	1748.343140	5.796386
597.355408	847.942688	16139.145508	1735.117188	5.801862
597.695496	843.261536	15742.739258	1706.807739	5.795815
598.035461	848.685608	15170.609375	1682.733765	5.823576
598.375366	843.038635	14680.731445	1654.944458	5.867350
598.715271	849.057190	14227.559570	1632.950806	5.859353
599.055176	855.001465	13879.452148	1619.873657	5.872587
599.395081	855.150085	13627.416992	1601.892212	5.846591
599.734802	850.989075	13437.945313	1584.876953	5.830543
600.074524	842.890137	13322.106445	1580.344604	5.909461
600.414246	839.843689	13260.807617	1570.610840	5.883337
600.753906	845.713562	13282.801758	1585.694336	5.949791
601.093506	844.301819	13371.666992	1584.282593	5.906915
601.433044	855.224365	13518.414063	1605.458984	5.924531
601.772583	850.023193	13711.229492	1614.821167	5.946549
602.112122	857.379150	14016.242188	1624.851929	5.832364
602.451538	849.800232	14428.325195	1640.901367	5.826119
602.790894	846.307922	14871.690430	1662.300415	5.817969
603.130310	841.552551	15315.054688	1692.690308	5.880662
603.469604	843.558777	15683.668945	1717.507324	5.889097
603.808838	851.509094	16062.687500	1737.271973	5.823105
604.148010	859.385254	16340.877930	1756.070679	5.791983
604.487305	858.865234	16461.916016	1762.906616	5.794004
604.826416	858.939514	16312.641602	1755.698853	5.802877
605.165527	850.543274	15978.577148	1728.801392	5.805501
605.504456	855.521484	15529.342773	1702.349609	5.771013
605.843445	851.211975	15046.820313	1682.659302	5.857074
606.182434	848.462830	14579.382813	1651.749512	5.850203
606.521423	841.626953	14152.737305	1639.118164	5.991170
606.860229	840.289490	13838.733398	1609.619751	5.918633
607.199036	847.571106	13594.127930	1610.660156	5.986629
607.537903	847.571106	13559.354492	1591.192749	5.849861
607.876648	854.332703	13631.578125	1594.016235	5.789069
608.215271	854.035461	13853.816406	1606.499023	5.788279
608.553955	850.320313	14047.449219	1620.170898	5.833470
608.892578	837.243103	14215.596680	1641.198608	6.009376
609.231140	843.633057	14287.075195	1661.037231	6.080319
609.569641	854.184082	14304.536133	1666.461304	6.039078
609.908081	865.329407	14207.571289	1657.545044	5.937650
610.246521	856.636047	14015.870117	1624.629028	5.836153
610.584961	852.103577	13685.075195	1618.090332	5.968896
610.923340	842.592773	13313.338867	1595.873901	6.040385
611.261597	847.125305	12902.667969	1587.031738	6.137479
611.599854	846.085144	12569.418945	1557.087769	6.064850
611.938110	849.502991	12276.370117	1545.868164	6.094104
612.276245	842.444336	12074.191406	1531.527710	6.135140
612.614319	842.890137	11938.515625	1529.818726	6.190986
612.952393	842.072754	11818.442383	1509.459595	6.080215
613.290466	840.809570	11715.385742	1499.874878	6.060607
613.628479	838.208984	11532.450195	1480.110229	6.002307
613.966370	846.605286	11402.421875	1485.831543	6.055678
614.304260	847.273926	11288.588867	1477.360962	6.034557
614.642151	854.035461	11195.265625	1472.680054	5.982311
614.979980	846.456543	11122.078125	1463.169312	6.001708
615.317749	850.097351	11053.867188	1457.967896	5.957314
615.655396	841.998352	11052.456055	1452.469604	5.978882
615.993164	843.781738	11082.176758	1452.469604	5.945149
616.330811	846.902527	11095.699219	1456.481934	5.947814
616.668396	856.264587	11100.456055	1455.070190	5.845318
617.005859	858.865234	11061.445313	1448.680176	5.781037
617.343445	852.475098	11090.944336	1454.847290	5.883421
617.680908	843.187317	11087.600586	1460.345703	6.024341
618.018311	841.329773	11102.386719	1468.370483	6.110878
618.355652	847.051086	11061.073242	1452.543945	5.928055
618.692993	848.314209	11031.502930	1460.271484	6.009486
619.030273	849.057312	11003.860352	1454.624390	5.963356
619.367554	838.803467	10895.974609	1451.578003	6.092912
619.704712	837.243164	10847.751953	1439.689575	6.018140
620.041870	837.317383	10803.690430	1435.454224	6.001550
620.379028	844.599121	10788.829102	1433.076538	5.917778
620.716064	849.502991	10719.208008	1423.417358	5.814909
621.053040	849.577332	10673.214844	1423.194336	5.839150
621.389954	853.218079	10675.221680	1428.469727	5.856765
621.726929	853.886902	10673.809570	1427.132324	5.837575
622.063843	850.766113	10683.765625	1425.423340	5.844170
622.400635	848.908508	10695.728516	1421.931152	5.819367
622.737427	843.707336	10716.309570	1420.370728	5.841047
623.074219	848.759949	10694.390625	1417.547363	5.777054
623.410889	845.862122	10692.458008	1416.729858	5.797615
623.747559	849.651611	10763.121094	1434.116821	5.895668
624.084167	852.103577	10869.076172	1444.964966	5.918569
624.420715	853.961121	10997.471680	1450.686523	5.882829
624.757324	858.196472	11107.067383	1457.596680	5.848451
625.093750	856.264465	11233.382813	1457.596558	5.794789
625.430176	856.858948	11392.539063	1469.039063	5.810542
625.766602	852.920898	11592.934570	1475.206177	5.794083
626.102905	844.524719	11822.231445	1499.874634	5.969825
626.439209	845.936462	11990.750000	1508.345337	5.943652
626.775452	841.032471	12078.129883	1512.952026	5.979476
627.111694	849.205811	12035.183594	1499.354614	5.812177
627.447876	843.781677	11927.444336	1496.382446	5.887952
627.783997	853.961121	11767.768555	1489.323853	5.821641
628.120056	846.605225	11581.863281	1481.299194	5.912238
628.456055	845.713562	11407.473633	1461.088867	5.826447
628.792053	837.911804	11250.471680	1450.017578	5.878533
629.128052	844.376038	11077.049805	1434.414063	5.766215
629.463928	851.063416	10916.183594	1437.311890	5.824555
629.799744	856.413147	10782.884766	1417.547241	5.652906
630.135559	850.914795	10695.430664	1410.117065	5.680343
630.471375	849.725891	10613.995117	1402.092285	5.657017
630.807068	843.484436	10496.299805	1409.819702	5.867047
631.142700	850.617493	10407.433594	1419.999390	5.957861
631.478333	840.883850	10305.788086	1418.513184	6.102854
631.813965	841.775574	10240.920898	1418.587524	6.136855
632.149475	840.289490	10173.528320	1410.711548	6.111726
632.484924	850.023132	10184.971680	1409.968384	5.998375
632.820435	855.075745	10201.615234	1409.894165	5.936084
633.155884	850.543213	10258.902344	1413.014771	5.978424
633.491150	854.481262	10293.081055	1418.513306	5.975802
633.826477	851.211914	10310.022461	1413.832153	5.948108
634.161804	858.642273	10291.669922	1416.432739	5.913165
634.497009	853.961182	10205.776367	1396.222290	5.798458
634.832153	854.778503	10096.997070	1390.575562	5.797277
635.167297	848.908508	9974.694336	1372.668579	5.739342
635.502380	846.010742	9853.135742	1376.160767	5.885896
635.837463	843.781677	9753.643555	1366.129761	5.862583
636.172424	836.054199	9658.834961	1369.919312	6.050984
636.507324	835.385498	9596.717773	1363.900757	6.032362
636.842224	827.509460	9494.252930	1363.974976	6.189932
637.177124	834.493835	9396.098633	1359.071167	6.127091
637.511963	833.082092	9320.161133	1352.235229	6.116982
637.846741	839.249268	9261.016602	1342.055786	5.970321
638.181396	840.289551	9179.729492	1329.721558	5.868884
638.516113	843.335938	9084.250977	1320.582153	5.791180
638.850769	851.509216	9012.771484	1320.656494	5.748465
639.185303	851.137695	8934.902344	1319.393311	5.792544
639.519836	854.332703	8877.020508	1318.798950	5.789409
639.854370	849.354431	8793.132813	1307.727905	5.770220
640.188843	854.927063	8723.956055	1298.737305	5.639962
640.523254	850.320313	8657.010742	1299.108765	5.748767
640.857605	853.143799	8619.412109	1309.213989	5.872449
641.191895	852.920898	8597.270508	1320.210693	6.033945
641.526184	848.982910	8572.304688	1307.282104	5.933965
641.860413	850.543152	8517.991211	1299.182983	5.851227
642.194580	846.753723	8459.587891	1282.984985	5.730208
642.528748	850.171692	8395.389648	1287.294556	5.793376
642.862793	837.391785	8357.941406	1279.046997	5.872645
643.196838	838.506165	8316.554688	1286.105835	5.985515
643.530823	841.255371	8299.911133	1282.167603	5.911417
643.864746	849.800232	8313.211914	1283.579468	5.812077
644.198669	846.753845	8326.288086	1282.687866	5.828358
644.532532	850.766296	8314.250977	1294.130493	5.940445
644.866333	857.304871	8280.889648	1292.867310	5.867279
645.200073	859.608215	8280.444336	1291.827026	5.824395
645.533813	855.670105	8297.012695	1280.533081	5.709494
645.867554	844.896240	8319.304688	1281.350464	5.839315
646.201172	838.060364	8323.910156	1287.666138	6.006075
646.534729	840.586731	8318.411133	1299.331665	6.134738
646.868225	847.719727	8321.383789	1301.709473	6.074527
647.201782	849.726013	8340.479492	1286.402954	5.829546
647.535217	841.552673	8356.009766	1280.830322	5.845767
647.868591	844.821960	8348.430664	1280.830200	5.810647
648.201965	844.970520	8300.801758	1295.319336	6.040223
648.535278	845.267761	8252.655273	1298.737183	6.121853
648.868591	841.478333	8229.769531	1294.873535	6.136672
649.201782	847.422546	8224.569336	1283.951050	5.917308
649.534912	849.057190	8217.509766	1273.845825	5.764964
649.868103	846.902405	8225.756836	1273.028442	5.774962
650.201172	845.193542	8257.930664	1275.480591	5.804698
650.534180	837.911804	8293.297852	1271.839722	5.820328
650.867188	838.506165	8282.822266	1273.251465	5.839963
651.200134	841.255371	8279.776367	1279.418579	5.890461
651.533020	854.184082	8258.227539	1289.672241	5.881761
651.865845	858.567932	8230.883789	1291.827148	5.876840
652.198608	855.967285	8190.017090	1291.529907	5.938910
652.531433	850.766113	8138.154297	1276.743774	5.845409
652.864136	846.382324	8096.916016	1273.474243	5.890490
653.196777	933.539368	8114.971191	1351.492310	5.819911
653.529358	935.174072	8073.213379	1358.030884	5.923991
653.861938	940.969727	8016.000000	1347.479980	5.745703
654.194519	849.651550	7875.791016	1257.796509	5.808950
654.526978	852.400818	7847.036621	1257.202026	5.787309
654.859375	844.821960	7841.389160	1261.288696	5.952444
655.191833	845.342041	7835.964844	1256.533325	5.882041
655.524170	844.227478	7798.738770	1249.325928	5.824974
655.856445	843.038635	7766.789063	1249.994629	5.877681
656.188660	854.109802	7810.404785	1259.431152	5.826684
656.520874	848.537109	7853.797363	1272.359863	6.050065
656.853088	854.704285	7951.208496	1277.784058	5.961805
657.185181	848.388428	8007.752441	1276.446411	5.978994
657.517212	854.258301	8129.683105	1274.217407	5.772297
657.849243	850.543213	8291.217773	1276.743652	5.727981
658.181274	852.772400	8517.618164	1288.557739	5.685507
658.513123	850.171692	8757.318359	1301.412109	5.706742
658.844971	855.001465	8926.506836	1317.610107	5.731380
659.176819	849.800232	9038.702148	1326.898071	5.826152
659.508667	848.908508	9077.934570	1326.452148	5.803161
659.840393	843.261475	9070.430664	1331.876343	5.939040
660.172058	842.295593	8947.756836	1319.690552	5.889794
660.503662	849.651611	8765.417969	1311.442993	5.833817
660.835266	847.125305	8549.715820	1292.570190	5.783053
661.166931	847.571106	8354.597656	1276.669312	5.715954
661.498413	841.626953	8178.872559	1271.171021	5.854296
661.829773	849.800232	7998.687500	1261.883179	5.764295
662.161194	847.719727	7845.624512	1267.827271	6.003333
662.492615	845.565002	7675.990723	1248.508545	5.899245
662.823975	847.348328	7532.587402	1247.394043	5.984015
663.155212	850.543274	7424.328125	1232.533569	5.810812
663.486450	851.880676	7362.062012	1226.589355	5.755733
663.817627	845.936462	7317.628906	1212.917725	5.670561
664.148743	844.078857	7237.679688	1212.397583	5.760740
664.479858	845.639221	7150.447754	1216.558472	5.883117
664.810913	842.890076	7078.373535	1214.626587	5.961631
665.141907	840.363770	7049.768066	1204.595703	5.865811
665.472778	833.453613	7046.350098	1204.372803	5.970149
665.803711	831.819031	7029.929199	1205.264526	6.025151
666.134583	842.370056	7049.024902	1214.403687	5.994109
666.465454	853.738342	7053.260254	1212.026001	5.779279
666.796143	861.540039	7052.220215	1215.963989	5.725121
667.126831	851.137695	7060.987793	1209.871216	5.776847
667.457458	843.707458	7072.876465	1217.078613	5.993916
667.788147	836.648621	7101.407715	1213.957886	6.022726
668.118774	836.797302	7086.621582	1223.320068	6.184538
668.449219	836.871582	7066.560059	1219.233398	6.137736
668.779663	832.784912	7037.730469	1213.586304	6.137063
669.110107	835.311218	7000.207520	1199.171631	5.902133
669.440552	842.369934	7005.705566	1202.961060	5.850584
669.770874	855.595886	7011.130371	1206.750366	5.704695
670.101135	856.413086	7011.799316	1212.917480	5.791747
670.431396	852.920898	6952.728027	1201.029175	5.706873
670.761597	846.382324	6881.545410	1200.657715	5.870188
671.091797	844.599060	6828.865723	1194.713379	5.850580
671.421875	849.651550	6786.290527	1184.088135	5.633433
671.751892	845.267761	6779.083496	1169.970581	5.472075
672.081909	847.273926	6745.423828	1158.825317	5.282188
672.411865	837.763184	6723.950684	1177.995361	5.780179
672.741821	844.376160	6642.812012	1178.738403	5.766421
673.071716	842.964355	6619.257813	1189.214966	5.994339
673.401550	841.626953	6589.388184	1178.738403	5.865091
673.731262	839.695007	6612.199219	1180.670288	5.906887
674.060974	838.208984	6550.007324	1180.001587	5.983975
674.390625	841.181091	6473.996094	1178.589722	5.990054
674.720276	844.227478	6410.912598	1184.236816	6.107932
675.049927	853.738281	6380.300293	1178.664063	5.879347
675.379395	853.589661	6374.652832	1179.184204	5.897316
675.708923	848.388489	6343.966309	1173.611450	5.917903
676.038330	843.930359	6325.539063	1174.800293	6.036000
676.367737	842.815857	6319.743652	1175.171875	6.068293
676.697083	845.416443	6369.154785	1172.125488	5.914637
677.026428	842.369934	6418.343750	1174.800293	5.961835
677.355652	846.085144	6460.324219	1174.428833	5.848409
677.684875	846.605225	6472.287598	1185.871460	6.030668
678.013977	852.772278	6509.066895	1184.979736	5.873235
678.343079	845.862122	6575.270996	1188.472046	5.979848
678.672180	842.444153	6647.344238	1180.373047	5.821442
679.001221	830.927307	6745.126465	1180.744507	5.914870
679.330139	836.722900	6827.825684	1183.567993	5.789337
679.659058	834.865417	6892.617188	1192.484375	5.903493
679.987976	840.215149	6940.766113	1207.270630	6.016760
680.316772	837.911804	6978.808594	1211.208618	6.078865
680.645630	845.119141	7009.792969	1210.539917	5.927658
680.974304	850.914734	7000.281738	1206.304688	5.779293
681.302979	854.778503	6960.232910	1198.354370	5.627359
681.631653	850.023132	6913.199219	1188.620605	5.584490
681.960266	845.193420	6879.169434	1185.648560	5.642302
682.288757	843.410156	6833.621094	1188.323486	5.757950
682.617249	834.939636	6765.560059	1195.679321	6.082664
682.945679	837.094421	6674.390625	1187.283081	5.999158
683.274109	842.072754	6554.317871	1177.103638	5.865135
683.602478	854.927063	6439.742188	1164.100708	5.535969
683.930725	851.286194	6325.390625	1156.744873	5.580067
684.259033	846.530945	6242.988281	1152.138062	5.663106
684.587280	839.174988	6156.798340	1150.949097	5.863035
684.915344	841.329651	6091.560059	1147.085327	5.823662
685.243469	839.323425	6045.121094	1143.296021	5.839117
685.571533	848.611328	6011.164551	1148.125610	5.801670
685.899536	850.097412	5986.272949	1143.593140	5.714285
686.227539	845.787903	5973.047363	1142.627319	5.789436
686.555420	842.815735	6007.820801	1130.738892	5.574499
686.883301	845.713562	6038.953613	1132.076294	5.514144
687.211121	850.691833	6072.910156	1140.992554	5.558954
687.538940	846.159424	6100.253418	1143.444580	5.658163
687.866638	841.626953	6111.324219	1146.490967	5.785228
688.194336	844.896301	6092.302734	1143.444580	5.689445
688.521973	852.103699	6024.167480	1151.617798	5.790998
688.849609	850.766113	5945.777832	1152.435181	5.920871
689.177063	849.057129	5865.605469	1155.035767	6.099386
689.504578	845.342102	5805.865723	1146.342407	6.067914
689.832031	846.456604	5736.244141	1141.587036	6.035649
690.159485	842.964417	5671.675781	1132.893555	6.004275
690.486816	839.769348	5594.623535	1127.320801	6.047535
690.814087	838.951965	5530.500000	1116.695557	5.920084
691.141296	831.373108	5467.490723	1105.773071	5.918745
691.468506	826.840637	5414.142090	1102.652466	6.012507
691.795715	827.137878	5369.560059	1110.677124	6.242027
692.122803	843.038635	5329.437012	1109.562622	5.940711
692.449829	846.159424	5291.617188	1116.026978	6.070635
692.776855	847.645447	5243.022949	1108.447998	5.933564
693.103821	839.026306	5214.119629	1105.253052	6.085053
693.430664	840.512390	5166.565430	1094.850586	5.879220
693.757568	835.162598	5150.516113	1097.674194	6.083200
694.084351	841.106750	5135.878418	1091.729858	5.835540
694.411133	847.125305	5138.627441	1091.284058	5.689354
694.737854	854.406982	5133.277344	1089.129272	5.485614
695.064575	848.908508	5143.233887	1107.110474	6.012632
695.391174	848.685608	5155.122559	1114.615112	6.175163
695.717773	843.038574	5185.958496	1111.420044	6.179747
696.044250	848.091309	5220.062988	1101.835083	5.803875
696.370789	850.691833	5287.307129	1098.788696	5.592030
696.697205	854.332703	5391.628418	1104.509888	5.513795
697.023621	850.320313	5513.113281	1117.290039	5.725533
697.349915	847.348328	5671.898438	1132.670654	5.913967
697.676208	848.908508	5871.846191	1147.531250	5.945181
698.002380	858.345032	6088.438965	1150.206055	5.580417
698.328674	852.326477	6305.328613	1153.772705	5.528079
698.654724	848.388489	6464.782715	1165.289551	5.642429
698.980896	841.924133	6590.800293	1172.125366	5.743753
699.306946	850.617493	6609.302246	1178.069702	5.686233
699.632935	848.685730	6530.466309	1173.165649	5.710884
699.958862	850.394714	6386.021973	1176.137695	5.884481
700.284729	843.707336	6203.014160	1163.506226	5.967169
700.610596	852.400818	6003.064941	1149.834595	5.774669
700.936340	854.927185	5782.535156	1128.435425	5.550528
701.262146	852.326477	5575.527344	1114.243530	5.545330
701.587830	846.679504	5396.458008	1100.720581	5.583592
701.913513	842.295654	5233.958008	1090.540894	5.652649
702.239075	843.187317	5107.791504	1079.767090	5.547520
702.564697	844.153320	4999.384277	1065.277954	5.321597
702.890137	841.032532	4914.307617	1059.705444	5.368479
703.215698	843.410156	4834.803223	1065.055176	5.553074
703.541016	831.744629	4752.327637	1072.114014	6.130960
703.866455	832.041931	4703.733887	1071.147949	6.175750
704.191711	831.298828	4645.108887	1062.677612	6.066867
704.517029	840.215149	4626.013184	1066.912842	5.988108
704.842163	851.880676	4580.763184	1072.782715	5.924081
705.167419	853.515381	4563.598633	1079.618530	6.094288
705.492493	857.527649	4512.255371	1071.668091	5.859272
705.817566	845.416321	4455.265137	1062.751831	6.020626
706.142578	847.051025	4429.928223	1049.971802	5.663626
706.467590	842.890137	4436.318359	1047.891235	5.704889
706.792480	842.741516	4469.160156	1054.281372	5.833299
707.117371	844.821960	4484.392090	1060.671387	5.930630
707.442200	847.794006	4502.968262	1065.872559	5.966297
707.766907	853.961121	4525.704590	1062.974731	5.692490
708.091675	848.685730	4541.011230	1063.792114	5.825770
708.416321	853.515320	4539.228027	1061.562988	5.644707
708.741028	849.205811	4540.713379	1061.860229	5.760639
709.065552	847.794006	4565.530762	1062.231689	5.767963
709.390137	842.146973	4594.211426	1065.129517	5.942929
709.714600	843.930237	4636.192871	1067.953003	5.907364
710.039063	845.936523	4659.226563	1066.689819	5.789051
710.363403	850.320313	4703.733887	1067.061401	5.624651
710.687744	852.772278	4754.408203	1071.222290	5.598934
711.012085	851.657776	4811.844238	1076.200562	5.670005
711.336304	846.753845	4864.375977	1082.144775	5.858962
711.660461	840.883972	4862.667480	1079.990112	5.945276
711.984619	842.221375	4844.239746	1079.469849	5.928221
712.308716	839.026306	4802.184570	1075.606079	5.969476
712.632751	844.821960	4758.123535	1072.039673	5.806292
712.956726	844.896240	4717.108398	1065.278198	5.691371
713.280701	851.955078	4681.889160	1063.049072	5.511687
713.604553	852.846680	4648.378418	1065.798218	5.610585
713.928467	850.914795	4619.623535	1070.999390	5.839788
714.252258	854.481262	4579.425781	1066.392700	5.688982
714.575989	849.354431	4546.211914	1057.401978	5.627687
714.899719	858.567932	4521.989258	1050.566162	5.240954
715.223267	857.750671	4504.082520	1050.194580	5.277740
715.546936	854.184082	4523.624023	1050.566162	5.351827
715.870422	848.537109	4521.469238	1053.018188	5.567244
716.193970	836.722900	4502.373535	1058.665161	6.054648
716.517395	840.512390	4454.373535	1061.934570	6.127025
716.840820	835.905579	4391.588379	1063.420532	6.398629
717.164124	841.626953	4350.721680	1049.005859	5.909755
717.487488	844.004578	4297.446777	1041.946899	5.731740
717.810730	849.577332	4237.335449	1037.860352	5.557747
718.133972	846.308105	4153.447754	1032.882080	5.641551
718.457092	841.329773	4084.271729	1033.104980	5.913619
718.780212	838.357605	4015.393311	1032.807739	6.120490
719.103210	839.769348	3953.499023	1040.535278	6.447763
719.426208	844.004639	3909.437500	1036.151367	6.268176
719.749207	844.896240	3880.385498	1030.207153	6.104812
720.072083	854.629883	3851.110107	1027.458008	5.767704
720.394958	852.177917	3810.094971	1026.417847	5.890629
720.717773	851.880676	3742.999268	1022.182556	5.890519
721.040527	841.849792	3732.374268	1020.770813	6.189916
721.363281	842.741394	3705.996826	1014.752258	6.007528
721.685913	840.660950	3718.702393	1009.996887	5.883721
722.008545	839.769287	3680.882568	1000.857605	5.669901
722.331055	838.357605	3660.523438	996.993896	5.621083
722.653503	843.558777	3652.870117	991.346924	5.260654
722.976013	850.246094	3648.932373	990.826843	5.023098
723.298401	850.989075	3644.548584	995.582214	5.175946
723.620789	845.416443	3631.694092	1003.086731	5.658815
723.943115	843.335938	3624.041016	1004.721375	5.803760
724.265381	845.564941	3598.778076	1009.625427	5.958873
724.587585	850.023132	3585.403564	1006.801941	5.731518
724.909790	843.484375	3596.548828	1013.860596	6.188603
725.231873	843.707336	3643.508057	1007.842102	5.862373
725.553894	848.239807	3677.018799	1016.535645	5.949416
725.875916	894.976257	3727.618896	1058.813843	5.783913
726.197937	892.449951	3718.182373	1059.854004	5.924271
726.519775	887.025879	3724.646729	1048.411255	5.687348
726.841675	844.078918	3688.313232	1002.120789	5.556570
727.163513	839.100586	3719.817383	998.479980	5.532630
727.485291	840.437988	3744.931641	998.554260	5.443850
727.806946	839.323486	3796.720459	1005.984558	5.635397
728.128662	838.208984	3812.175049	1010.962891	5.808873
728.450256	837.466003	3823.692139	1021.365234	6.158249
728.771790	839.100586	3803.407471	1011.780212	5.825295
729.093323	846.085144	3795.903076	1011.631531	5.612088
729.414795	845.193420	3780.373779	1015.495300	5.802093
729.736145	851.137695	3776.881592	1017.947266	5.701441
730.057495	853.366699	3781.711182	1014.975159	5.518765
730.378845	853.663879	3796.794922	1013.860596	5.443071
730.700134	853.961121	3812.323975	1015.495300	5.460256
731.021301	851.880676	3830.602539	1025.526245	5.829533
731.342468	845.416321	3850.664063	1020.473572	5.825052
731.663574	841.998352	3863.444092	1023.074158	5.993019
731.984680	839.472168	3875.406982	1024.783081	6.103916
732.305664	843.558777	3879.270508	1022.182556	5.884082
732.626648	844.450439	3879.047607	1019.136047	5.756468
732.947571	844.747620	3867.159180	1010.071289	5.469926
733.268433	848.091248	3832.162842	1012.746094	5.517792
733.589233	841.181091	3815.964844	1016.164063	5.882208
733.909973	849.280090	3780.522461	1018.021667	5.756657
734.230713	847.348145	3747.011719	1018.987549	5.919287
734.551331	852.475037	3666.764893	1013.414856	5.718666
734.871948	844.598938	3614.604248	1006.578918	5.847641
735.192505	838.654785	3565.119141	999.297363	5.891974
735.513062	837.242981	3545.874756	994.616211	5.810063
735.833435	833.230713	3504.190674	992.312805	5.955989
736.153931	844.524719	3471.423096	990.009460	5.538270
736.474304	848.017029	3436.352295	995.136414	5.683939
736.794617	856.264648	3413.987305	1001.080566	5.661909
737.114807	848.462830	3410.717773	1003.383972	6.046281
737.434998	845.862244	3426.321533	1001.154846	6.018022
737.755188	844.896301	3453.813232	999.297363	5.918205
738.075256	855.298645	3468.451172	988.300537	5.089710
738.395325	858.270752	3475.955811	983.916687	4.799887
738.715271	859.756836	3492.525391	987.334534	4.845762
739.035278	847.496826	3514.072998	999.148621	5.687135
739.355164	851.657776	3534.580322	999.074402	5.494628
739.675049	849.280090	3519.348389	994.764832	5.448727
739.994873	861.465759	3489.627197	999.594543	5.255719
740.314636	852.103577	3445.194336	1000.931946	5.739420
740.634277	856.784668	3417.627930	996.399475	5.451908
740.953979	850.543213	3383.671875	987.037354	5.388362
741.273499	856.115906	3341.244873	985.179749	5.193447
741.593140	855.372864	3308.848877	992.312805	5.581466
741.912598	854.629883	3283.288818	991.346924	5.629323
742.232117	852.846680	3252.750244	991.198303	5.764883
742.551453	851.286316	3217.679443	982.802063	5.557646
742.870850	855.372864	3179.933594	980.275818	5.373185
743.190063	849.502930	3157.716797	976.040527	5.482057
743.509338	848.388489	3124.949463	976.040527	5.607231
743.828552	843.558777	3104.962158	974.405823	5.786099
744.147705	848.016907	3096.640381	975.966248	5.690118
744.466797	843.261536	3079.030518	974.628723	5.875705
744.785828	842.369934	3060.751953	976.709290	6.055736
745.104858	836.871582	3043.216553	965.638184	5.836195
745.423706	841.998352	3038.609619	962.666077	5.493358
745.742615	840.586670	3027.092773	964.077820	5.647876
746.061401	845.193359	3001.978516	976.263489	6.077106
746.380249	848.016907	2988.455811	972.251160	5.804148
746.698975	852.103577	2985.037842	964.449402	5.267196
747.017639	850.617493	2992.170654	955.904480	4.916384
747.336304	839.695068	2989.867188	954.789978	5.352823
747.654907	840.140869	2984.666016	958.579407	5.522833
747.973389	842.369934	2978.796631	959.471008	5.481165
748.291931	848.834290	2974.858398	962.666016	5.354207
748.610352	851.434875	2974.041016	962.888916	5.250811
748.928711	848.908630	2990.313232	964.523621	5.399026
749.247070	848.314148	3002.201416	966.009705	5.464333
749.565308	845.936462	3006.362305	964.597900	5.492502
749.883545	849.205811	2993.953857	972.028137	5.726655
750.201782	851.137695	2975.378174	975.371765	5.848400
750.519836	846.530945	2963.787109	972.548340	5.951920
750.837952	853.515320	2942.239014	962.888977	5.236387
751.155884	850.320313	2928.641846	955.161438	5.044509
751.473877	849.280090	2918.610596	959.248108	5.314183
751.791809	837.243103	2915.638672	954.344055	5.634200
752.109619	841.924133	2906.202393	958.950928	5.669138
752.427490	844.301758	2893.942383	953.601135	5.332612
752.745300	846.382324	2892.604736	958.282227	5.468609
753.062988	841.255432	2903.156006	960.065430	5.762159
753.380615	837.986084	2911.403564	957.613464	5.769575
753.698303	840.735291	2914.969971	954.121277	5.466401
754.015808	837.986084	2905.979248	950.926270	5.461342
754.333374	836.351379	2900.109375	948.845703	5.450945
754.650757	829.961426	2896.394531	958.059265	6.198983
754.968262	844.970520	2897.211670	954.195557	5.322232
755.285583	849.948914	2891.713135	962.740417	5.524218
755.602905	855.372986	2885.769287	960.288391	5.167238
755.920105	845.119141	2870.462891	964.820801	5.910190
756.237305	845.119141	2867.787842	967.792969	6.064949
756.554443	847.199646	2862.586670	963.632019	5.777172
756.871582	848.537048	2875.812500	961.774414	5.585692
757.188599	847.868347	2889.781250	961.774414	5.578400
757.505615	850.468994	2922.103271	966.306885	5.591619
757.822510	852.177917	2950.115234	968.907471	5.564015
758.139465	857.973450	2971.885986	971.210876	5.356770
758.456238	859.162354	3000.269531	979.681396	5.628819
758.773010	860.276855	3025.309326	987.706055	5.885787
759.089783	857.081848	3052.653076	991.198242	6.108497
759.406433	845.713562	3055.476563	978.566833	6.012105
759.723145	835.757019	3060.305908	970.244934	6.045627
760.039673	835.905579	3067.216064	960.437012	5.581089
760.356201	842.741516	3071.451416	964.820862	5.477579
760.672668	846.976746	3076.429688	966.306946	5.352443
760.989136	847.125305	3086.312256	972.771240	5.611230
761.305481	844.970520	3085.643555	977.006531	5.892694
761.621826	842.369934	3084.008789	978.343933	6.065830
761.938049	839.695007	3089.284424	974.331604	5.984941
762.254333	837.391602	3127.030273	975.223206	6.019797
762.570496	843.856018	3214.186768	976.412048	5.592301
762.886597	844.376160	3359.077393	981.910461	5.469211
763.202637	849.280090	3583.397217	991.198303	5.190641
763.518677	849.725891	3836.249268	1014.157898	5.505800
763.834656	849.354431	4077.362061	1030.132935	5.600312
764.150574	848.834229	4213.930176	1032.287720	5.451657
764.466370	843.930359	4234.140625	1033.253662	5.584412
764.782288	846.010742	4148.841309	1032.659180	5.651166
765.097961	849.874512	4001.721680	1028.646851	5.671986
765.413696	856.636047	3803.184814	1012.225891	5.280409
765.729309	860.053955	3599.075195	1004.870056	5.287148
766.044861	851.880676	3427.510498	995.805115	5.587932
766.360474	845.044861	3295.771484	992.610046	6.021283
766.675903	841.478333	3180.973877	977.972412	5.834338
766.991394	846.530945	3101.544189	970.987976	5.519126
767.306763	843.261658	3034.746094	965.712463	5.587574
767.622131	842.667175	2988.306641	965.786804	5.738132
767.937378	847.051025	2936.294922	967.272766	5.754318
768.252625	853.143860	2910.511719	962.814697	5.330638
768.567810	850.468994	2870.833984	961.700195	5.505500
768.882996	842.295654	2814.364014	962.145935	6.077390
769.197998	839.695068	2765.175781	959.471008	6.220573
769.513062	846.605225	2729.138672	955.532959	5.786231
769.828064	855.001465	2713.683838	951.297668	5.180885
770.142944	852.475098	2697.560303	952.263672	5.408345
770.457825	842.147034	2675.715332	945.204895	5.620617
770.772705	832.562012	2672.966064	945.725098	6.148818
771.087402	842.295654	2644.062256	939.483582	5.394035
771.402100	847.645447	2628.161377	937.626038	5.053625
771.716736	847.422424	2583.356689	937.997559	5.217659
772.031372	839.472168	2571.022705	935.694153	5.556984
772.345947	839.026367	2561.437500	946.319397	6.229235
772.660461	838.877686	2548.434570	945.576416	6.241309
772.974854	840.735291	2522.577393	946.393738	6.282305
773.289246	836.648621	2499.246338	942.381409	6.359493
773.603638	839.769348	2487.060547	930.641602	5.516466
773.917908	833.973694	2477.995605	933.985168	6.083342
774.232178	840.363708	2465.141357	931.904724	5.634064
774.546265	839.249207	2465.290039	938.369080	6.095780
774.860474	846.679504	2455.184814	937.477478	5.644866
775.174561	849.502991	2446.937256	945.502136	6.009583
775.488586	856.561768	2429.104736	951.223450	6.019656
775.802551	852.400818	2421.079834	947.359680	6.053429
776.116516	847.273926	2420.559814	940.523743	5.927074
776.430359	841.181152	2406.516602	932.499084	5.833761
776.744202	844.301758	2397.674561	933.910889	5.768682
777.057922	845.044861	2379.767578	923.285645	5.098041
777.371704	845.564941	2371.594482	926.777832	5.321843
777.685303	841.552673	2371.520020	928.338196	5.672378
777.998962	834.048096	2363.941162	932.573486	6.440018
778.312500	831.224609	2359.185791	915.632385	5.524209
778.626038	833.453613	2345.662598	909.019470	4.997051
778.939453	842.815735	2355.098877	910.282532	4.461254
779.252869	842.444153	2360.746094	923.285583	5.324463
779.566223	846.753723	2371.817139	931.979004	5.588310
779.879578	844.598938	2367.061768	930.715820	5.656419
780.192749	839.992188	2371.297119	926.554871	5.652870
780.505920	836.945801	2354.875977	927.372253	5.957221
780.819031	836.054199	2337.117920	934.579651	6.563709
781.132141	846.753906	2317.204590	945.873718	6.740777
781.445190	841.404053	2300.932373	944.759094	7.081400
781.758118	840.140930	2281.465088	946.542297	7.382195
782.071045	834.419617	2271.805664	946.765198	7.815965
782.383911	843.781738	2268.685303	942.529968	6.930169
782.696838	854.258362	2272.325928	935.768372	5.747963
783.009583	849.948792	2253.973145	927.595154	5.530272
783.322266	840.660950	2231.013428	928.709717	6.332838
783.634888	824.611572	2213.849609	924.400085	7.182967
783.947510	825.354553	2209.019775	922.691162	7.034693
784.260132	832.636230	2213.403564	916.821289	6.096976
784.572571	836.202820	2196.314209	925.663330	6.577440
784.885010	842.072754	2194.159424	929.304016	6.451603
785.197449	841.329651	2189.255127	927.075012	6.361283
785.509766	844.821960	2187.249023	917.489929	5.413178
785.822083	840.586670	2177.366943	907.756348	5.024736
786.134277	841.998474	2176.401123	911.174255	5.184026
786.446533	847.719727	2177.961426	908.870850	4.596993
786.758606	848.016907	2177.515381	910.654114	4.711341
787.070740	845.342041	2178.853027	903.966980	4.396285
787.382690	836.871582	2192.004639	905.824524	5.088278
787.694641	838.952087	2221.874512	911.843018	5.270790
788.006653	842.889954	2263.038086	921.502380	5.535509
788.318481	851.360535	2318.913818	919.793396	4.663058
788.630310	848.908508	2360.077148	915.929626	4.435052
788.942017	845.490723	2380.956299	913.329041	4.418094
789.253784	842.221375	2387.717773	919.347595	4.990385
789.565430	844.153137	2364.535400	922.319763	5.141248
789.877014	856.858948	2332.436768	920.090576	4.285211
790.188538	857.304688	2285.328857	917.192810	4.193775
790.500061	856.041687	2247.136963	919.421875	4.556136
790.811462	847.571106	2219.942383	926.109070	5.722793
791.122925	849.057190	2185.391602	924.028625	5.610230
791.434204	852.772278	2156.413574	922.691162	5.363353
791.745483	849.354431	2125.578125	917.341370	5.327196
792.056702	848.834290	2106.259277	921.130859	5.749573
792.367920	850.171692	2098.680420	920.239258	5.612100
792.678955	852.252136	2092.587646	921.651062	5.595174
792.990112	843.187256	2099.274902	911.694336	5.454005
793.301086	840.809570	2092.067383	896.090820	4.418054
793.612122	836.574402	2085.677490	898.171326	4.931293
793.922974	838.060364	2074.680664	904.264160	5.353607
794.233826	841.552673	2071.485596	916.672668	6.107650
794.544556	845.267761	2068.959229	916.895508	5.853416
794.855286	852.326477	2057.145264	920.982239	5.698430
795.166016	848.982849	2059.002686	926.480652	6.404673
795.476624	844.376160	2068.364990	922.394043	6.374069
795.787292	842.592834	2107.745361	920.313477	6.143183
796.097778	836.574280	2140.735596	911.991638	5.782824
796.408264	834.419495	2184.054199	913.477722	5.857750
796.718689	833.379211	2202.258301	910.951416	5.666841
797.029053	845.787903	2211.991943	906.716125	4.459672
797.339355	843.038635	2200.920898	908.499329	4.820793
797.649658	839.695007	2183.013916	917.192810	5.769129
797.959839	835.162537	2153.664307	926.034851	6.892089
798.270020	844.896179	2125.206543	927.297913	6.436075
798.580078	847.645325	2113.689453	920.907898	5.786731
798.890137	846.530945	2106.556396	922.691162	6.044340
799.200195	837.168762	2100.983643	917.564270	6.361335
799.510071	839.620789	2079.510498	917.935791	6.316288
799.820007	838.580505	2069.702393	919.496094	6.572509
800.129883	840.809570	2049.491943	919.941895	6.546991
800.439575	843.261536	2040.798462	920.239197	6.427999
800.749329	842.295593	2023.263184	908.573730	5.612190
801.058960	840.586609	2018.730591	903.818359	5.367064
801.368591	839.769287	1999.783569	901.366272	5.310019
801.678162	843.038635	1990.867188	906.790466	5.554124
801.987671	856.338867	1987.077759	908.202148	4.586672
802.297119	853.664001	1977.418335	911.917297	5.183810
802.606506	851.211975	1969.393677	917.489929	5.927298
802.915894	842.890076	1952.526855	921.502258	7.084497
803.225159	844.524719	1949.851929	922.022461	7.011294
803.534424	840.883850	1952.229614	917.564270	6.899781
803.843628	845.936462	1946.285522	915.260925	6.300224
804.152771	843.112976	1942.421875	909.836853	6.069621
804.461792	849.502991	1931.350586	910.728455	5.659342
804.770874	853.143860	1929.938843	914.740723	5.720389
805.079773	856.858948	1943.833374	906.418884	4.559439
805.388733	849.651611	1961.145996	902.555115	4.759674
805.697571	838.357605	1984.179810	895.719238	5.006155
806.006470	836.351379	1991.015991	901.143372	5.611326
806.315125	840.660950	2006.767944	901.886414	5.250416
806.623901	839.843567	1999.783569	892.078430	4.503239
806.932495	837.168701	2005.950562	895.050598	4.952327
807.241150	833.973694	1984.625610	893.044434	5.133676
807.549622	840.066589	1985.740234	908.796570	5.999089
807.858154	842.444275	1965.901367	902.629456	5.357141
808.166565	845.490662	1951.635254	901.960754	5.105128
808.474915	845.639221	1921.765503	897.279602	4.798729
808.783264	841.849792	1911.957520	902.257996	5.645059
809.091492	839.174866	1905.121704	904.709961	6.148065
809.399719	839.992188	1912.849243	903.595459	5.928401
809.707825	851.509216	1904.898804	902.332336	4.824722
810.015930	852.549500	1892.638794	896.388123	4.214890
810.323975	851.286316	1879.858765	892.301453	3.987579
810.632080	840.140869	1869.084839	896.016541	5.430390
810.939880	849.354309	1851.475098	907.236145	5.775934
811.247864	844.673340	1840.701172	907.904968	6.348380
811.555664	847.794128	1832.973755	905.898743	5.897870
811.863464	840.215149	1840.329712	900.771973	6.054989
812.171143	850.394592	1829.630249	899.434509	5.007979
812.478882	849.874512	1818.113281	900.697571	5.249021
812.786438	849.800293	1796.193970	900.400391	5.346622
813.094055	848.760010	1783.339478	908.127869	6.352361
813.401489	850.543274	1776.726563	908.647949	6.273561
813.708984	855.447266	1778.881348	904.487000	5.310583
814.016357	844.524719	1786.163086	906.270264	6.557246
814.323730	845.342102	1796.193848	896.165039	5.344991
814.630981	838.877747	1799.091797	896.833801	6.035743
814.938232	846.307922	1789.135132	893.787415	5.035863
815.245361	836.574402	1773.754517	890.220947	5.724251
815.552490	839.843750	1773.605957	887.917480	5.148391
815.859619	840.140869	1779.178711	885.614075	4.842532
816.166565	843.112976	1783.562500	891.632629	5.159198
816.473572	837.688782	1785.568726	895.050537	6.051584
816.780457	839.174988	1786.757446	893.415955	5.724142
817.087341	846.828125	1798.422974	898.765686	5.457949
817.394043	851.955078	1804.144409	899.805969	5.025355
817.700806	854.184082	1808.231079	902.480896	5.062310
818.007507	849.577332	1815.735718	901.217773	5.344925
818.314209	853.664001	1833.196777	899.062988	4.634759
818.620667	846.828125	1844.267944	895.719299	4.901667
818.927246	842.592834	1864.849609	896.462341	5.269665
819.233704	837.391663	1898.434448	900.771912	5.973393
819.540161	843.856018	1972.737305	906.864685	5.581514
819.846497	851.880676	2038.495117	914.294983	5.259864
820.152832	853.515381	2119.187744	917.787170	5.078075
820.458984	844.673340	2200.103516	928.858337	6.210943
820.765259	840.512390	2316.090088	929.378418	6.022457
821.071350	846.233704	2428.955811	942.604309	6.088915
821.377502	846.233704	2637.597900	950.926270	5.844293
821.683472	848.611389	3047.526123	973.737122	5.690340
821.989441	839.174866	3833.351563	1009.328125	5.682806
822.295349	844.821960	5049.612793	1073.228516	5.432055
822.601196	845.416321	6565.536621	1152.212280	5.363453
822.907043	846.307922	7984.421387	1229.710083	5.371198
823.212769	848.982910	8826.643555	1269.684937	5.273501
823.518494	850.023132	8821.292969	1267.901489	5.242306
823.824097	856.041687	8089.411621	1223.839966	5.084743
824.129700	857.899231	6967.886230	1162.688965	4.988386
824.435242	862.951843	5819.166016	1108.373657	4.951800
824.740723	852.995300	4857.391602	1062.677612	5.236303
825.046082	849.280212	4157.980469	1023.891541	5.277339
825.351501	837.540283	3658.888916	996.028015	5.617446
825.656799	837.911804	3328.241943	977.972412	5.624178
825.962036	837.614563	3101.469971	965.638184	5.655115
826.267212	839.917969	3012.901123	959.916809	5.522309
826.572449	845.564941	3029.767578	953.526855	4.942852
826.877502	843.633118	3207.128174	967.941589	5.259519
827.182495	839.620789	3510.877930	986.145691	5.485241
827.487488	834.270935	3872.583740	1015.643860	5.969528
827.792419	830.035645	4154.339355	1027.383667	5.936522
828.097290	834.939636	4224.332520	1034.219604	5.879518
828.402100	840.066589	4078.847656	1017.427063	5.476149
828.706848	845.044861	3763.803955	1000.486145	5.325595
829.011597	839.174866	3369.851318	975.966248	5.405329
829.316223	838.506165	2975.006592	957.910645	5.588788
829.620789	836.500000	2635.146240	949.811584	6.299826
829.925354	845.416321	2401.909668	938.666199	5.991023
830.229797	846.902405	2229.452881	928.783997	5.922503
830.534302	847.273926	2102.692627	916.969788	5.551603
830.838562	844.599121	1989.826782	908.127869	5.547259
831.142944	841.106750	1923.028687	900.400391	5.480400
831.447144	846.456604	1885.951660	893.118835	4.488932
831.751404	848.165588	1867.152954	886.357178	3.747994
832.055542	853.664001	1850.657837	889.180725	3.562382
832.359619	852.029297	1850.583618	891.261169	3.928867
832.663635	852.326477	1879.190063	900.771912	4.717806
832.967651	847.348328	1952.452515	912.660339	5.910032
833.271545	848.685730	2063.238037	921.576599	6.001460
833.575439	857.379089	2249.069092	922.096680	4.650288
833.879211	855.521484	2500.063477	923.211243	4.116025
834.183044	848.685608	2765.324219	932.870605	4.392325
834.486694	835.385498	2961.037842	951.149109	5.446027
834.790344	841.032532	3014.535889	968.684570	5.873100
835.093933	837.466003	2943.725342	974.703125	6.515680
835.397522	838.208984	2762.129639	970.021973	6.851269
835.700928	833.453613	2544.050781	949.588806	6.789161
836.004395	834.122375	2336.597656	936.214294	6.794915
836.307739	836.797302	2158.493896	923.508484	6.560597
836.611023	838.357605	2024.749146	913.031738	6.294223
836.914307	843.484558	1910.694458	899.583008	5.256552
837.217529	835.682678	1831.562134	886.802979	5.133182
837.520691	833.602234	1766.918823	885.837097	5.596693
837.823730	827.955139	1704.950317	882.121887	6.176402
838.126831	834.345215	1654.721680	890.295227	6.820041
838.429749	838.729187	1606.573608	884.871094	6.009278
838.732727	844.896240	1573.359985	880.784485	4.926566
839.035522	851.063416	1549.137329	872.982727	3.139970
839.338379	852.995300	1544.382202	869.639099	2.407306
839.641113	850.097412	1558.425293	876.103333	3.671452
839.943848	844.078918	1600.926392	868.970398	3.288837
840.246460	840.809570	1658.659546	874.914551	4.170078
840.549072	848.462830	1735.117188	871.422363	2.589457
840.851563	848.239929	1769.296387	885.391296	4.033560
841.154053	850.989075	1775.389282	890.592468	4.284226
841.456482	848.165527	1723.377319	894.901917	5.340009
841.758850	847.571106	1666.833008	886.580078	4.761477
842.061157	843.038574	1596.616821	880.190002	4.930003
842.363403	842.592773	1538.734985	876.772156	4.909828
842.665588	842.295654	1486.500122	873.948547	4.913486
842.967712	843.484436	1451.800781	873.577087	4.946876
843.269775	849.948792	1414.426636	872.685486	4.027916
843.571777	850.097412	1404.172852	875.731934	4.626540
843.873840	854.332703	1384.185547	880.041443	4.852053
844.175659	842.295654	1375.937866	879.744202	7.017539
844.477600	849.205811	1359.368286	879.967102	6.029705
844.779297	847.794006	1336.705933	870.084778	4.559261
845.081116	852.846680	1325.634888	869.787659	3.583207
845.382751	854.927063	1314.860962	862.951843	1.744768
845.684387	861.019836	1313.077637	861.465820	0.098656
845.985962	865.626648	1313.895020	852.697998	-2.884132
846.287537	858.196472	1301.783691	856.710388	-0.335015
846.588989	850.617493	1284.471069	860.425476	2.260667
846.890381	847.496826	1261.363159	870.679260	5.601430
847.191711	849.280029	1254.155640	877.143555	6.881997
847.493042	842.667175	1257.276489	872.834045	7.275975
847.794250	841.701172	1263.146362	869.416016	6.576144
848.095459	843.707336	1259.282593	865.403748	5.220814
848.396606	848.388489	1260.025635	873.651367	6.137172
848.697693	851.583496	1255.715942	868.078674	4.081627
848.998657	851.434814	1251.406372	865.478088	3.511068
849.299622	854.258301	1253.709839	861.242859	1.748537
849.600464	853.589661	1249.177368	865.180847	2.930118
849.901367	847.719727	1247.542603	862.357422	3.661045
850.202087	845.936523	1232.905151	861.540039	4.032243
850.502808	841.701172	1227.109497	861.911621	5.243906
850.803467	840.958069	1223.914429	865.032288	6.286413
851.104065	844.598938	1227.852417	862.728943	4.730552
851.404663	845.119141	1227.183716	866.146790	5.503690
851.705139	847.571106	1216.929932	866.592590	5.149866
852.005615	847.942627	1211.282837	871.422363	6.462191
852.306030	851.657776	1211.357300	865.849609	3.945469
852.606384	852.475098	1217.672974	863.249023	2.950161
852.906616	848.091248	1217.078613	861.985901	3.765618
853.206909	841.181091	1214.403687	860.499817	5.176194
853.506958	835.757019	1210.465576	859.311035	6.285956
853.807129	839.249207	1201.549316	857.601990	5.065630
854.107178	847.719727	1198.725708	858.344971	3.027083
854.407166	852.029297	1193.896118	856.190247	1.217126
854.707092	853.143860	1195.828003	858.345032	1.517774
855.007019	844.896240	1189.660889	853.366760	2.456899
855.306763	848.388489	1192.335815	861.391418	3.780500
855.606567	849.280090	1188.546387	852.772278	1.029335
855.906250	849.354431	1190.181030	860.648438	3.313710
856.205933	849.131531	1188.026245	857.824951	2.565228
856.505493	844.821960	1190.923950	866.889832	6.376118
856.805054	850.097412	1184.236816	870.827881	6.204138
857.104492	853.143860	1188.100586	867.038391	4.148157
857.403931	861.168518	1180.521606	861.317078	0.046519
857.703308	860.499817	1182.527832	857.899231	-0.807565
858.002563	855.670105	1178.366821	860.945618	1.634821
858.301819	843.335876	1186.911743	862.654602	5.622841
858.601013	839.174988	1188.026245	861.688660	6.453660
858.900208	841.626892	1184.682495	854.035400	3.617054
859.199219	848.982849	1178.589722	854.555603	1.690727
859.498291	854.927063	1178.441040	850.468933	-1.378033
859.797302	847.571106	1175.097534	849.428711	0.567162
860.096191	851.954895	1166.032593	852.549377	0.189279
860.395020	851.806335	1162.243042	855.001404	1.029217
860.693787	857.602051	1152.360840	854.778503	-0.957918
860.992554	852.252197	1152.509644	849.205750	-1.014612
861.291260	848.388489	1149.686035	851.657715	1.085049
861.589844	848.685730	1150.800659	856.115906	2.459387
861.888428	853.441101	1151.692261	851.360535	-0.697589
862.186890	854.629883	1152.732422	852.029297	-0.872380
862.485413	852.698059	1163.729126	857.304871	1.481142
862.783813	851.434875	1174.131470	864.883606	4.167608
863.082153	847.422546	1186.391479	863.620422	4.778573
863.380371	848.537109	1177.252319	856.784668	2.509029
863.678589	840.586731	1169.970581	853.589600	3.947634
863.976746	843.781738	1155.481567	845.490662	0.548259
864.274902	843.707336	1165.661011	846.307922	0.807752
864.572937	842.295593	1174.280151	844.896179	0.783345
864.870911	838.506165	1188.769165	852.995178	4.136610
865.168884	832.413391	1184.311157	852.846619	5.806581
865.466736	839.843689	1167.370117	851.880676	3.675119
865.764587	842.295654	1158.156494	854.035461	3.716766
866.062317	848.388489	1152.509399	854.109863	1.881283
866.360107	841.106873	1155.110229	855.893066	4.708929
866.657715	844.524719	1147.382568	850.394714	1.938201
866.955322	847.199646	1148.348511	851.211975	1.332341
867.252808	845.119141	1147.902588	848.834290	1.226999
867.550293	839.546448	1145.970825	844.524719	1.624633
867.847717	840.586731	1140.918335	848.165588	2.523496
868.145081	842.147034	1140.472412	852.252197	3.387296
868.442383	840.438049	1139.134888	857.156189	5.597026
868.739624	832.859192	1146.342407	857.007568	7.703244
869.036804	831.298828	1143.147339	854.852783	7.553012
869.333984	835.533997	1147.531128	852.326477	5.382255
869.631042	840.883972	1143.444580	846.976746	2.013736
869.928101	852.029297	1146.862427	857.156250	1.738934
870.224976	851.509216	1148.199829	863.843445	4.157269
870.521851	848.759949	1154.812866	875.211731	8.642879
870.818726	843.038635	1165.363770	873.725769	9.520553
871.115479	842.518555	1166.478394	865.403809	7.064226
871.412231	846.233704	1158.602417	862.060120	5.066582
871.708862	845.862122	1139.655151	855.744446	3.363703
872.005493	847.050964	1133.339478	861.168518	4.931233
872.302063	847.645508	1130.738892	853.069580	1.916001
872.598572	846.010742	1142.998657	849.725891	1.250943
872.895020	846.753845	1157.636353	852.920959	1.983744
873.191406	846.382324	1164.397827	853.589661	2.266347
873.487671	846.605164	1161.574463	849.280090	0.849266
873.783997	847.942688	1153.995605	853.441101	1.796556
874.080200	851.880676	1154.069824	855.521484	1.204811
874.376343	855.149963	1161.723022	863.769226	2.811487
874.672424	847.273865	1158.602417	857.453430	3.269718
874.968445	838.654785	1156.076050	860.425537	6.858631
875.264465	839.100647	1150.874878	856.487488	5.576741
875.560364	841.255432	1149.314453	862.505920	6.898187
875.856201	837.242981	1147.679932	857.230469	6.438501
876.152039	835.385437	1149.834595	856.859070	6.828968
876.447754	838.134705	1145.599487	848.760010	3.455780
876.743469	850.617493	1150.577637	856.338867	1.907378
877.039063	852.326477	1149.091553	862.431641	3.405105
877.334595	856.487488	1156.298950	865.700989	3.073098
877.630127	844.301819	1157.413452	859.236633	4.769805
877.925537	840.586731	1166.627075	859.608215	5.834089
878.221008	838.729065	1175.320435	852.698059	4.150135
878.516296	843.781738	1191.295532	854.406982	3.057503
878.811646	845.193420	1193.450317	847.348206	0.618734
879.106812	838.877747	1201.103394	851.063293	3.364076
879.401978	841.181152	1207.121948	853.961182	3.492376
879.697083	841.998474	1233.573853	862.654602	5.275135
879.992126	850.023132	1276.074951	863.620422	3.191464
880.287109	847.794006	1329.275635	872.313904	5.092593
880.582031	849.354309	1416.878540	873.428467	4.241961
880.876892	842.518555	1569.719116	883.905212	5.691230
881.171753	845.490662	1859.574219	893.861755	4.769932
881.466492	846.010742	2315.495850	924.623047	5.349649
881.761230	850.914795	2910.957764	960.065430	5.298464
882.055786	853.886902	3512.215576	997.811279	5.414093
882.350403	852.326599	3900.149658	1009.105286	5.143956
882.644958	848.908630	3954.836670	1004.424255	5.007058
882.939453	846.902527	3705.179688	982.579163	4.746798
883.233826	847.794128	3297.332031	971.210876	5.038369
883.528137	855.150085	2873.509033	946.616699	4.531732
883.822449	849.874512	2495.679932	922.096863	4.388268
884.116577	845.713562	2199.063477	894.010315	3.568682
884.410828	841.032532	1966.347168	886.728699	4.060746
884.704956	846.605164	1786.311646	884.350891	4.016757
884.999023	852.029297	1644.839233	881.230225	3.683219
885.292969	845.862122	1534.202637	877.960938	4.663218
885.586914	841.106750	1452.841187	869.490417	4.639867
885.880798	846.085144	1403.504272	869.044617	4.118888
886.174622	854.852844	1376.829468	864.735046	1.893227
886.468384	848.685730	1347.034058	866.889832	3.652887
886.762085	840.958191	1328.904297	865.775208	5.086016
887.055664	845.713562	1304.532837	866.295410	4.485829
887.349304	846.902344	1285.214233	866.444031	4.458398
887.642822	839.695007	1251.034912	861.391418	5.274570
887.936340	829.292664	1223.245605	863.471924	8.675976
888.229736	829.292664	1203.778320	857.081848	7.420627
888.523071	836.277100	1191.295532	859.756836	6.613667
888.816284	840.735168	1179.630005	856.338867	4.604290
889.109619	850.989014	1157.859253	858.419434	2.421356
889.402710	842.072754	1139.432129	857.527771	5.197421
889.695862	836.351379	1129.921387	855.075684	6.378139
889.988892	826.097656	1131.258911	855.447205	9.617718
890.281921	828.995422	1128.138306	856.190247	9.090915
>>>>>End Processed Spectral Data<<<<<
