Jaz Data File
++++++++++++++++++++++++++++++++++++
Date: Fri Jun 04 13:11:51 2021
User: jaz
Dark Spectrum Present: Yes
Reference Spectrum Present: Yes
Processed Spectrum Present: Yes
Spectrometers: JAZA3586
Integration Time (usec): 31000 (JAZA3586)
Spectra Averaged: 10 (JAZA3586)
Boxcar Smoothing: 1 (JAZA3586)
Correct for Electrical Dark: No (JAZA3586)
Strobe/Lamp Enabled: Yes (JAZA3586)
Correct for Detector Non-linearity: No (JAZA3586)
Correct for Stray Light: No (JAZA3586)
Number of Pixels in Processed Spectrum: 2048
>>>>>Begin Processed Spectral Data<<<<<
W	D	R	S	P
191.335022	0.000000	0.000000	0.000000	0.000000
191.713211	360.962646	357.024567	351.526154	239.621674
192.091385	715.386658	714.049133	714.197754	88.888382
192.469528	1071.445313	1078.652710	1075.308960	53.606693
192.847641	1072.262573	1088.014648	1086.082886	87.736458
193.225739	1091.358398	1095.519409	1094.553345	76.782936
193.603790	1109.042358	1102.429443	1103.766846	79.775902
193.981842	1114.912231	1109.636841	1112.014526	54.928730
194.359863	1116.621216	1118.032837	1109.934082	-473.720154
194.737854	1121.822388	1124.348633	1110.528442	-447.064514
195.115829	1130.590210	1123.828613	1112.311646	270.329102
195.493774	1136.683105	1123.902954	1116.026978	161.626633
195.871704	1131.778931	1113.277710	1124.200195	40.963432
196.249603	1131.184692	1118.627563	1120.559448	84.615234
196.627457	1125.834839	1119.519043	1119.370483	102.352188
197.005310	1129.995728	1120.782227	1108.893799	229.032684
197.383133	1122.713989	1113.500488	1117.513062	56.448986
197.760910	1123.902954	1110.974243	1116.621338	56.321285
198.138687	1116.992798	1116.398438	1110.008423	1175.107788
198.516449	1122.268188	1118.033081	1104.881470	410.537842
198.894180	1115.209473	1116.101196	1099.085815	-1808.145142
199.271866	1115.878174	1114.838135	1112.534668	321.478882
199.649536	1106.367432	1114.986694	1113.054688	77.585007
200.027191	1104.064087	1118.627563	1121.673950	120.917992
200.404816	1107.184692	1119.964966	1114.243530	55.232292
200.782410	1112.460327	1129.401367	1110.454224	-11.841679
201.159988	1111.865845	1144.782104	1108.596680	-9.931764
201.537537	1114.615112	1155.704590	1107.259155	-17.902288
201.915070	1113.500610	1157.562134	1106.813354	-15.177087
202.292557	1116.101196	1158.007813	1100.720581	-36.702118
202.670029	1103.692627	1156.596069	1101.760742	-3.651718
203.047485	1100.571899	1150.874878	1101.835083	2.511151
203.424911	1098.491455	1140.695435	1109.711060	26.584234
203.802292	1101.463501	1136.311523	1116.026978	41.791401
204.179688	1100.348999	1139.209351	1114.317871	35.946335
204.557037	1104.732910	1153.921387	1114.020874	18.882399
204.934357	1102.429565	1155.853149	1106.664673	7.927412
205.311661	1102.429565	1161.351440	1104.361328	3.278515
205.688934	1094.702026	1154.144165	1098.565796	6.500051
206.066177	1095.444946	1151.766479	1095.816528	0.659751
206.443390	1098.342773	1146.268066	1095.667969	-5.581196
206.820587	1101.760742	1145.079224	1091.878540	-22.812901
207.197769	1106.070313	1156.670532	1092.250000	-27.312752
207.574921	1109.265381	1157.190552	1098.788696	-21.860506
207.952042	1106.516113	1153.698242	1098.194214	-17.637821
208.329147	1101.612183	1145.970825	1097.302612	-9.715289
208.706223	1107.036133	1155.035767	1103.246948	-7.894195
209.083267	1104.658569	1158.602417	1110.231323	10.330657
209.460297	1101.463501	1156.819092	1110.900024	17.047100
209.837280	1088.980713	1147.754028	1096.485229	12.768578
210.214264	1090.912476	1148.645630	1099.308716	14.543186
210.591217	1094.776245	1153.103882	1098.045654	5.605249
210.968124	1091.952759	1156.819092	1103.098267	17.182268
211.345016	1090.541016	1153.698364	1097.302612	10.705954
211.721893	1088.460571	1156.818970	1097.376831	13.043401
212.098724	1091.061157	1155.481567	1101.166382	15.686371
212.475555	1097.822754	1151.469238	1101.389282	6.648205
212.852356	1098.342773	1148.794312	1101.463501	6.185595
213.229126	1099.234497	1147.828369	1088.906372	-21.253965
213.605865	1091.952759	1153.103882	1084.671021	-11.907775
213.982590	1087.866089	1146.342407	1078.801147	-15.501902
214.359283	1087.123047	1149.240234	1078.206665	-14.354130
214.735931	1090.317993	1144.261841	1081.996216	-15.426741
215.112579	1090.838257	1151.469238	1085.414185	-8.946041
215.489197	1090.466675	1150.800415	1096.039429	9.236547
215.865799	1087.271729	1147.159790	1089.426514	3.598021
216.242355	1093.290405	1141.884277	1093.513062	0.458198
216.618896	1093.810425	1140.918335	1089.649292	-8.833194
216.995407	1095.816528	1146.565308	1092.026978	-7.467275
217.371902	1097.376831	1157.339233	1091.135498	-10.408744
217.748367	1095.816528	1154.664307	1083.110840	-21.590771
218.124802	1093.513184	1153.772705	1083.928101	-15.906338
218.501236	1094.256226	1146.639648	1081.476074	-24.397320
218.877609	1096.931030	1145.227905	1087.048828	-20.461370
219.253983	1092.026978	1150.949097	1087.420288	-7.818268
219.630295	1090.169434	1143.296021	1090.095215	-0.139702
220.006592	1083.779419	1146.936890	1087.048828	5.176600
220.382889	1095.222168	1152.063599	1082.887817	-21.699577
220.759140	1088.906372	1159.791138	1080.881714	-11.320709
221.135391	1094.330566	1158.305054	1090.838257	-5.458910
221.511581	1091.729858	1150.280396	1093.141602	2.411153
221.887772	1091.506958	1147.754150	1089.872314	-2.906178
222.263931	1087.643188	1150.949219	1081.996216	-8.920118
222.640060	1086.528687	1155.704590	1083.036621	-5.048095
223.016159	1094.627563	1163.357666	1089.352173	-7.675517
223.392212	1101.612061	1163.134766	1094.404785	-11.714822
223.768265	1107.853516	1163.432007	1102.280884	-10.026598
224.144302	1114.317871	1154.887207	1105.624390	-21.428699
224.520294	1117.364258	1153.475464	1107.407837	-27.571554
224.896286	1115.135132	1154.812866	1104.584351	-26.591188
225.272217	1102.132202	1168.410278	1097.748413	-6.614237
225.648148	1092.993042	1180.373047	1095.147827	2.465993
226.024048	1086.380249	1184.459595	1093.513306	7.272741
226.399902	1087.271729	1180.373047	1095.965210	9.337657
226.775772	1097.005371	1178.589722	1098.417114	1.730409
227.151581	1099.680298	1175.617676	1094.181763	-7.240881
227.527374	1095.593628	1185.277100	1090.615234	-5.551072
227.903137	1094.107544	1194.787964	1087.048706	-7.011133
228.278870	1086.305786	1211.357300	1090.615356	3.446236
228.654572	1091.581177	1222.651245	1092.695801	0.850403
229.030273	1087.420288	1238.031982	1098.937378	7.646876
229.405930	1089.723633	1248.359985	1101.389282	7.353705
229.781555	1081.921997	1262.849121	1105.253052	12.895277
230.157181	1085.339966	1255.567261	1097.228271	6.983783
230.532761	1099.308716	1249.623169	1093.067383	-4.152184
230.908325	1105.401733	1227.778076	1085.414185	-16.332853
231.283859	1104.064087	1222.279663	1080.510132	-19.924578
231.659332	1091.804199	1225.623413	1076.349243	-11.549130
232.034821	1095.370728	1234.539673	1079.246948	-11.585759
232.410263	1094.256226	1239.517944	1084.076538	-7.007825
232.785690	1095.965210	1234.391113	1088.460571	-5.421412
233.161087	1092.695923	1234.390991	1092.101440	-0.419551
233.536469	1084.894043	1230.155884	1095.742188	7.467993
233.911804	1084.225220	1230.750366	1095.222168	7.505161
234.287140	1082.442017	1225.920532	1098.417114	11.134139
234.662430	1088.534912	1231.864746	1098.342773	6.842861
235.037704	1087.123169	1243.678955	1098.491333	7.261414
235.412933	1093.438843	1257.350586	1103.172485	5.938344
235.788162	1091.729858	1262.774658	1098.640015	4.039968
236.163345	1099.011597	1258.242188	1100.497559	0.933214
236.538513	1097.376831	1251.183472	1092.918823	-2.898449
236.913635	1097.896973	1249.474609	1095.519409	-1.568545
237.288742	1094.627808	1251.852295	1100.051880	3.449890
237.663834	1089.723755	1254.824341	1097.674194	4.815513
238.038879	1101.909302	1261.660278	1106.813354	3.069811
238.413910	1108.002075	1267.827271	1099.383057	-5.392778
238.788910	1110.008301	1276.743774	1103.692505	-3.787914
239.163879	1108.225098	1282.985107	1091.209717	-9.736427
239.538834	1105.624512	1289.375122	1100.571899	-2.749712
239.913757	1105.104370	1298.588623	1101.389282	-1.920098
240.288651	1096.188110	1314.043579	1110.305664	6.480238
240.663528	1088.014771	1327.566650	1112.088867	10.049638
241.038361	1084.299561	1353.795532	1112.609009	10.504590
241.413177	1085.488403	1383.368164	1114.169312	9.628351
241.787979	1093.067261	1426.389282	1110.082642	5.104787
242.162735	1101.017700	1471.119629	1109.711060	2.348910
242.537476	1104.584229	1497.348633	1107.704956	0.794555
242.912170	1107.036255	1516.147095	1107.779297	0.181624
243.286865	1101.760864	1517.187134	1111.791626	2.414571
243.661514	1100.200439	1515.552612	1113.649170	3.237910
244.036148	1099.606079	1494.524780	1119.964844	5.155179
244.410751	1099.457397	1469.707886	1121.896851	6.060614
244.785339	1093.364624	1463.614868	1123.977173	8.268070
245.159882	1090.243896	1474.091797	1108.150879	4.665124
245.534378	1089.352173	1508.196655	1107.630737	4.364046
245.908890	1084.671143	1556.344727	1104.732910	4.253316
246.283356	1081.327515	1630.647461	1117.735718	6.627868
246.657791	1078.132446	1702.943970	1114.540771	5.827089
247.032196	1082.590698	1771.525391	1117.438599	5.058230
247.406586	1086.305786	1813.506470	1118.924683	4.485543
247.780960	1086.157227	1834.682739	1119.444824	4.447089
248.155289	1097.302612	1814.992554	1121.822510	3.416503
248.529602	1098.565796	1775.240601	1120.559448	3.250254
248.903870	1114.615112	1713.123413	1125.463379	1.812551
249.278122	1111.717285	1659.105469	1118.107300	1.167364
249.652344	1106.144653	1619.427734	1113.203369	1.375209
250.026550	1099.828979	1594.907837	1110.231201	2.101124
250.400711	1095.073608	1581.161987	1110.974243	3.271141
250.774857	1100.126099	1573.880249	1107.184814	1.489953
251.148987	1094.924927	1585.471313	1104.212646	1.893342
251.523071	1091.729858	1610.214233	1107.853516	3.109767
251.897125	1078.355347	1634.213867	1116.546997	6.870750
252.271164	1082.144775	1645.953735	1119.519165	6.628910
252.645187	1086.900269	1645.433960	1117.810181	5.534118
253.019165	1100.571899	1640.529907	1117.661499	3.164987
253.393112	1100.200317	1619.056274	1122.268311	4.253202
253.767044	1100.720459	1593.124634	1118.255859	3.561180
254.140930	1098.045532	1571.948242	1115.952637	3.778646
254.514801	1100.497559	1570.536621	1110.900024	2.213107
254.888657	1098.565674	1573.062988	1118.033081	4.102744
255.262466	1095.222046	1577.595337	1116.918457	4.497847
255.636276	1091.581177	1575.812134	1122.119751	6.306613
256.010010	1090.689575	1585.843140	1120.930908	6.107465
256.383759	1092.918701	1607.242188	1124.794556	6.197628
256.757446	1091.655640	1649.000366	1118.999023	4.906009
257.131134	1093.513184	1689.792480	1122.045288	4.785024
257.504791	1091.804199	1736.528931	1126.800781	5.428143
257.878418	1098.045532	1791.958862	1126.652222	4.122516
258.252014	1103.172485	1882.013672	1128.063965	3.195963
258.625580	1105.624512	1994.656616	1122.491333	1.897212
258.999115	1100.126099	2133.974365	1127.246582	2.623256
259.372650	1093.735962	2269.353760	1128.955566	2.995838
259.746124	1088.609131	2379.024414	1142.775879	4.197621
260.119598	1093.513184	2444.559326	1147.531250	3.998240
260.493042	1095.296509	2454.813232	1152.881104	4.235667
260.866425	1104.955933	2410.974609	1148.200073	3.311143
261.239838	1102.949585	2327.829834	1143.816162	3.336373
261.613159	1095.593628	2216.598877	1133.859497	3.413532
261.986511	1092.324219	2124.760742	1131.110229	3.756745
262.359802	1087.123047	2057.219482	1127.840942	4.197304
262.733063	1095.444946	2025.046265	1128.732666	3.580860
263.106293	1097.896973	2007.287964	1121.451050	2.590094
263.479523	1099.457275	1989.455200	1124.571777	2.821861
263.852692	1098.417114	1977.492554	1122.862671	2.780826
264.225861	1094.479126	1963.226440	1130.813110	4.182342
264.598969	1097.971313	1969.096313	1124.274414	3.019440
264.972076	1096.782349	1987.597778	1127.841064	3.486549
265.345154	1100.646240	2024.303345	1127.989624	2.960339
265.718201	1093.661743	2066.953125	1134.305298	4.175888
266.091217	1094.107544	2122.011475	1134.156738	3.896200
266.464203	1093.661743	2181.379150	1131.481812	3.477012
266.837158	1098.788574	2236.883545	1133.785156	3.075014
267.210114	1101.389160	2277.526855	1138.317749	3.139818
267.583038	1096.485229	2302.121094	1141.587036	3.740915
267.955902	1093.513062	2306.356201	1145.376465	4.276184
268.328766	1092.621460	2314.158203	1141.066895	3.965942
268.701569	1096.410889	2326.343994	1131.853271	2.881651
269.074371	1096.485229	2344.770996	1125.537598	2.327381
269.447144	1091.358276	2375.309326	1134.156738	3.333341
269.819885	1085.488403	2426.429688	1149.908813	4.804119
270.192596	1089.649414	2526.366943	1163.060425	5.109634
270.565277	1090.986816	2647.851807	1163.283325	4.643723
270.937927	1099.531616	2770.525391	1168.633179	4.135357
271.310577	1097.302612	2861.843750	1173.388672	4.311946
271.683136	1100.794800	2914.301514	1178.218262	4.269268
272.055725	1096.633911	2930.499268	1178.515503	4.464973
272.428284	1095.742188	2904.196045	1173.537231	4.301744
272.800812	1092.770142	2867.490479	1171.159546	4.417000
273.173279	1086.082886	2803.218750	1163.729248	4.521853
273.545776	1091.506958	2770.376953	1164.100708	4.323965
273.918152	1086.231567	2728.618896	1163.357666	4.695975
274.290558	1091.135498	2718.736816	1166.478394	4.629076
274.662964	1085.859985	2713.609619	1161.128662	4.624094
275.035278	1098.937256	2737.089111	1156.373291	3.506148
275.407593	1097.079590	2771.788818	1161.203003	3.828928
275.779907	1095.444946	2817.559326	1166.032593	4.098894
276.152161	1082.070435	2870.983154	1171.605347	5.004991
276.524384	1085.859985	2916.233398	1162.391724	4.181209
276.896606	1096.633911	2944.171143	1162.763184	3.579320
277.268799	1101.983643	2934.734375	1163.506348	3.356851
277.640930	1100.869019	2936.443604	1172.422729	3.898164
278.013031	1090.615356	2928.939209	1173.017090	4.482439
278.385162	1090.838257	2940.158936	1180.373047	4.841496
278.757233	1090.466675	2952.195557	1181.487427	4.889044
279.129272	1090.986816	2993.359375	1178.515381	4.601021
279.501282	1095.222046	3034.746094	1177.772461	4.256220
279.873230	1097.896973	3096.120117	1177.178101	3.967581
280.245178	1099.754517	3174.361084	1183.642456	4.043559
280.617126	1102.801025	3305.430908	1186.020142	3.778171
280.988983	1097.822754	3417.479492	1193.078857	4.106474
281.360870	1103.098145	3534.283203	1197.536987	3.884478
281.732697	1095.965088	3599.669678	1200.211914	4.163703
282.104492	1101.017700	3659.780518	1195.010620	3.673374
282.476288	1092.993042	3670.851563	1197.611206	4.058336
282.848053	1091.284058	3666.764893	1195.828125	4.059206
283.219757	1094.702026	3654.282471	1193.450317	3.857987
283.591461	1101.760742	3634.443604	1193.301758	3.614389
283.963135	1105.698853	3647.891846	1193.673218	3.460570
284.334747	1095.593628	3708.820313	1196.050903	3.844185
284.706360	1089.054932	3803.184814	1199.840210	4.081797
285.077942	1086.305664	3893.536865	1204.670044	4.216410
285.449524	1088.832031	3968.805420	1211.208618	4.249226
285.821014	1095.593628	3985.523438	1201.697876	3.671517
286.192535	1098.268555	4037.535400	1196.793823	3.352036
286.563995	1097.376953	4038.352783	1201.177734	3.529467
286.935425	1093.884644	4041.547852	1213.140625	4.045781
287.306824	1091.284058	3954.613525	1212.026001	4.216837
287.678223	1096.410889	3876.298096	1206.304688	3.953175
288.049561	1086.825806	3816.261963	1200.063232	4.148748
288.420898	1083.333618	3820.645752	1200.360474	4.275247
288.792145	1079.767212	3845.686279	1204.744263	4.518464
289.163452	1085.042603	3947.778076	1210.911499	4.396805
289.534668	1093.735962	4058.266357	1210.614258	3.942557
289.905914	1095.519409	4179.750488	1203.332520	3.495624
290.277039	1103.246948	4278.499512	1205.635864	3.224591
290.648193	1095.816528	4309.482910	1216.632813	3.759453
291.019318	1096.410889	4320.331543	1228.298340	4.090902
291.390381	1090.615356	4258.883301	1225.920532	4.270635
291.761475	1096.633911	4211.849609	1219.679199	3.949816
292.132507	1092.175659	4170.760254	1214.626587	3.977508
292.503510	1092.026978	4166.228027	1214.998169	4.000103
292.874481	1084.448120	4210.586426	1223.988770	4.463675
293.245422	1088.386230	4288.009766	1226.663696	4.321679
293.616364	1089.500854	4421.680176	1225.400391	4.078398
293.987213	1094.553345	4553.567871	1228.966919	3.885892
294.358093	1093.810303	4674.755371	1231.493286	3.844878
294.728943	1091.358276	4789.033203	1242.936035	4.099272
295.099731	1087.717529	4903.087402	1246.948242	4.173402
295.470490	1083.556641	5015.507324	1257.499268	4.423825
295.841248	1089.054932	5100.584473	1262.105957	4.313841
296.211975	1097.376831	5209.883301	1268.793213	4.168173
296.582642	1106.293091	5320.148926	1271.616699	3.923333
296.953308	1105.178711	5374.464355	1270.502319	3.872395
297.323883	1096.708252	5352.545410	1258.613770	3.804317
297.694519	1091.209839	5241.313965	1254.601440	3.937048
298.065063	1091.135498	5122.578125	1249.920410	3.938662
298.435608	1095.147827	4978.208008	1243.901855	3.830845
298.806122	1095.593628	4812.810059	1232.310547	3.677938
299.176575	1094.182007	4655.437012	1231.196045	3.847353
299.547028	1094.256226	4534.843750	1228.744141	3.908865
299.917450	1093.884644	4470.497559	1227.926758	3.969721
300.287872	1092.398560	4472.801270	1223.245728	3.870757
300.658234	1093.215942	4476.812988	1220.348022	3.757305
301.028564	1092.547241	4465.593750	1219.604980	3.766854
301.398865	1093.884644	4409.718262	1216.409790	3.695154
301.769135	1096.485229	4353.396973	1219.530640	3.777978
302.139374	1098.119873	4326.424316	1221.313843	3.816058
302.509583	1103.246826	4285.261230	1216.930054	3.572681
302.879791	1099.903198	4234.512207	1213.660645	3.629079
303.249939	1099.234497	4167.045410	1210.762817	3.635437
303.620087	1091.506958	4134.872070	1214.106445	4.028419
303.990173	1088.757813	4130.116699	1211.283081	4.028636
304.360260	1085.859985	4130.637207	1212.620483	4.163211
304.730286	1081.624634	4126.327637	1205.487427	4.068140
305.100281	1087.123169	4115.999023	1206.899048	3.954466
305.470276	1089.055054	4121.571777	1205.413086	3.837012
305.840179	1097.822754	4133.460449	1217.078613	3.928527
306.210144	1090.317993	4162.586914	1219.010498	4.188842
306.579987	1089.055054	4208.208496	1215.518188	4.054406
306.949890	1087.271729	4271.960449	1211.283081	3.893987
307.319702	1090.763916	4350.869629	1212.100220	3.721852
307.689484	1093.215942	4430.002441	1224.360229	3.930257
308.059265	1098.565674	4516.937012	1229.784302	3.838630
308.429016	1101.017700	4600.453125	1231.344604	3.724226
308.798737	1101.537720	4711.684082	1225.548950	3.435075
309.168396	1092.250122	4771.646484	1227.406616	3.673333
309.538055	1090.689819	4791.411133	1234.688232	3.891091
309.907684	1094.702026	4776.327637	1234.688354	3.802297
310.277313	1095.519409	4797.132324	1229.189941	3.611143
310.646851	1097.525513	4810.061035	1228.372559	3.524466
311.016388	1089.723633	4792.896973	1233.796631	3.890528
311.385895	1092.026978	4726.619141	1237.883301	4.013004
311.755371	1092.398560	4656.997559	1241.449829	4.181431
312.124817	1096.931030	4604.911621	1234.019531	3.907904
312.494232	1095.445190	4568.131348	1234.390991	4.001105
312.863617	1089.500854	4544.279785	1231.716187	4.116482
313.232971	1090.095215	4552.973145	1229.041138	4.012441
313.602295	1092.472778	4624.452637	1235.356934	4.045441
313.971619	1097.228149	4730.036621	1239.146362	3.906570
314.340820	1094.924927	4773.727051	1246.428101	4.118275
314.710083	1092.547119	4766.445313	1240.112427	4.016587
315.079285	1093.884644	4683.597168	1230.675903	3.810647
315.448486	1087.048828	4601.715820	1228.669800	4.029428
315.817596	1089.426636	4467.748535	1222.725586	3.945715
316.186707	1086.677368	4361.718262	1220.347900	4.081492
316.555786	1097.822754	4271.291992	1214.849487	3.687659
316.924866	1100.274780	4227.230469	1214.032104	3.637958
317.293884	1099.160156	4220.394043	1216.929932	3.773180
317.662872	1099.977417	4244.542480	1218.267456	3.761730
318.031830	1097.748413	4282.734375	1217.078613	3.746648
318.400757	1091.506958	4317.285645	1211.283081	3.713092
318.769684	1085.934204	4353.322266	1208.459595	3.749949
319.138550	1088.163452	4359.711426	1203.778442	3.533954
319.507416	1092.770142	4351.612793	1206.899048	3.502130
319.876190	1094.850586	4300.716309	1219.010620	3.872902
320.244995	1098.045654	4233.100098	1228.223999	4.152347
320.613770	1098.491333	4179.676270	1225.697632	4.128486
320.982483	1093.810425	4179.453613	1216.781372	3.985262
321.351166	1085.637085	4218.017090	1215.592529	4.148777
321.719818	1085.339844	4279.910645	1222.131226	4.281996
322.088440	1082.739258	4394.857422	1233.945313	4.565238
322.457062	1084.522583	4559.958008	1237.957642	4.414844
322.825623	1090.169434	4740.291016	1243.084595	4.189317
323.194183	1088.237671	4858.135254	1239.666626	4.016792
323.562653	1087.123047	4930.877441	1244.050415	4.082659
323.931183	1079.024048	4936.598145	1249.548828	4.420518
324.299591	1090.392456	4910.740723	1249.251587	4.158237
324.668060	1095.370728	4859.991699	1246.428101	4.012552
325.036407	1103.098145	4789.330566	1233.870972	3.547601
325.404755	1104.212769	4729.293457	1237.511719	3.677131
325.773102	1101.314819	4648.304199	1232.533447	3.699437
326.141388	1089.872192	4571.028809	1235.951416	4.196284
326.509674	1083.259399	4464.255859	1220.347900	4.054677
326.877899	1081.253296	4383.637207	1215.295288	4.058947
327.246124	1092.992920	4341.285156	1210.688599	3.623309
327.614288	1098.862915	4314.833496	1212.100220	3.521093
327.982422	1100.126099	4310.672363	1211.654419	3.473811
328.350525	1100.943481	4322.263672	1214.552368	3.526780
328.718628	1092.918701	4369.148926	1219.827759	3.873631
329.086700	1090.466675	4417.296875	1217.895996	3.830353
329.454712	1088.757690	4466.113770	1214.998047	3.737846
329.822693	1093.736084	4485.952637	1218.564575	3.679850
330.190674	1097.079712	4536.403809	1228.372559	3.817402
330.558563	1095.370728	4567.908691	1233.870972	3.988444
330.926483	1099.977417	4657.517578	1232.087769	3.713531
331.294312	1099.754517	4739.473145	1230.378784	3.588856
331.662231	1101.315063	4857.688965	1228.669922	3.390367
332.029999	1091.284180	4951.310547	1237.363281	3.784407
332.397766	1090.169556	5018.851563	1246.056763	3.967926
332.765503	1092.027100	5055.037109	1249.474487	3.972924
333.133240	1100.943481	5077.253418	1247.691284	3.690552
333.500916	1099.457397	5083.420410	1245.164917	3.657351
333.868561	1098.714355	5078.591309	1244.942017	3.674176
334.236176	1094.256226	5053.179199	1248.657227	3.900076
334.603790	1093.810425	5014.170898	1245.982300	3.881579
334.971344	1090.466797	4978.728027	1244.942261	3.972867
335.338867	1088.534790	4955.545410	1239.146484	3.894783
335.706360	1095.667847	4949.601563	1235.357056	3.624588
336.073853	1102.355225	4966.542480	1239.889526	3.559204
336.441284	1107.407837	4995.520508	1244.347656	3.522012
336.808655	1108.819580	5052.808105	1252.223755	3.636019
337.176086	1098.862915	5096.869629	1255.493042	3.917705
337.543396	1092.918823	5120.794922	1258.390747	4.108168
337.910706	1082.293335	5127.630371	1259.431152	4.378815
338.277954	1079.915649	5118.714355	1253.412598	4.295756
338.645264	1082.442017	5098.429688	1246.279663	4.079635
339.012421	1087.123047	5041.811035	1237.140259	3.793402
339.379669	1096.039551	4946.332031	1241.969849	3.790109
339.746796	1101.835083	4853.156250	1239.517944	3.670250
340.113953	1098.862915	4780.636719	1244.942017	3.967628
340.481018	1095.965088	4754.185059	1240.558228	3.952554
340.848114	1085.562744	4754.185547	1242.564331	4.279578
341.215118	1091.952759	4801.441895	1238.403442	3.948001
341.582153	1090.689697	4944.994629	1240.261108	3.880633
341.949066	1094.924927	5140.485352	1242.192871	3.640236
342.316010	1088.832153	5407.900879	1249.400269	3.717656
342.682922	1088.460693	5659.861328	1255.493042	3.653855
343.049835	1086.454468	5974.458496	1273.771484	3.832178
343.416656	1090.615356	6264.313965	1293.387451	3.919287
343.783478	1094.479126	6510.775879	1300.891968	3.810959
344.150269	1098.342773	6633.970215	1300.743530	3.656329
344.516998	1101.983521	6636.273438	1302.898193	3.630360
344.883728	1101.537720	6520.063965	1302.006470	3.699691
345.250427	1102.503906	6415.222656	1290.861206	3.545403
345.617065	1102.280884	6261.416016	1274.886108	3.345623
345.983704	1102.578125	6164.153809	1279.121338	3.487910
346.350281	1100.051758	6011.907715	1279.344238	3.650198
346.716827	1096.485229	5885.369629	1283.282349	3.900640
347.083405	1096.931030	5774.881348	1277.412476	3.858131
347.449860	1096.411011	5687.353027	1279.790161	3.994369
347.816376	1091.061035	5667.291504	1273.251465	3.981234
348.182770	1087.197388	5656.963379	1264.557983	3.881175
348.549194	1085.562866	5722.201660	1258.168091	3.722637
348.915558	1089.426514	5807.054688	1260.917236	3.635105
349.281921	1091.358398	5920.143066	1268.496094	3.668370
349.648193	1093.810425	5955.882813	1270.873901	3.641729
350.014526	1097.599854	5980.253906	1271.914063	3.570071
350.380737	1099.234497	5983.152344	1268.570313	3.467212
350.746948	1104.955688	6047.943848	1274.960327	3.439309
351.113159	1103.766968	6121.355469	1286.402954	3.639916
351.479309	1102.578125	6195.360840	1288.557739	3.651827
351.845428	1096.188110	6308.673340	1282.613647	3.576519
352.211517	1090.243774	6426.591309	1278.898438	3.535277
352.577576	1087.940308	6570.589355	1284.693970	3.588661
352.943604	1089.426392	6709.461426	1299.182983	3.732300
353.309601	1099.234375	6871.218750	1306.390381	3.588991
353.675537	1106.590332	7049.619141	1312.186035	3.459443
354.041473	1105.029907	7200.974121	1326.972290	3.640820
354.407379	1099.754517	7315.548340	1329.944458	3.703307
354.773254	1087.643188	7426.854004	1346.662598	4.085988
355.139038	1092.993042	7598.716309	1344.433472	3.864911
355.504913	1092.027100	7858.924316	1357.213501	3.918877
355.870636	1104.881348	8157.398438	1359.888306	3.615829
356.236389	1105.698853	8423.848633	1366.724243	3.566822
356.602081	1103.246826	8719.350586	1374.451782	3.560941
356.967804	1088.980591	8899.980469	1381.064575	3.739393
357.333405	1088.757813	9022.133789	1391.244141	3.812832
357.699036	1088.757690	8992.041016	1389.089233	3.800086
358.064606	1095.222168	8955.855469	1392.135742	3.777222
358.430176	1090.689575	8885.119141	1386.117188	3.790240
358.795654	1092.473022	8929.774414	1386.711792	3.754338
359.161163	1096.633911	9116.201172	1384.779907	3.593037
359.526581	1097.599854	9525.609375	1391.689941	3.489437
359.892029	1099.383057	10059.325195	1405.212891	3.413301
360.257416	1090.986938	10667.566406	1426.240601	3.500766
360.622772	1092.695801	11137.605469	1451.354980	3.570556
360.988098	1087.717651	11464.463867	1459.528320	3.583114
361.353394	1096.931030	11528.215820	1463.986694	3.518796
361.718658	1096.856812	11393.729492	1452.841187	3.457209
362.083893	1103.023804	10953.855469	1445.262207	3.474208
362.449097	1101.612183	10366.418945	1428.915649	3.532761
362.814209	1096.485229	9663.068359	1401.498047	3.560496
363.179382	1100.943481	9030.305664	1381.956421	3.543954
363.544434	1097.525513	8561.679688	1367.392944	3.615513
363.909546	1093.810425	8289.062500	1362.711914	3.737207
364.274536	1091.655518	8136.742188	1358.328003	3.785226
364.639587	1090.615356	8002.552246	1342.798828	3.648521
365.004517	1095.816528	7940.435059	1338.414795	3.544365
365.369507	1086.603027	7882.775879	1331.578979	3.604616
365.734344	1085.711426	7875.791504	1336.928833	3.699771
366.099274	1087.346069	7845.625000	1342.204346	3.771053
366.464081	1096.188110	7816.274902	1348.594360	3.755997
366.828918	1098.565796	7744.945313	1341.758667	3.659028
367.193665	1101.983643	7660.833984	1338.934937	3.612695
367.558411	1100.646118	7580.958496	1335.739990	3.627817
367.923126	1105.401489	7498.333496	1337.523315	3.630913
368.287781	1093.587402	7441.194824	1335.591431	3.812524
368.652435	1092.026978	7393.417969	1332.099243	3.809830
369.017059	1090.020874	7421.058594	1326.600952	3.736830
369.381653	1104.955688	7484.810059	1326.229248	3.468317
369.746185	1103.321045	7569.292480	1323.034180	3.397991
370.110687	1099.903198	7657.415527	1333.956665	3.569242
370.475220	1093.364624	7734.021973	1331.876221	3.591687
370.839661	1094.182007	7798.591309	1341.907104	3.694958
371.204041	1100.571899	7838.863281	1343.838989	3.610219
371.568451	1100.200439	7826.008301	1346.216675	3.657795
371.932770	1095.816528	7813.228516	1342.055786	3.665686
372.297150	1097.079712	7776.002441	1338.414917	3.613385
372.661377	1094.776245	7813.748535	1342.204346	3.682529
373.025696	1099.828857	7853.798340	1340.049683	3.556735
373.389862	1093.661743	7908.855957	1336.483032	3.562940
373.754059	1104.435547	7976.917480	1335.591309	3.363497
374.118225	1104.212769	8107.541504	1341.164063	3.383410
374.482361	1112.534546	8292.480469	1357.882202	3.417124
374.846436	1107.482056	8530.174805	1369.324829	3.527598
375.210510	1110.751343	8844.104492	1375.343262	3.421438
375.574524	1103.246826	9182.850586	1381.139038	3.439429
375.938538	1096.708130	9519.368164	1392.210083	3.508416
376.302460	1094.850586	9769.024414	1400.903687	3.528326
376.666412	1100.571899	9927.290039	1409.597046	3.501020
377.030304	1104.361328	9912.428711	1408.928101	3.457816
377.394196	1102.801025	9766.274414	1409.076782	3.535254
377.757996	1095.444946	9501.385742	1397.782837	3.596717
378.121796	1092.027100	9191.097656	1387.306030	3.645837
378.485565	1095.816528	8902.506836	1374.377441	3.568233
378.849304	1093.735962	8699.881836	1362.340210	3.531411
379.212982	1097.971313	8591.176758	1358.773804	3.480520
379.576630	1092.250000	8524.973633	1362.786133	3.639798
379.940277	1091.284058	8519.549805	1365.981323	3.698000
380.303864	1088.386353	8481.878906	1363.752197	3.724435
380.667450	1094.404785	8506.769531	1363.380737	3.628747
381.030945	1095.593628	8493.395508	1361.523071	3.594709
381.394501	1097.302612	8557.147461	1366.352661	3.606644
381.757935	1094.553467	8623.945313	1368.581909	3.639450
382.121399	1097.748413	8730.346680	1371.033813	3.580503
382.484741	1095.444946	8884.598633	1371.776978	3.547652
382.848145	1097.599731	9019.680664	1370.588013	3.445916
383.211487	1100.943481	9148.967773	1373.783081	3.390144
383.574768	1102.875244	9215.320313	1377.721069	3.387953
383.938019	1100.497559	9256.260742	1381.213257	3.441931
384.301270	1098.640015	9308.347656	1393.918945	3.596704
384.664459	1094.776245	9335.838867	1394.662109	3.638922
385.027649	1093.290161	9361.547852	1397.039673	3.673682
385.390778	1091.061157	9439.937500	1395.256470	3.643548
385.753876	1097.674194	9550.648438	1388.866577	3.444851
386.116943	1094.999146	9678.152344	1392.581665	3.467053
386.479980	1098.194214	9734.399414	1390.426758	3.383807
386.842987	1101.909424	9758.399414	1406.401855	3.517504
387.205994	1102.132202	9733.582031	1408.853882	3.553536
387.568909	1098.937134	9707.948242	1409.894043	3.611994
387.931793	1090.764038	9626.437500	1400.754883	3.631709
388.294678	1093.067261	9630.895508	1391.095581	3.490681
388.657471	1091.432617	9628.295898	1390.946899	3.508482
389.020294	1094.107544	9705.421875	1391.764282	3.456577
389.383057	1093.364502	9880.626953	1413.163452	3.639347
389.745819	1094.033325	10093.875977	1420.816772	3.630991
390.108521	1088.683472	10391.607422	1429.064331	3.658859
390.471191	1088.312012	10654.192383	1425.497681	3.524879
390.833801	1090.392456	10923.391602	1432.705078	3.481264
391.196442	1093.884644	11068.282227	1438.723633	3.457241
391.558960	1095.073486	11115.018555	1446.971191	3.511972
391.921509	1094.256226	11048.145508	1444.519165	3.518855
392.284027	1094.479004	10990.932617	1445.559448	3.547538
392.646484	1093.810425	10917.299805	1431.961914	3.442275
393.008911	1093.215942	10909.200195	1432.928101	3.460806
393.371307	1099.160156	10926.140625	1431.293335	3.379809
393.733673	1093.958984	10914.178711	1441.398438	3.538001
394.096008	1088.980713	10832.815430	1444.147583	3.645042
394.458344	1087.568970	10693.647461	1443.478882	3.705049
394.820587	1084.225342	10468.881836	1431.367554	3.699040
395.182831	1083.259399	10242.258789	1420.222168	3.679035
395.545013	1079.692871	9997.357422	1406.401855	3.663616
395.907196	1096.633789	9815.092773	1400.606445	3.486541
396.269287	1101.017700	9690.858398	1395.256470	3.425427
396.631409	1099.011475	9623.762695	1400.680664	3.538745
396.993469	1088.832031	9590.920898	1395.330688	3.604981
397.355530	1090.095093	9610.313477	1386.563110	3.479582
397.717499	1097.451172	9671.911133	1387.603394	3.383913
398.079468	1100.274780	9713.817383	1400.011841	3.479835
398.441376	1101.091919	9720.059570	1406.921997	3.548338
398.803284	1094.924805	9653.929688	1400.903442	3.574932
399.165131	1097.451294	9635.725586	1394.736328	3.481793
399.526978	1099.606079	9596.196289	1397.708496	3.508495
399.888763	1101.760742	9613.434570	1401.200684	3.517991
400.250519	1107.110474	9619.081055	1399.120239	3.430578
400.612244	1103.395386	9662.325195	1402.835327	3.498568
400.973938	1101.314819	9743.539063	1401.052124	3.468289
401.335602	1094.924805	9852.764648	1410.859985	3.607455
401.697205	1095.742310	10023.808594	1413.312134	3.556983
402.058807	1099.531738	10196.042969	1427.132446	3.601388
402.420349	1104.212769	10456.176758	1442.513062	3.617425
402.781860	1107.704956	10700.483398	1451.726563	3.586256
403.143341	1105.253052	10946.350586	1453.807007	3.541820
403.504822	1092.398560	11151.351563	1459.602661	3.650520
403.866241	1092.398560	11320.166992	1466.289917	3.655649
404.227631	1090.615234	11428.797852	1473.422974	3.702853
404.588959	1098.417114	11432.440430	1472.605591	3.620937
404.950287	1094.627686	11360.885742	1463.986450	3.597794
405.311554	1096.856812	11233.902344	1458.116577	3.563758
405.672821	1093.141602	11129.878906	1449.943359	3.554958
406.034027	1097.228271	10988.481445	1456.630493	3.633536
406.395203	1098.342773	10810.897461	1458.859741	3.711865
406.756348	1101.017700	10662.366211	1456.184937	3.714614
407.117493	1097.748413	10589.846680	1447.268433	3.682221
407.478516	1096.336548	10643.865234	1445.262329	3.654619
407.839600	1104.064087	10727.975586	1446.822632	3.561531
408.200592	1103.098145	10892.481445	1452.395142	3.568121
408.561554	1105.401489	11054.387695	1459.528320	3.559426
408.922485	1097.599731	11218.374023	1465.844116	3.638500
409.283417	1094.330322	11320.390625	1480.184570	3.773244
409.644257	1088.757690	11396.625000	1486.574585	3.859352
410.005096	1087.568970	11456.885742	1487.391968	3.855828
410.365906	1095.742310	11445.887695	1478.549805	3.698571
410.726715	1098.491455	11416.835938	1482.785156	3.724374
411.087433	1097.153931	11348.106445	1480.853149	3.743059
411.448120	1094.182007	11287.698242	1483.602539	3.820277
411.808807	1090.615356	11256.937500	1475.949341	3.790299
412.169434	1094.404663	11197.122070	1483.007935	3.846522
412.530029	1094.256226	11255.969727	1477.955444	3.775930
412.890564	1097.079712	11333.320313	1480.704590	3.747713
413.251099	1091.952759	11516.996094	1483.156616	3.752540
413.611572	1089.129272	11703.718750	1496.828125	3.840929
413.972076	1087.643188	11896.534180	1508.865234	3.896996
414.332489	1086.825806	12014.155273	1511.540161	3.886717
414.692871	1092.398560	12220.346680	1527.738281	3.912129
415.053223	1097.748413	12400.531250	1536.282837	3.879880
415.413574	1099.457397	12708.885742	1562.957642	3.992447
415.773834	1101.835083	12958.989258	1577.149536	4.008672
416.134094	1092.175781	13307.765625	1594.610718	4.113063
416.494263	1101.389160	13623.776367	1603.229858	4.007548
416.854462	1102.132202	14003.983398	1618.833374	4.004860
417.214630	1107.630737	14443.260742	1637.260376	3.971538
417.574738	1105.104370	14864.926758	1658.213867	4.019743
417.934784	1094.776367	15388.241211	1689.197876	4.158694
418.294861	1101.537720	15949.523438	1726.349487	4.208057
418.654846	1097.971313	16604.279297	1765.804077	4.306846
419.014832	1102.132202	17247.964844	1795.748047	4.295943
419.374756	1096.336548	17958.226563	1835.723022	4.384956
419.734680	1095.890747	18717.746094	1884.465454	4.474981
420.094543	1094.850464	19323.908203	1925.777954	4.558258
420.454376	1097.599731	19668.375000	1946.731323	4.572408
420.814148	1091.581177	19842.244141	1952.972656	4.593925
421.173920	1092.175537	20025.251953	1963.077759	4.599898
421.533691	1092.621460	20165.462891	1974.891968	4.625795
421.893341	1090.615356	20189.386719	1977.938477	4.645969
422.253021	1088.311890	20089.748047	1970.062378	4.640441
422.612640	1076.349121	20029.859375	1983.734009	4.787424
422.972260	1078.503906	20046.798828	2004.167358	4.880056
423.331757	1080.213013	20174.080078	2020.439453	4.924232
423.691315	1090.243774	20319.490234	2024.897827	4.860586
424.050781	1095.667847	20334.943359	2024.674805	4.828701
424.410248	1093.958862	20154.685547	2031.213501	4.917203
424.769653	1093.215942	19801.376953	2014.421021	4.924082
425.128998	1097.971313	19418.869141	2001.492554	4.931643
425.488373	1103.246826	18899.417969	1979.573120	4.924241
425.847656	1104.955688	18466.158203	1968.056152	4.971432
426.206940	1103.915649	18026.732422	1957.133667	5.041821
426.566193	1102.280884	17623.935547	1943.090454	5.089137
426.925385	1099.160156	17116.298828	1931.424927	5.196089
427.284576	1094.850586	16619.513672	1905.121704	5.219251
427.643677	1092.695801	16267.168945	1889.741211	5.252541
428.002777	1089.797974	16048.347656	1869.382202	5.211630
428.361847	1092.398560	15886.218750	1870.645142	5.260620
428.720856	1096.188110	15677.652344	1854.893188	5.203216
429.079865	1097.079712	15514.929688	1862.100464	5.306067
429.438812	1089.946655	15458.086914	1845.753906	5.260300
429.797760	1084.373901	15457.863281	1844.490601	5.288324
430.156616	1084.076660	15355.104492	1824.429077	5.187800
430.515503	1089.500732	15270.250000	1827.698242	5.205631
430.874268	1091.209717	15250.484375	1845.976929	5.330550
431.233093	1095.073486	15380.217773	1861.580444	5.365763
431.591827	1097.525513	15576.227539	1873.617310	5.360230
431.950562	1100.869141	15736.424805	1869.159180	5.249476
432.309204	1099.531616	15893.203125	1868.267578	5.196384
432.667877	1101.835083	16050.426758	1883.722656	5.230510
433.026459	1100.571899	16112.692383	1889.815430	5.257376
433.385010	1099.977417	16215.825195	1911.065918	5.365816
433.743561	1099.977417	16183.579102	1909.059937	5.363987
434.102051	1098.937134	16257.434570	1921.319824	5.425226
434.460510	1104.807129	16280.989258	1918.942017	5.364557
434.818939	1101.240723	16291.465820	1920.799683	5.395305
435.177338	1096.485229	16290.723633	1914.409790	5.383123
435.535675	1085.265381	16279.502930	1919.462280	5.490219
435.894012	1088.906250	16291.985352	1923.028809	5.486537
436.252289	1096.187988	16449.507813	1940.118286	5.496728
436.610535	1098.714233	16529.531250	1940.564087	5.455640
436.968719	1090.318237	16831.423828	1950.595093	5.465162
437.326935	1086.751587	17082.716797	1952.824219	5.414320
437.685028	1090.243774	17424.955078	1965.529907	5.358443
438.043152	1093.958984	17707.900391	1983.213867	5.352462
438.401215	1091.655518	18043.451172	2010.557495	5.420677
438.759277	1093.215942	18424.548828	2028.835938	5.398431
439.117249	1094.479126	18941.919922	2049.046143	5.348481
439.475250	1101.166382	19407.798828	2063.758057	5.258158
439.833130	1100.571899	19890.095703	2090.135742	5.266572
440.191071	1099.605957	20061.066406	2098.457275	5.267797
440.548889	1092.027100	20177.646484	2103.733154	5.300881
440.906708	1092.101440	20081.572266	2102.841309	5.322633
441.264496	1095.444946	19863.939453	2092.884521	5.314436
441.622223	1102.057983	19529.132813	2072.971436	5.268950
441.979950	1101.166260	19147.587891	2062.494873	5.326976
442.337616	1096.856812	18899.937500	2057.293701	5.394779
442.695251	1092.844360	18686.466797	2052.909912	5.456895
443.052887	1087.494629	18619.148438	2033.219727	5.394386
443.410461	1088.460571	18742.712891	2036.043091	5.367446
443.768005	1086.602905	19002.402344	2051.944092	5.388212
444.125458	1089.352173	19320.119141	2080.847656	5.438583
444.482941	1089.203491	19703.150391	2085.305664	5.351375
444.840393	1090.763794	20246.154297	2108.414063	5.312605
445.197754	1093.215942	20748.142578	2117.850342	5.213118
445.555084	1097.079712	21180.138672	2151.657959	5.251084
445.912415	1093.513062	21388.853516	2165.924072	5.284026
446.269714	1091.581177	21525.349609	2169.193604	5.273685
446.626953	1087.568970	21529.435547	2162.209229	5.257055
446.984161	1094.330444	21406.017578	2150.989502	5.202222
447.341309	1098.268433	21185.636719	2153.292969	5.252179
447.698456	1093.364624	20848.228516	2141.701904	5.306730
448.055542	1098.417114	20558.298828	2128.401367	5.292860
448.412598	1102.578003	20168.136719	2111.534912	5.292039
448.769653	1111.791626	19763.408203	2096.674072	5.280413
449.126617	1105.847290	19260.603516	2074.011963	5.332843
449.483582	1095.890869	18933.224609	2045.182495	5.321937
449.840515	1094.107544	18665.066406	2029.355957	5.322694
450.197388	1090.095337	18510.070313	2022.445801	5.352192
450.554230	1095.370728	18337.912109	2020.068237	5.362884
450.911041	1093.884766	18236.041016	2011.597656	5.353544
451.267822	1103.618286	18283.595703	2008.253784	5.265639
451.624573	1107.110474	18377.738281	2012.563477	5.242734
451.981262	1103.172485	18352.771484	2014.718262	5.284446
452.337921	1100.571899	18149.626953	2001.269531	5.282977
452.694580	1094.627686	17779.302734	1979.127319	5.301270
453.051147	1097.599731	17580.916016	1961.294556	5.239812
453.407715	1091.506958	17202.863281	1946.508179	5.306823
453.764221	1086.231567	17082.195313	1940.935547	5.343248
454.120728	1083.036499	16695.820313	1912.180542	5.310674
454.477142	1079.321411	16660.156250	1909.357056	5.327286
454.833557	1082.887817	16519.054688	1910.248657	5.359885
455.189911	1090.912598	16544.466797	1931.276367	5.437996
455.546265	1101.240601	16613.716797	1935.288574	5.376627
455.902557	1107.853638	16727.548828	1938.706665	5.319265
456.258820	1105.401489	17000.537109	1943.387695	5.271966
456.615051	1102.057983	17298.193359	1963.672363	5.319876
456.971252	1101.389282	17638.648438	1973.257324	5.272143
457.327393	1103.172485	18260.117188	2003.424316	5.247157
457.683502	1101.315063	18984.716797	2030.470337	5.195629
458.039612	1105.550293	20008.236328	2081.665039	5.163895
458.395630	1103.172485	20919.335938	2135.385742	5.208946
458.751648	1101.760620	21744.615234	2180.487549	5.225667
459.107605	1094.924805	22537.427734	2219.793701	5.245977
459.463562	1093.958984	22827.578125	2225.960693	5.208529
459.819458	1104.881470	22709.734375	2220.313965	5.162879
460.175323	1108.299316	22001.703125	2187.546631	5.165493
460.531158	1109.339600	21195.072266	2150.692139	5.184538
460.886932	1102.652344	20366.525391	2111.385986	5.236401
461.242676	1100.274658	19641.181641	2071.039551	5.235801
461.598419	1100.646118	19074.773438	2044.736694	5.252498
461.954102	1104.138306	18463.408203	2013.975220	5.241217
462.309723	1102.280762	17963.427734	2005.207642	5.355074
462.665344	1100.051758	17533.435547	1991.015625	5.421670
463.020905	1094.181885	17391.814453	1978.012695	5.423062
463.376373	1093.884644	17356.744141	1965.975586	5.362470
463.731873	1088.832031	17438.031250	1961.814575	5.339604
464.087341	1086.677368	17475.478516	1968.130493	5.378387
464.442749	1091.729858	17613.015625	1967.164673	5.298830
464.798126	1097.228271	17695.935547	1972.663086	5.274115
465.153503	1101.240601	17879.390625	1987.672241	5.283250
465.508820	1094.702026	18025.542969	2003.870117	5.369893
465.864105	1098.119873	18128.750000	2004.612915	5.322721
466.219330	1096.856689	18324.908203	2012.711914	5.316070
466.574524	1097.673950	18351.955078	2018.953491	5.339426
466.929657	1096.633789	18271.187500	2017.987671	5.364645
467.284790	1095.890747	18086.470703	2014.421265	5.406116
467.639893	1101.909302	17867.576172	1999.560547	5.354105
467.994934	1101.091919	17696.976563	1989.678345	5.354258
468.349945	1101.537964	17484.470703	1962.854980	5.257404
468.704926	1101.314941	17307.480469	1956.316284	5.275778
469.059875	1103.766968	17149.958984	1951.263672	5.281606
469.414764	1099.308716	17071.720703	1956.984985	5.369735
469.769653	1090.764038	17054.111328	1955.201782	5.415141
470.124451	1089.129272	17164.896484	1961.071655	5.423955
470.479248	1095.519287	17214.603516	1961.220337	5.370659
470.834015	1096.559570	17278.205078	1965.901245	5.372394
471.188721	1085.042603	17419.009766	1974.446167	5.445117
471.543365	1083.928101	17700.914063	1991.015625	5.458797
471.898010	1088.386230	17956.142578	1997.703003	5.390858
472.252625	1093.141602	18318.666016	2006.396484	5.301754
472.607178	1092.324341	18591.060547	2012.786499	5.260164
472.961700	1082.887817	18703.630859	2026.383789	5.354462
473.316193	1084.002319	18701.103516	2033.739746	5.390997
473.670654	1084.151001	18628.806641	2039.906860	5.447561
474.025055	1096.485229	18777.189453	2038.643921	5.328739
474.379456	1096.559570	18859.888672	2042.061646	5.322775
474.733795	1098.268433	19033.013672	2040.278320	5.252429
475.088104	1092.026978	19326.138672	2057.665283	5.295779
475.442383	1094.553345	19649.281250	2078.098389	5.300778
475.796570	1095.519165	20015.296875	2092.290283	5.268408
476.150787	1104.584229	20474.337891	2107.076416	5.175555
476.504944	1110.082642	20959.015625	2118.519287	5.080558
476.859070	1112.608887	21324.138672	2148.537354	5.125433
477.213135	1104.881470	21579.962891	2169.193604	5.198085
477.567200	1099.011597	21854.734375	2186.877686	5.241282
477.921173	1095.890747	22179.287109	2199.806396	5.235948
478.275146	1095.370728	22404.275391	2213.478027	5.247137
478.629089	1094.924927	22702.529297	2228.190186	5.244752
478.983002	1092.695801	23126.203125	2238.963623	5.202384
479.336823	1097.154053	23749.156250	2264.746826	5.154480
479.690643	1102.057983	24458.078125	2294.022217	5.103456
480.044403	1101.537842	25380.695313	2350.640869	5.144754
480.398163	1099.234375	26633.365234	2408.968750	5.129348
480.751862	1089.203491	28423.093750	2501.252441	5.165927
481.105499	1088.683472	30837.486328	2606.613525	5.102491
481.459137	1081.996216	34329.417969	2770.525391	5.078677
481.812744	1084.151001	38855.269531	2997.446045	5.065497
482.166290	1085.785645	44224.753906	3281.356689	5.089530
482.519806	1091.135376	49371.261719	3577.081299	5.149004
482.873291	1091.506958	53518.535156	3835.803711	5.234508
483.226715	1091.432617	56087.332031	4029.585205	5.342494
483.580139	1090.541016	56988.699219	4120.383301	5.420290
483.933502	1090.615356	56375.332031	4096.086426	5.436351
484.286804	1086.454468	54467.613281	3974.675537	5.410563
484.640106	1090.764038	51658.968750	3792.262451	5.342287
484.993347	1095.742310	48771.562500	3595.805908	5.243881
485.346558	1102.726685	46579.558594	3465.701904	5.195998
485.699738	1094.256226	45657.761719	3391.399170	5.154763
486.052887	1095.519409	45992.199219	3423.944092	5.186185
486.405975	1092.473022	47112.906250	3461.094971	5.146892
486.759064	1102.652466	48293.277344	3530.048096	5.143809
487.112061	1099.903320	48829.144531	3540.227295	5.112849
487.464996	1094.999268	48370.253906	3517.342041	5.123913
487.817963	1087.717407	47058.292969	3442.221924	5.121764
488.170868	1089.203613	45012.589844	3359.449219	5.168649
488.523743	1095.370728	42717.675781	3254.013428	5.186264
488.876587	1096.336548	40653.769531	3151.846924	5.196268
489.229401	1094.404663	39429.406250	3068.702393	5.150118
489.582153	1090.392334	39283.480469	3046.486084	5.121591
489.934845	1097.153931	40039.730469	3074.275146	5.077017
490.287537	1095.816406	41367.222656	3125.098389	5.039014
490.640198	1097.302612	42715.964844	3183.648682	5.013006
490.992798	1089.055054	43414.113281	3228.601807	5.055036
491.345337	1093.215942	43099.515625	3230.608154	5.088265
491.697876	1096.188110	41725.214844	3180.379639	5.129809
492.050354	1098.417114	39564.121094	3081.185547	5.154640
492.402832	1094.776367	36815.214844	2939.341553	5.163893
492.755219	1092.175659	33912.578125	2783.974365	5.154716
493.107605	1089.277954	31300.318359	2645.474365	5.151085
493.459930	1094.033203	29328.177734	2549.995117	5.156742
493.812225	1098.937256	27939.978516	2488.472412	5.176905
494.164490	1099.828735	27100.505859	2447.457520	5.183053
494.516724	1097.748413	26675.718750	2431.110840	5.212933
494.868896	1097.748413	26604.314453	2412.014893	5.152659
495.221039	1103.989868	26842.156250	2414.689941	5.092438
495.573120	1100.497559	27148.431641	2415.730225	5.049278
495.925201	1095.667969	27486.953125	2437.649658	5.084942
496.277222	1097.599731	27654.953125	2451.544189	5.098190
496.629211	1101.909302	27662.162109	2461.054688	5.117216
496.981140	1104.732788	27512.142578	2453.847412	5.108849
497.333069	1102.726685	27241.677734	2436.906494	5.104183
497.684967	1098.342773	26880.865234	2416.696045	5.113360
498.036804	1097.451172	26380.509766	2404.658936	5.170291
498.388580	1094.850586	25849.693359	2386.454834	5.217582
498.740326	1095.742310	25331.132813	2360.820313	5.219961
499.092072	1093.810425	24788.576172	2330.430664	5.218960
499.443756	1094.033325	24317.718750	2301.006592	5.197165
499.795410	1091.061157	23897.462891	2282.505371	5.224165
500.147003	1093.141724	23591.632813	2260.883057	5.190310
500.498566	1089.946655	23283.130859	2250.332031	5.228567
500.850098	1098.417114	23050.486328	2240.524170	5.202731
501.201599	1093.661743	22868.000000	2234.059814	5.237349
501.553009	1093.290161	22776.310547	2221.056885	5.201152
501.904449	1086.677368	22781.509766	2215.112549	5.201401
502.255859	1089.649414	22898.242188	2217.564453	5.171884
502.607178	1096.633911	23079.615234	2233.614014	5.172092
502.958405	1103.246704	23157.037109	2236.660400	5.139315
503.309692	1103.395386	23168.333984	2239.260986	5.147830
503.660919	1096.113647	23194.187500	2230.419189	5.133051
504.012115	1090.169434	23222.572266	2230.493408	5.152283
504.363251	1088.311890	23236.986328	2233.168213	5.168961
504.714294	1087.717651	23094.771484	2233.093994	5.204587
505.065369	1087.271729	22971.056641	2244.982422	5.290267
505.416443	1091.432617	22817.474609	2234.282959	5.260278
505.767395	1094.702026	22792.656250	2233.836914	5.249964
506.118317	1100.051758	22773.265625	2209.391357	5.118482
506.469238	1102.206543	22950.328125	2219.645264	5.114576
506.820160	1097.302612	23101.312500	2227.001221	5.134058
507.170929	1097.822632	23366.052734	2248.325928	5.166568
507.521729	1095.370728	23612.662109	2246.840088	5.113712
507.872498	1104.584351	23930.750000	2263.632568	5.077717
508.223236	1105.178589	24242.226563	2287.112061	5.108402
508.573883	1098.714355	24503.625000	2305.539063	5.156289
508.924500	1098.342773	24754.767578	2323.148682	5.177476
509.275116	1094.181763	24937.328125	2326.938232	5.170276
509.625702	1102.355103	25159.865234	2341.873291	5.152313
509.976196	1098.640015	25353.203125	2339.644043	5.116580
510.326660	1100.274780	25572.841797	2337.637939	5.056123
510.677124	1095.147827	25699.380859	2353.389893	5.113925
511.027557	1099.903198	25867.898438	2359.854492	5.087013
511.377869	1099.383057	25998.744141	2372.634521	5.113591
511.728180	1104.286987	26056.255859	2372.708740	5.083454
512.078430	1105.773071	25968.802734	2377.018311	5.112994
512.428650	1099.011597	25836.765625	2371.891357	5.145494
512.778931	1096.782593	25676.421875	2363.866699	5.155015
513.129028	1092.918823	25547.357422	2356.064941	5.165304
513.479126	1095.519287	25386.937500	2342.021729	5.131452
513.829285	1097.525513	25246.205078	2336.968994	5.132552
514.179382	1096.708130	25164.697266	2327.830078	5.115184
514.529297	1098.491333	25138.914063	2334.219971	5.140212
514.879272	1098.714355	25286.404297	2330.281982	5.091712
515.229187	1093.587402	25407.814453	2347.891602	5.158725
515.579163	1090.763916	25851.625000	2374.937744	5.186305
515.928955	1084.373901	26409.935547	2404.584717	5.212957
516.278748	1090.466797	27239.599609	2434.528564	5.139986
516.628540	1097.896973	28127.443359	2467.073242	5.065480
516.978333	1101.314941	29119.906250	2518.565186	5.058249
517.327942	1106.887695	30089.703125	2556.682373	5.002256
517.677612	1103.766968	30824.927734	2602.601563	5.042988
518.027222	1106.070313	31257.369141	2613.821289	5.000617
518.376831	1092.695801	31336.353516	2625.858398	5.069369
518.726379	1096.633911	31067.453125	2610.774658	5.052050
519.075867	1096.188110	30554.244141	2590.118408	5.071381
519.425293	1103.395386	29845.396484	2551.035400	5.036671
519.774658	1101.909424	29125.773438	2510.243408	5.025481
520.124084	1096.708252	28405.853516	2484.385986	5.081367
520.473389	1096.113770	27829.265625	2459.122803	5.098572
520.822693	1095.593628	27409.380859	2448.646240	5.141991
521.171997	1100.497681	27148.056641	2433.636963	5.118097
521.521240	1099.160156	27108.455078	2436.683350	5.142481
521.870361	1093.884644	27228.828125	2431.407959	5.117759
522.219482	1101.314941	27559.771484	2441.736084	5.066135
522.568604	1106.218872	27933.587891	2454.961914	5.027489
522.917664	1103.172363	28476.888672	2489.586914	5.064765
523.266724	1097.896851	29115.744141	2524.063477	5.090208
523.615662	1097.971313	30087.625000	2573.920654	5.091297
523.964600	1098.194214	31281.220703	2629.127441	5.072166
524.313538	1096.485229	32691.712891	2683.368408	5.022541
524.662354	1084.151001	34115.648438	2753.362061	5.053392
525.011169	1091.655518	35530.003906	2813.250000	4.999063
525.359985	1088.014648	36925.925781	2894.313721	5.040191
525.708740	1100.497681	38434.496094	2962.449463	4.987282
526.057434	1103.098267	40234.105469	3053.916016	4.985350
526.406067	1104.807251	42496.105469	3162.175049	4.970532
526.754700	1102.132324	45463.089844	3296.291748	4.946150
527.103333	1106.293335	48861.917969	3468.376953	4.946189
527.451782	1106.739136	52316.699219	3679.173584	5.023309
527.800293	1106.070313	54722.171875	3849.326904	5.116479
528.148743	1094.701904	55936.421875	3968.433838	5.240047
528.497131	1091.655640	55761.218750	3972.297852	5.269188
528.845642	1093.067383	54516.871094	3914.193359	5.280653
529.193909	1098.788696	52086.875000	3762.764404	5.224702
529.542175	1105.921753	48711.082031	3569.205811	5.174406
529.890503	1099.977417	44999.878906	3363.461182	5.156011
530.238770	1100.943359	41742.894531	3186.026611	5.130372
530.586914	1096.708130	39461.953125	3063.873047	5.127466
530.934998	1100.943481	38289.382813	2992.690674	5.086923
531.283142	1097.302612	38263.972656	2986.820313	5.083903
531.631226	1097.079712	39093.261719	3017.730469	5.054852
531.979248	1096.931152	40498.625000	3092.256104	5.064059
532.327148	1098.417114	41926.199219	3147.166016	5.018027
532.675110	1098.937256	42876.234375	3191.524658	5.008911
533.023071	1093.884644	42967.035156	3193.828125	5.015011
533.370850	1086.825928	42122.210938	3159.722900	5.051486
533.718689	1078.355347	40713.433594	3097.977539	5.095542
534.066467	1078.875488	39018.734375	3010.077393	5.090166
534.414246	1077.463745	37389.503906	2937.706787	5.122937
534.761963	1085.116943	36089.800781	2870.016846	5.099031
535.109619	1084.745483	35383.105469	2828.630127	5.084455
535.457153	1085.265503	35128.992188	2815.255859	5.081672
535.804749	1076.572144	35165.843750	2811.614990	5.089703
536.152344	1078.578247	35064.496094	2802.847656	5.073482
536.499817	1085.116943	34697.441406	2777.733154	5.035701
536.847229	1089.872314	33948.019531	2742.513428	5.029624
537.194641	1096.113770	32998.359375	2702.018311	5.033829
537.542114	1094.033325	32005.822266	2652.978516	5.043206
537.889404	1100.423218	31272.009766	2607.505615	4.995039
538.236694	1095.296387	30906.884766	2587.815186	5.006505
538.583984	1096.856689	31179.576172	2601.932617	5.003125
538.931213	1094.107544	32103.603516	2644.879639	5.000959
539.278381	1091.878418	33799.785156	2727.281250	5.000023
539.625488	1088.757813	35972.699219	2828.110107	4.986112
539.972595	1084.745483	38663.574219	2974.040283	5.027551
540.319641	1090.466797	41258.964844	3088.615234	4.974416
540.666687	1096.411011	43299.019531	3191.302002	4.963890
541.013611	1106.293213	44414.750000	3246.731689	4.942311
541.360596	1099.977539	44526.652344	3276.378662	5.011669
541.707458	1098.788696	43710.207031	3248.663330	5.045301
542.054260	1092.844360	42126.074219	3166.261719	5.053020
542.401062	1098.045532	40193.984375	3070.336914	5.044748
542.747864	1102.132202	38107.410156	2958.214111	5.015722
543.094666	1101.686401	36044.769531	2855.156250	5.018075
543.441284	1101.760620	34066.980469	2763.169678	5.039885
543.787903	1098.268433	32483.070313	2675.938477	5.026860
544.134460	1093.884644	31206.546875	2608.397217	5.029488
544.481079	1090.912598	30274.046875	2549.920898	4.999491
544.827637	1092.547241	29620.705078	2518.119385	4.997070
545.174072	1100.274780	29216.421875	2504.298828	4.993658
545.520508	1102.355103	29100.287109	2513.289551	5.039424
545.866943	1099.531616	29059.345703	2525.846680	5.101304
546.213318	1094.850464	28973.007813	2540.484375	5.185543
546.559631	1091.135376	28657.593750	2518.267822	5.177061
546.905823	1091.135376	28162.367188	2498.131836	5.197386
547.252136	1091.135376	27387.912109	2440.770264	5.132320
547.598389	1089.426392	26424.351563	2387.866455	5.125099
547.944458	1091.804077	25337.226563	2322.034424	5.074073
548.290588	1092.175659	24282.873047	2282.579834	5.133111
548.636658	1099.160156	23331.724609	2240.524170	5.133749
548.982727	1094.850586	22545.898438	2215.409912	5.223798
549.328735	1096.782471	21954.968750	2176.921143	5.178488
549.674622	1088.906372	21492.730469	2156.562256	5.232626
550.020569	1086.305786	21197.005859	2123.572021	5.157783
550.366455	1083.928101	21033.541016	2112.649170	5.156597
550.712280	1086.380249	21021.205078	2104.475830	5.107121
551.058044	1091.358398	21109.179688	2113.986572	5.108589
551.403748	1098.194214	21242.330078	2117.033203	5.057745
551.749512	1096.633789	21450.228516	2124.612061	5.050598
552.095154	1100.943359	21585.533203	2136.128906	5.053484
552.440735	1096.113770	21657.236328	2149.057861	5.121044
552.786316	1103.766968	21591.775391	2142.147705	5.068237
553.131897	1102.057983	21400.669922	2131.670898	5.072332
553.477417	1097.896973	21070.617188	2106.927979	5.052046
553.822815	1097.005371	20650.955078	2091.398682	5.085383
554.168213	1089.797974	20296.234375	2074.829102	5.128652
554.513672	1097.154053	19977.177734	2069.627930	5.150809
554.859009	1096.782593	19713.107422	2060.414307	5.176273
555.204285	1102.875366	19445.394531	2043.696289	5.129180
555.549500	1098.119995	19243.216797	2035.597290	5.166560
555.894714	1089.872437	19078.931641	2021.405640	5.178332
556.239990	1088.460571	18981.818359	2012.563599	5.164503
556.585022	1091.878418	18875.935547	1996.216919	5.085108
556.930115	1099.828979	18747.914063	1992.278931	5.056922
557.275146	1100.720459	18567.505859	1994.805054	5.118770
557.620178	1097.599731	18494.837891	1994.953735	5.158026
557.965149	1097.005371	18404.337891	1995.994019	5.194265
558.310059	1094.107544	18354.775391	1985.591431	5.164828
558.654968	1099.308716	18227.646484	1975.783569	5.117104
558.999756	1098.119995	18222.148438	1980.687500	5.153971
559.344604	1099.382935	18247.187500	1984.922852	5.164159
559.689331	1099.605957	18349.947266	1985.294312	5.134324
560.033997	1096.485229	18430.271484	1973.034546	5.056883
560.378723	1095.593628	18575.607422	1973.257324	5.020956
560.723389	1091.581177	18654.740234	1978.161499	5.047955
561.067932	1094.479126	18695.009766	1988.415039	5.079028
561.412476	1090.689697	18653.400391	1990.792603	5.125080
561.757019	1089.872314	18604.658203	1986.483032	5.119165
562.101501	1087.420288	18569.068359	1981.356323	5.113568
562.445862	1090.986816	18477.228516	1980.613281	5.116841
562.790222	1097.525513	18422.988281	1984.922852	5.121926
563.134644	1098.640015	18391.037109	1978.235718	5.086604
563.478943	1095.147827	18512.746094	1978.161255	5.069663
563.823181	1089.426392	18622.935547	1982.471069	5.093359
564.167358	1092.844360	18837.001953	1997.628540	5.099054
564.511536	1094.850586	19102.708984	2003.721313	5.047078
564.855774	1091.729858	19474.000000	2019.324829	5.046140
565.199768	1093.438843	19908.894531	2045.776733	5.061466
565.543823	1100.051758	20231.666016	2072.599854	5.083461
565.887817	1102.355225	20454.275391	2082.556641	5.065138
566.231812	1102.280884	20408.134766	2080.030273	5.064523
566.575745	1095.073486	20241.841797	2069.850830	5.091081
566.919617	1095.816528	20016.408203	2060.117432	5.096569
567.263428	1088.014771	19770.021484	2047.040039	5.133417
567.607239	1092.324219	19580.404297	2035.671753	5.102463
567.950989	1094.107422	19346.941406	2027.052368	5.111233
568.294678	1092.918701	19235.933594	2021.405396	5.117599
568.638367	1094.181763	19148.923828	2015.387085	5.102290
568.981995	1093.884644	19139.935547	2017.170288	5.116275
569.325623	1099.828979	19181.619141	2013.826538	5.054795
569.669128	1101.240601	19251.687500	2020.885254	5.066788
570.012573	1101.760620	19433.728516	2029.207153	5.059176
570.356140	1103.989868	19699.583984	2046.965698	5.070964
570.699524	1101.612183	20001.996094	2057.665283	5.058379
571.042908	1095.296509	20385.544922	2079.435791	5.101745
571.386230	1094.776245	20591.810547	2081.665039	5.061738
571.729492	1093.513062	20748.513672	2090.284180	5.071336
572.072815	1098.714355	20695.982422	2081.887939	5.016891
572.416016	1091.729858	20591.216797	2084.340088	5.090443
572.759094	1090.318115	20412.666016	2078.395752	5.113652
573.102234	1089.054932	20212.048828	2060.414307	5.079536
573.445374	1097.005371	20041.896484	2046.222656	5.010413
573.788391	1100.943481	19890.318359	2041.987305	5.008383
574.131409	1100.943481	19802.121094	2042.656128	5.035579
574.474365	1099.085815	19683.384766	2054.395752	5.140414
574.817261	1099.680298	19566.283203	2043.399048	5.110408
575.160156	1103.024048	19374.880859	2029.504517	5.070532
575.502930	1101.686523	19101.150391	2004.241699	5.014345
575.845703	1099.085815	18770.947266	1993.913574	5.063574
576.188477	1102.800903	18408.275391	1991.833008	5.137288
576.531250	1103.692627	18068.193359	1979.721680	5.163896
576.873901	1103.766968	17702.548828	1954.012817	5.122339
577.216431	1097.376831	17353.697266	1921.914063	5.072103
577.559082	1097.005371	17020.896484	1899.994751	5.042671
577.901611	1099.605835	16699.759766	1891.747192	5.077779
578.244080	1104.881348	16332.778320	1887.214844	5.137502
578.586487	1105.773071	16094.637695	1874.583496	5.129210
578.928955	1130.144409	15854.046875	1889.741211	5.158937
579.271301	1124.869019	15694.442383	1877.852905	5.168194
579.613647	1125.166138	15434.086914	1857.865234	5.120575
579.955872	1095.742310	15248.106445	1822.868652	5.137844
580.298157	1097.228394	15108.492188	1809.939941	5.086704
580.640320	1098.491333	15042.585938	1821.977051	5.188474
580.982483	1103.246948	15014.276367	1817.296021	5.132971
581.324524	1100.274780	14965.309570	1817.444702	5.172507
581.666626	1091.655640	14913.522461	1797.085571	5.103724
582.008728	1087.494629	14830.453125	1792.255859	5.128162
582.350647	1089.129272	14745.895508	1790.175415	5.133325
582.692566	1095.816528	14633.995117	1791.141479	5.136030
583.034424	1097.228394	14553.004883	1789.581055	5.145394
583.376343	1091.581299	14489.179688	1778.955933	5.130581
583.718201	1093.735962	14456.782227	1778.361328	5.123273
584.059937	1093.661743	14384.932617	1773.160156	5.112366
584.401611	1102.132202	14312.041992	1771.599976	5.067921
584.743347	1104.435669	14292.426758	1772.268555	5.063947
585.085022	1112.311768	14294.655273	1770.931152	4.996224
585.426514	1109.859741	14270.135742	1776.355103	5.064448
585.768127	1110.751343	14238.333008	1777.543945	5.079325
586.109619	1103.023926	14206.382813	1779.252930	5.160730
586.451172	1102.726563	14244.649414	1777.766968	5.136542
586.792542	1090.838257	14297.551758	1780.367554	5.221051
587.133850	1089.797974	14370.071289	1777.766968	5.180383
587.475220	1093.438843	14419.409180	1787.500610	5.208339
587.816589	1099.680298	14482.492188	1797.011230	5.210646
588.157776	1098.268555	14610.218750	1812.466309	5.285675
588.498962	1093.438843	14747.456055	1809.940063	5.247549
588.840210	1095.667969	14847.020508	1804.144531	5.152050
589.181335	1093.884644	14908.766602	1803.772949	5.138577
589.522400	1092.175659	14924.147461	1807.413696	5.170905
589.863403	1094.850708	14928.902344	1800.503540	5.100840
590.204407	1092.473022	14825.993164	1795.153809	5.116538
590.545410	1097.748413	14750.129883	1789.506836	5.066943
590.886353	1092.918579	14579.754883	1795.525391	5.209575
591.227112	1099.457275	14452.176758	1783.934082	5.126123
591.567932	1095.890747	14297.999023	1785.345825	5.222311
591.908752	1096.782593	14231.719727	1768.999146	5.117775
592.249512	1096.411011	14240.635742	1776.503784	5.174080
592.590149	1097.897095	14273.031250	1769.073608	5.094267
592.930786	1096.262329	14354.541992	1773.828735	5.110516
593.271423	1096.113770	14479.817383	1779.996094	5.109814
593.612000	1096.336548	14699.828125	1785.197266	5.063852
593.952576	1097.673950	14926.153320	1793.667603	5.033045
594.292969	1090.243774	15122.833008	1801.915405	5.071563
594.633484	1089.500854	15282.583008	1817.816040	5.131480
594.973877	1094.256226	15493.083008	1833.939819	5.137110
595.314209	1097.153931	15791.557617	1840.181274	5.056533
595.654480	1096.336548	16147.541992	1863.661011	5.098093
595.994812	1092.844360	16537.185547	1887.957642	5.148250
596.335022	1103.692627	16819.164063	1908.762329	5.122784
596.675171	1107.927856	16944.068359	1904.453003	5.029793
597.015320	1107.704956	16854.310547	1893.901978	4.992803
597.355408	1101.686523	16523.812500	1872.577148	4.998601
597.695496	1107.853516	16058.825195	1849.617798	4.961311
598.035461	1108.447998	15468.416992	1820.045288	4.955424
598.375366	1107.333496	14925.633789	1799.017578	5.005565
598.715271	1099.531738	14487.620117	1779.475952	5.078725
599.055176	1098.268555	14133.120117	1767.958862	5.137691
599.395081	1100.497681	13910.583008	1758.522461	5.136771
599.734802	1101.389160	13730.324219	1749.011719	5.128085
600.074524	1100.348999	13664.417969	1746.113892	5.139775
600.414246	1103.915405	13627.489258	1729.990234	4.999170
600.753906	1107.407837	13641.309570	1735.265747	5.009277
601.093506	1110.379883	13690.648438	1741.061523	5.013260
601.433044	1111.345825	13843.191406	1759.859985	5.093638
601.772583	1105.327271	14056.588867	1764.689575	5.091105
602.112122	1102.875366	14370.071289	1769.444946	5.024193
602.451538	1103.321167	14752.507813	1794.113403	5.061050
602.790894	1103.915527	15182.573242	1810.088501	5.015911
603.130310	1105.475952	15654.394531	1833.494019	5.003932
603.469604	1101.389160	16085.721680	1841.221558	4.937373
603.808838	1093.438843	16479.523438	1866.781616	5.026248
604.148010	1088.312012	16760.537109	1885.357300	5.085719
604.487305	1091.358398	16810.767578	1898.731812	5.136156
604.826416	1100.051758	16683.412109	1893.604858	5.092310
605.165527	1104.807129	16319.700195	1879.413086	5.091104
605.504456	1100.348999	15865.488281	1849.989136	5.077095
605.843445	1096.856812	15312.082031	1826.732422	5.134464
606.182434	1089.055054	14847.317383	1798.422974	5.155941
606.521423	1093.438843	14474.094727	1775.463501	5.097094
606.860229	1101.909302	14179.633789	1757.779297	5.015169
607.199036	1109.859741	13963.262695	1746.633911	4.954129
607.537903	1110.305542	13871.128906	1747.451538	4.992985
607.876648	1106.516235	13961.333008	1743.216187	4.953007
608.215271	1105.475952	14159.870117	1749.234497	4.931355
608.553955	1095.593628	14439.471680	1773.680176	5.081630
608.892578	1097.822632	14644.992188	1789.952515	5.109037
609.231140	1097.896973	14788.768555	1805.333374	5.167212
609.569641	1102.800903	14782.600586	1795.525391	5.063849
609.908081	1095.593628	14712.011719	1791.958984	5.114160
610.246521	1091.506958	14475.729492	1764.986938	5.031895
610.584961	1083.779541	14127.398438	1753.098267	5.131388
610.923340	1085.562866	13695.773438	1734.151001	5.143357
611.261597	1092.918823	13281.165039	1734.002563	5.259852
611.599854	1102.132324	12930.531250	1717.061523	5.198753
611.938110	1111.568726	12644.688477	1699.674805	5.099280
612.276245	1115.878296	12417.471680	1683.253906	5.020315
612.614319	1110.454224	12226.512695	1662.003296	4.961732
612.952393	1102.875366	12045.882813	1663.266235	5.120995
613.290466	1095.667969	11893.264648	1654.498657	5.175510
613.628479	1095.816528	11720.809570	1650.709106	5.222522
613.966370	1099.457397	11625.627930	1648.331543	5.214376
614.304260	1094.330444	11538.024414	1635.848633	5.185121
614.642151	1090.689697	11502.953125	1632.950806	5.207908
614.979980	1089.277954	11460.749023	1616.455688	5.082960
615.317749	1088.832153	11409.331055	1620.542358	5.151981
615.655396	1099.680298	11372.403320	1619.650757	5.061662
615.993164	1092.547241	11329.604492	1627.229492	5.223007
616.330811	1096.410889	11322.917969	1627.303833	5.191342
616.668396	1094.479004	11305.752930	1637.334961	5.316242
617.005859	1106.739136	11305.159180	1635.551636	5.185239
617.343445	1109.190918	11301.592773	1640.307007	5.210902
617.680908	1108.596558	11319.871094	1635.774414	5.162704
618.018311	1100.125977	11303.375000	1637.929199	5.270902
618.355652	1096.856689	11287.622070	1633.991211	5.270796
618.692993	1104.361450	11223.351563	1627.601196	5.170869
619.030273	1106.887695	11143.179688	1626.040649	5.172757
619.367554	1109.636841	11068.282227	1621.285522	5.137733
619.704712	1100.720581	10991.825195	1620.096558	5.250940
620.041870	1097.376831	10984.691406	1606.499023	5.149247
620.379028	1104.212769	10947.911133	1601.743774	5.054310
620.716064	1099.903198	10946.872070	1603.972778	5.119033
621.053040	1102.355103	10937.508789	1614.226563	5.204509
621.389954	1089.426514	10930.301758	1611.254517	5.302659
621.726929	1087.643188	10936.468750	1609.248413	5.296116
622.063843	1083.408081	10931.862305	1606.202026	5.308386
622.400635	1081.996216	10914.698242	1610.065552	5.370542
622.737427	1080.881714	10909.793945	1604.344360	5.325744
623.074219	1088.237671	10922.425781	1607.687988	5.282086
623.410889	1093.958984	10971.911133	1613.409180	5.258683
623.747559	1097.748413	11029.049805	1617.793091	5.236420
624.084167	1097.376831	11099.786133	1616.307007	5.188052
624.420715	1098.417114	11204.182617	1618.907715	5.150432
624.757324	1105.550171	11355.387695	1628.567017	5.102684
625.093750	1104.732788	11539.508789	1632.653687	5.059245
625.430176	1103.692505	11734.925781	1638.077759	5.026559
625.766602	1093.290161	11926.776367	1638.969360	5.036968
626.102905	1087.048828	12134.898438	1654.201538	5.133603
626.439209	1084.225220	12282.090820	1662.449097	5.163697
626.775452	1094.627808	12395.551758	1673.000000	5.117919
627.111694	1099.531616	12341.831055	1667.724609	5.054064
627.447876	1101.909302	12233.719727	1662.894897	5.039482
627.783997	1101.240601	12034.440430	1657.470703	5.087533
628.120056	1097.971313	11903.593750	1652.046509	5.127656
628.456055	1095.222046	11724.077148	1644.393555	5.166798
628.792053	1093.735962	11539.434570	1635.031372	5.181993
629.128052	1096.708130	11351.301758	1628.715454	5.187990
629.463928	1106.367554	11234.348633	1620.913940	5.080443
629.799744	1101.612061	11136.863281	1616.827148	5.134053
630.135559	1103.469727	11043.835938	1606.053345	5.055987
630.471375	1094.627808	10900.432617	1598.325806	5.136733
630.807068	1099.085938	10781.696289	1594.090698	5.112307
631.142700	1095.445068	10692.681641	1585.099976	5.102041
631.478333	1097.377075	10639.183594	1582.870972	5.088071
631.813965	1100.423462	10608.274414	1573.359985	4.974169
632.149475	1100.126221	10542.515625	1582.053589	5.103871
632.484924	1100.126099	10538.875000	1578.412720	5.067267
632.820435	1093.141724	10548.534180	1582.796509	5.178577
633.155884	1090.392456	10615.778320	1577.001099	5.108545
633.491150	1097.079712	10657.908203	1581.236328	5.063961
633.826477	1106.144653	10668.458984	1577.298218	4.927192
634.161804	1105.995972	10616.001953	1576.332153	4.945698
634.497009	1100.423218	10550.689453	1578.338501	5.057162
634.832153	1099.531616	10472.002930	1571.948364	5.040472
635.167297	1100.423218	10370.579102	1567.415894	5.037592
635.502380	1099.531616	10241.145508	1558.128052	5.016581
635.837463	1081.550415	10104.948242	1556.790649	5.266755
636.172424	1078.949707	9990.818359	1544.530640	5.224279
636.507324	1081.847656	9894.522461	1535.688599	5.149866
636.842224	1089.426514	9790.350586	1520.085083	4.949573
637.177124	1087.643188	9679.638672	1517.335938	5.001082
637.511963	1088.832031	9582.599609	1514.809570	5.015178
637.846741	1098.937256	9494.921875	1521.868286	5.037302
638.181396	1106.664795	9418.910156	1523.651733	5.016538
638.516113	1104.212769	9349.363281	1516.964355	5.005992
638.850769	1100.943481	9280.112305	1509.236816	4.991868
639.185303	1104.584351	9184.930664	1504.407227	4.948091
639.519836	1102.057983	9102.975586	1512.506226	5.130015
639.854370	1099.680176	9025.032227	1515.106812	5.241744
640.188843	1096.559448	8976.958008	1521.199585	5.388562
640.523254	1093.661743	8927.991211	1511.985962	5.339630
640.857605	1095.890747	8906.147461	1508.865234	5.287591
641.191895	1098.491333	8874.344727	1493.558960	5.080698
641.526184	1097.599731	8844.996094	1495.565063	5.136762
641.860413	1094.181763	8773.739258	1500.915039	5.296311
642.194580	1084.448242	8730.346680	1508.716797	5.548969
642.528748	1086.231567	8676.106445	1505.893188	5.529230
642.862793	1088.237671	8655.227539	1491.552734	5.329927
643.196838	1094.256226	8628.254883	1479.218384	5.109666
643.530823	1097.005371	8605.592773	1473.051392	5.008213
643.864746	1102.726685	8575.871094	1476.840820	5.006114
644.198669	1106.738892	8566.137695	1483.082397	5.045226
644.532532	1108.670898	8537.010742	1488.952148	5.119330
644.866333	1107.482056	8539.686523	1479.515747	5.005698
645.200073	1106.070435	8537.903320	1479.515747	5.024942
645.533813	1105.550171	8554.250000	1474.240234	4.949724
645.867554	1096.633911	8579.438477	1483.973999	5.176403
646.201172	1096.856812	8585.680664	1484.865601	5.181171
646.534729	1095.147827	8609.977539	1485.608765	5.195872
646.868225	1096.336548	8588.131836	1484.122559	5.176143
647.201782	1096.782349	8586.793945	1484.494141	5.176384
647.535217	1096.039429	8592.886719	1483.453735	5.167696
647.868591	1098.714233	8600.391602	1475.280640	5.019763
648.201965	1092.993042	8567.327148	1478.847046	5.162386
648.535278	1097.748413	8524.528320	1482.859375	5.185437
648.868591	1095.222168	8519.625000	1490.884155	5.329210
649.201782	1099.011475	8510.930664	1487.317505	5.238941
649.534912	1097.599731	8508.182617	1478.549805	5.140622
649.868103	1099.382935	8486.262695	1478.475586	5.131973
650.201172	1098.640015	8522.149414	1478.327026	5.114656
650.534180	1097.599731	8541.097656	1483.676758	5.186769
650.867188	1098.714355	8558.039063	1482.933594	5.150858
651.200134	1104.435669	8522.745117	1474.017456	4.982022
651.533020	1101.240601	8479.352539	1476.097778	5.080666
651.865845	1106.144653	8444.800781	1479.292969	5.084695
652.198608	1103.023926	8456.467773	1490.512695	5.269487
652.531433	1094.330444	8452.900391	1488.803711	5.360733
652.864136	1090.689575	8441.085938	1484.642578	5.359616
653.196777	1143.890503	8430.015625	1588.443481	6.101364
653.529358	1156.447632	8383.352539	1583.985352	5.915917
653.861938	1161.054321	8309.718750	1572.988647	5.762395
654.194519	1107.110596	8189.645996	1458.042358	4.954889
654.526978	1112.385986	8173.967285	1446.228149	4.727584
654.859375	1106.144531	8164.531250	1457.893677	4.983421
655.191833	1103.766968	8179.614746	1461.237305	5.051979
655.524170	1098.045532	8143.355469	1466.587280	5.231022
655.856445	1098.714355	8106.353027	1447.862793	4.982398
656.188660	1108.447998	8083.170410	1451.206543	4.914297
656.520874	1110.454102	8118.463379	1458.562500	4.967294
656.853088	1105.550171	8228.208984	1472.382813	5.150221
657.185181	1095.742188	8346.350586	1469.336304	5.152590
657.517212	1093.958862	8485.371094	1475.429199	5.160994
657.849243	1091.209839	8654.112305	1489.546509	5.266982
658.181274	1086.974487	8875.906250	1507.082031	5.393648
658.513123	1088.683472	9112.856445	1517.855957	5.348495
658.844971	1091.061157	9305.524414	1527.589478	5.314143
659.176819	1095.965210	9440.383789	1530.190063	5.203776
659.508667	1092.547241	9481.175781	1527.589478	5.186095
659.840393	1097.153931	9437.040039	1527.812500	5.163843
660.172058	1100.794800	9325.660156	1519.416382	5.089707
660.503662	1099.680298	9125.192383	1521.794067	5.259649
660.835266	1100.943359	8923.459961	1508.939575	5.215664
661.166931	1097.525513	8694.235352	1494.302124	5.223006
661.498413	1105.401611	8544.739258	1479.738770	5.031861
661.829773	1105.847290	8360.096680	1470.599487	5.028118
662.161194	1101.389282	8206.883789	1469.336304	5.178345
662.492615	1094.999268	8027.220215	1459.528320	5.258474
662.823975	1098.862915	7899.865234	1441.546997	5.038729
663.155212	1097.748413	7767.828613	1427.949707	4.950485
663.486450	1097.079712	7669.080566	1425.126343	4.991579
663.817627	1088.460571	7570.183594	1422.897095	5.159686
664.148743	1088.163208	7497.070313	1429.955688	5.333085
664.479858	1093.067261	7419.275391	1421.633911	5.193738
664.810913	1094.330444	7382.347168	1431.293335	5.358810
665.141907	1101.612061	7347.201660	1426.315063	5.198916
665.472778	1094.850464	7349.207520	1434.859863	5.436361
665.803711	1094.850586	7350.842285	1427.280884	5.313791
666.134583	1088.386230	7354.557129	1421.708374	5.319391
666.465454	1090.392456	7348.167969	1420.742310	5.279030
666.796143	1089.352173	7313.171387	1415.541016	5.240975
667.126831	1096.485229	7332.267090	1420.147827	5.190409
667.457458	1093.141602	7344.229004	1419.330444	5.218113
667.788147	1093.810425	7368.600098	1428.246948	5.329844
668.118774	1090.689575	7371.646973	1432.333618	5.439363
668.449219	1093.067383	7383.089844	1423.491577	5.253148
668.779663	1097.302612	7394.085938	1422.154297	5.159010
669.110107	1094.256226	7381.603516	1413.312134	5.074571
669.440552	1099.828979	7358.123535	1415.689819	5.047075
669.770874	1090.764038	7313.616699	1413.832031	5.191638
670.101135	1096.485229	7279.363281	1418.141724	5.202375
670.431396	1096.188110	7227.276855	1426.240723	5.383263
670.761597	1107.704956	7171.029785	1426.612305	5.259612
671.091797	1109.413818	7112.702637	1427.280884	5.294882
671.421875	1101.389160	7062.250488	1424.457520	5.419827
671.751892	1098.416992	7044.566406	1423.120117	5.460729
672.081909	1098.268555	6991.662598	1421.856812	5.490695
672.411865	1105.327271	6961.792969	1416.209839	5.308365
672.741821	1101.686401	6922.486816	1405.584595	5.220901
673.071716	1098.268555	6935.936035	1402.240845	5.207085
673.401550	1098.491455	6908.221191	1395.925171	5.119579
673.731262	1102.726685	6904.060547	1398.451538	5.097532
674.060974	1101.463501	6857.695801	1397.411255	5.141345
674.390625	1102.206421	6835.181641	1396.445313	5.132394
674.720276	1098.565796	6777.671387	1392.953125	5.183692
675.049927	1094.776245	6748.099121	1379.801392	5.041728
675.379395	1091.061035	6726.179688	1377.275269	5.079116
675.708923	1095.667847	6698.539063	1369.547729	4.888206
676.038330	1099.011353	6678.031250	1378.166870	5.003666
676.367737	1099.457397	6671.046875	1380.619019	5.046345
676.697083	1094.999146	6689.770996	1391.615723	5.301674
677.026428	1099.383179	6699.728027	1384.408325	5.089421
677.355652	1096.113770	6691.332031	1378.984375	5.055578
677.684875	1091.729858	6734.130371	1374.451660	5.010665
678.013977	1089.352173	6804.197266	1380.841797	5.100569
678.343079	1089.946655	6902.500000	1391.541382	5.188679
678.672180	1092.249878	6968.035645	1402.092407	5.273210
679.001221	1085.859985	7058.386719	1410.191406	5.430388
679.330139	1097.228271	7149.333496	1417.621582	5.293915
679.659058	1103.321167	7254.694824	1431.442017	5.334107
679.987976	1104.064087	7332.415527	1434.562622	5.306356
680.316772	1094.776245	7362.285156	1432.705078	5.391757
680.645630	1097.451172	7365.182129	1422.822876	5.191220
680.974304	1105.921753	7315.696777	1422.228516	5.093691
681.302979	1106.441895	7273.493652	1424.383179	5.155483
681.631653	1101.315063	7198.076172	1422.525513	5.268542
681.960266	1100.646362	7151.191406	1420.296509	5.282998
682.288757	1105.104492	7080.009277	1411.900391	5.134741
682.617249	1106.367554	7010.536621	1408.779663	5.122010
682.945679	1101.017700	6899.156250	1396.519653	5.096497
683.274109	1092.993042	6787.404785	1380.767578	5.053631
683.602478	1089.055054	6667.628906	1371.702515	5.066662
683.930725	1092.398682	6558.329590	1367.987305	5.041934
684.259033	1094.850708	6467.234375	1373.411499	5.185050
684.587280	1094.627808	6397.019043	1373.262817	5.254894
684.915344	1093.438843	6339.582520	1370.513672	5.281496
685.243469	1092.695923	6305.328613	1374.080200	5.398122
685.571533	1090.244019	6266.468750	1368.730469	5.380107
685.899536	1085.339844	6246.853027	1369.250610	5.500534
686.227539	1087.420288	6211.410156	1362.934937	5.376956
686.555420	1091.135498	6222.406738	1366.278320	5.362079
686.883301	1102.206543	6249.601563	1373.114258	5.263006
687.211121	1103.023926	6286.826660	1367.392944	5.099905
687.538940	1102.652466	6309.118652	1374.674805	5.224702
687.866638	1101.760864	6304.808594	1371.999878	5.193860
688.194336	1102.949585	6293.292480	1376.680786	5.273856
688.521973	1102.652344	6256.289063	1362.786133	5.047577
688.849609	1094.850586	6207.323730	1352.309570	5.035899
689.177063	1090.986816	6137.479004	1351.566528	5.163581
689.504578	1090.095337	6054.779785	1352.235229	5.280092
689.832031	1084.745483	5982.334473	1351.120728	5.438906
690.159485	1079.544312	5904.911621	1348.371460	5.571123
690.486816	1083.705200	5852.751465	1346.885376	5.518507
690.814087	1086.974487	5790.708496	1345.696655	5.500357
691.141296	1087.271606	5754.597656	1339.158081	5.396805
691.468506	1084.373901	5688.914063	1333.956787	5.420365
691.795715	1083.110840	5639.576660	1335.517090	5.539518
692.122803	1093.438965	5604.208984	1327.715454	5.193714
692.449829	1100.720581	5579.242676	1327.789673	5.070179
692.776855	1105.104370	5543.949219	1327.120972	5.001675
693.103821	1097.525513	5491.119629	1331.802002	5.332229
693.430664	1092.398560	5463.999512	1329.127075	5.415144
693.757568	1096.039429	5454.339844	1331.727661	5.407802
694.084351	1098.862915	5461.695801	1335.665649	5.427729
694.411133	1097.228271	5461.992676	1330.464478	5.343615
694.737854	1102.206665	5455.306152	1323.034180	5.072880
695.064575	1104.584351	5456.643066	1318.055908	4.905071
695.391174	1105.624634	5479.825684	1323.777222	4.987256
695.717773	1098.863037	5515.639160	1328.829956	5.206669
696.044250	1097.376953	5561.335938	1327.195190	5.148305
696.370789	1094.999146	5622.932129	1329.349976	5.175669
696.697205	1093.438843	5721.086426	1328.235474	5.073780
697.023621	1095.816528	5857.208984	1339.232300	5.112281
697.349915	1098.268555	6024.167480	1348.817383	5.086358
697.676208	1097.525513	6213.416504	1361.077271	5.151629
698.002380	1094.404785	6462.255859	1378.018188	5.283556
698.328674	1096.782471	6689.474121	1393.176147	5.299661
698.654724	1094.776245	6881.472168	1408.110840	5.414741
698.980896	1097.897095	6956.145996	1409.448242	5.318161
699.306946	1096.411011	6950.796387	1405.956055	5.287405
699.632935	1100.571899	6856.952637	1398.748657	5.179935
699.958862	1097.971191	6696.012207	1385.745728	5.140629
700.284729	1095.370728	6512.261719	1371.628296	5.099928
700.610596	1090.763916	6306.518066	1360.037109	5.162690
700.936340	1091.135376	6094.309082	1357.139160	5.316701
701.262146	1091.804077	5874.596191	1347.851440	5.353512
701.587830	1094.924805	5696.566406	1339.603638	5.317207
701.913513	1105.104492	5537.855469	1324.594604	4.951555
702.239075	1104.361450	5396.160645	1320.062134	5.025880
702.564697	1103.692627	5275.567871	1312.631958	5.008284
702.890137	1092.993042	5167.531250	1302.155273	5.133398
703.215698	1096.931152	5093.451660	1298.142822	5.034671
703.541016	1106.590454	5015.285156	1293.758911	4.788516
703.866455	1106.739136	4973.006836	1296.062378	4.896796
704.191711	1107.482056	4942.468262	1295.319336	4.897991
704.517029	1103.766846	4918.320313	1291.009766	4.908646
704.842163	1104.509888	4872.549805	1300.520508	5.201925
705.167419	1108.299316	4826.333496	1297.697021	5.094028
705.492493	1098.565796	4800.698730	1299.628906	5.431007
705.817566	1092.770020	4791.262207	1288.632202	5.295731
706.142578	1085.934204	4779.002441	1289.226563	5.504701
706.467590	1092.844360	4771.720215	1284.842651	5.218939
706.792480	1098.045654	4764.884766	1283.505249	5.057751
707.117371	1099.011597	4786.135254	1277.115234	4.830422
707.442200	1094.107544	4804.265137	1278.378418	4.966659
707.766907	1100.125977	4812.587402	1287.369019	5.043636
708.091675	1101.834961	4810.357910	1291.827148	5.123123
708.416321	1111.940308	4811.695801	1299.405884	5.066972
708.741028	1098.714355	4832.723145	1291.975586	5.175704
709.065552	1096.113892	4855.385254	1288.557739	5.119179
709.390137	1083.853882	4857.912109	1290.712524	5.481067
709.714600	1093.661865	4903.756348	1292.124390	5.208861
710.039063	1095.667969	4932.585938	1293.610352	5.158890
710.363403	1099.531738	4993.142578	1292.421509	4.954008
710.687744	1095.965210	5036.535645	1299.554565	5.166495
711.012085	1091.506958	5096.646973	1309.511108	5.443109
711.336304	1095.370728	5122.875488	1311.442993	5.364916
711.660461	1094.404663	5129.562500	1312.706177	5.409987
711.984619	1099.085693	5097.612793	1310.402710	5.284872
712.308716	1092.770020	5048.572754	1301.189331	5.268698
712.632751	1093.067261	4992.846191	1293.610229	5.142419
712.956726	1089.872314	4939.496582	1291.232544	5.230646
713.280701	1094.330444	4913.861816	1293.758911	5.221281
713.604553	1103.098145	4866.605957	1290.266724	4.973248
713.928467	1109.636841	4842.308594	1286.254395	4.731666
714.252258	1109.042480	4806.345703	1292.941772	4.973876
714.575989	1101.315063	4806.048340	1298.514282	5.322899
714.899719	1095.444946	4810.654785	1294.502075	5.357897
715.223267	1096.039551	4829.602051	1287.963379	5.140501
715.546936	1093.513184	4823.583984	1284.768433	5.127389
715.870422	1087.717529	4814.444824	1290.415405	5.439032
716.193970	1082.070679	4813.107422	1289.746704	5.566175
716.517395	1077.463745	4796.166016	1287.814819	5.656572
716.840820	1083.185059	4750.841309	1281.424683	5.405077
717.164124	1086.974487	4680.402344	1280.235962	5.378193
717.487488	1093.884644	4616.501953	1283.282349	5.376619
717.810730	1097.525513	4549.555664	1282.984985	5.372475
718.133972	1098.714233	4455.785645	1278.378296	5.351810
718.457092	1100.274780	4377.841797	1267.381348	5.098495
718.780212	1099.977539	4306.734375	1267.307129	5.218032
719.103210	1102.726807	4268.245605	1264.855225	5.121701
719.426208	1101.760742	4221.509277	1265.598267	5.251626
719.749207	1100.274780	4182.203125	1260.099854	5.185879
720.072083	1099.605957	4137.026855	1256.533325	5.166468
720.394958	1100.051758	4094.674561	1248.582886	4.959928
720.717773	1092.695801	4035.529297	1245.610840	5.196184
721.040527	1092.324341	4008.928955	1245.536621	5.253104
721.363281	1102.800903	3983.963623	1254.304199	5.258409
721.685913	1107.259155	3994.291260	1260.619995	5.312058
722.008545	1099.457397	3970.365967	1252.372437	5.326364
722.331055	1082.739258	3963.752930	1242.638672	5.550109
722.653503	1078.949829	3948.520752	1238.700684	5.567064
722.976013	1081.104614	3952.533203	1239.889526	5.529822
723.298401	1086.825806	3942.205078	1242.341431	5.446408
723.620789	1095.593628	3938.489990	1234.019531	4.869185
723.943115	1100.571899	3916.422119	1235.579956	4.794575
724.265381	1097.674194	3901.635986	1234.465454	4.878499
724.587585	1094.107666	3896.137451	1235.654297	5.051575
724.909790	1092.473022	3915.456055	1230.081665	4.874583
725.231873	1099.977539	3924.744141	1233.648071	4.732091
725.553894	1099.828735	3936.409424	1234.762573	4.756919
725.875916	1134.751099	3979.579346	1278.898315	5.066992
726.197937	1135.048462	3999.417969	1283.430786	5.180278
726.519775	1133.116455	4009.077393	1287.591797	5.371260
726.841675	1098.937256	3989.759033	1249.400269	5.204853
727.163513	1084.671021	4006.699951	1245.016479	5.487470
727.485291	1088.460571	4014.650391	1252.223755	5.596465
727.806946	1090.540894	4029.065186	1259.802612	5.760092
728.128662	1100.200317	4061.089111	1260.397095	5.410429
728.450256	1101.314941	4105.299316	1257.127808	5.186873
728.771790	1107.184814	4126.921875	1247.319824	4.640636
729.093323	1104.212769	4120.011719	1245.610840	4.688578
729.414795	1106.144531	4096.085938	1240.038086	4.478133
729.736145	1097.599731	4078.550781	1243.678955	4.900423
730.057495	1102.726685	4058.042969	1244.124878	4.784536
730.378845	1098.714355	4060.049561	1247.839966	5.035756
730.700134	1093.067383	4066.587891	1247.022583	5.177539
731.021301	1086.974487	4102.030762	1252.966919	5.505451
731.342468	1088.460571	4113.473145	1256.830566	5.565927
731.663574	1089.426514	4134.574707	1260.842896	5.629164
731.984680	1094.181763	4137.472656	1254.527100	5.268814
732.305664	1093.736084	4141.559570	1250.514771	5.143956
732.626648	1098.417114	4160.506836	1248.805786	4.911308
732.947571	1097.674194	4167.342285	1253.338257	5.071039
733.268433	1098.045532	4169.497070	1249.771851	4.939889
733.589233	1100.051758	4144.085449	1252.743774	5.016108
733.909973	1096.931152	4108.048828	1255.121582	5.253545
734.230713	1095.147827	4055.293945	1261.511597	5.620121
734.551331	1091.878540	3985.746826	1261.511597	5.861810
734.871948	1100.943359	3938.044189	1248.731567	5.209128
735.192505	1103.841309	3899.704102	1245.610840	5.070690
735.513062	1104.732788	3855.419678	1237.066040	4.810916
735.833435	1094.033203	3798.726563	1232.161987	5.107004
736.153931	1093.290405	3738.467529	1227.852417	5.087070
736.474304	1093.215942	3703.024658	1224.583130	5.033595
736.794617	1102.875366	3679.173828	1235.282593	5.139437
737.114807	1101.537842	3682.740234	1230.304443	4.988629
737.434998	1104.286987	3690.838867	1235.877075	5.087471
737.755188	1099.308716	3701.761719	1234.836914	5.207709
738.075256	1102.875122	3729.253662	1240.483887	5.239487
738.395325	1101.909424	3747.754883	1235.728516	5.057706
738.715271	1106.664795	3766.033203	1229.932983	4.635243
739.035278	1097.302612	3786.020752	1230.750366	4.963248
739.355164	1094.404907	3783.717529	1237.214722	5.310272
739.675049	1090.986938	3767.891357	1239.072144	5.531958
739.994873	1097.599731	3728.213623	1234.985474	5.222574
740.314636	1096.559570	3699.829834	1226.292114	4.983445
740.634277	1094.033203	3674.120850	1224.137329	5.042624
740.953979	1094.479126	3638.009766	1230.676025	5.354640
741.273499	1099.457397	3598.703857	1234.168335	5.390062
741.593140	1097.302612	3565.936279	1232.830688	5.490003
741.912598	1092.993042	3537.924072	1221.908325	5.272757
742.232117	1097.154053	3505.676758	1216.558472	4.957579
742.551453	1101.166382	3478.036133	1219.010376	4.957950
742.870850	1103.023804	3450.098389	1220.793579	5.017726
743.190063	1093.215820	3434.569092	1221.833862	5.493320
743.509338	1089.277832	3404.327393	1216.781250	5.507589
743.828552	1079.618530	3387.238037	1218.861938	6.034071
744.147705	1088.386230	3366.878906	1217.301636	5.657925
744.466797	1088.534790	3351.126953	1219.679199	5.796202
744.785828	1104.658569	3338.867188	1212.843262	4.842193
745.104858	1093.736084	3316.576172	1215.963989	5.498727
745.423706	1096.782593	3283.363037	1205.710205	4.981642
745.742615	1093.884766	3237.592529	1200.063354	4.953035
746.061401	1099.977539	3222.955078	1199.468750	4.686399
746.380249	1101.983765	3226.595703	1208.236450	5.001040
746.698975	1104.287109	3232.317139	1218.118774	5.349157
747.017639	1097.005493	3223.623779	1212.620361	5.436560
747.336304	1093.587524	3227.858643	1209.796875	5.444920
747.654907	1087.866211	3233.208740	1207.716431	5.586531
747.973389	1104.955811	3238.632813	1204.224121	4.652452
748.291931	1109.933960	3225.406982	1210.762939	4.766262
748.610352	1102.652344	3226.075439	1218.118896	5.437755
748.928711	1098.714233	3244.799805	1228.595459	6.052006
749.247070	1095.444946	3260.477783	1224.137207	5.944126
749.565308	1102.206543	3269.096924	1208.310913	4.896619
749.883545	1101.612183	3249.035156	1203.406860	4.740318
750.201782	1099.977417	3245.617188	1197.908569	4.564194
750.519836	1096.485229	3232.837158	1204.595703	5.060518
750.837952	1089.500854	3226.149658	1197.388306	5.049376
751.155884	1084.819702	3209.505859	1205.487305	5.679315
751.473877	1098.342773	3200.515625	1198.502808	4.764596
751.791809	1092.695801	3201.406982	1203.406860	5.250176
752.109619	1102.429565	3192.193359	1191.666992	4.270216
752.427490	1093.141724	3176.887451	1190.775391	4.685489
752.745300	1102.503784	3179.041992	1194.936523	4.451290
753.062988	1090.838257	3194.571289	1199.394653	5.160180
753.380615	1088.683472	3216.787842	1197.982788	5.135994
753.698303	1087.791748	3218.645264	1191.889893	4.885279
754.015808	1094.553345	3195.908936	1185.425537	4.324456
754.333374	1102.132202	3175.549561	1192.335815	4.350480
754.650757	1107.779297	3151.698486	1197.536987	4.391450
754.968262	1120.262085	3145.531250	1201.772339	4.024663
755.285583	1114.763794	3143.451172	1201.549316	4.277915
755.602905	1109.711304	3143.525391	1195.605103	4.223287
755.920105	1101.835083	3140.776123	1195.233521	4.580733
756.237305	1106.516113	3139.289795	1192.855957	4.247391
756.554443	1105.624390	3128.887695	1193.301758	4.333463
756.871582	1101.909302	3139.141357	1191.890015	4.416812
757.188599	1094.924927	3142.485107	1190.626831	4.673948
757.505615	1096.485229	3180.082031	1197.016724	4.824902
757.822510	1099.977539	3211.958008	1206.230347	5.030956
758.139465	1101.389160	3238.558594	1214.552246	5.294998
758.456238	1097.525513	3245.245850	1218.118774	5.614943
758.773010	1091.655640	3260.106201	1220.050781	5.921054
759.089783	1095.147827	3287.524170	1208.682495	5.178612
759.406433	1091.506958	3314.718750	1205.190308	5.113473
759.723145	1092.621582	3328.910889	1199.023071	4.757948
760.039673	1087.346069	3334.037842	1208.013794	5.370907
760.356201	1087.866089	3334.037354	1200.063354	4.995045
760.672668	1091.135376	3324.229248	1200.731934	4.907835
760.989136	1094.255981	3318.433594	1195.530762	4.553358
761.305481	1109.785400	3320.217041	1200.954834	4.124508
761.621826	1108.819458	3326.978516	1203.704102	4.277630
761.938049	1113.426147	3346.891602	1215.443970	4.567692
762.254333	1106.664673	3387.832764	1219.902222	4.964016
762.570496	1115.209595	3457.677002	1227.183960	4.780189
762.886597	1108.670898	3578.864990	1227.852539	4.824789
763.202637	1101.835083	3775.024170	1234.465454	4.961504
763.518677	1091.729980	4025.052734	1245.313599	5.235824
763.834656	1097.154053	4269.434082	1254.527222	4.960885
764.150574	1101.537842	4401.173340	1269.016113	5.075660
764.466370	1106.441772	4405.631348	1271.096680	4.990768
764.782288	1098.491455	4302.944824	1268.050293	5.291350
765.097961	1098.714355	4172.097656	1254.601440	5.072165
765.413696	1092.770142	4012.272705	1239.295044	5.018831
765.729309	1093.884644	3838.850342	1229.635620	4.945452
766.044861	1087.420288	3674.195313	1222.874146	5.236399
766.360474	1082.442017	3563.929932	1216.038452	5.383723
766.675903	1081.401855	3481.899658	1212.769165	5.472503
766.991394	1083.259277	3409.009033	1213.958008	5.619638
767.306763	1090.986938	3334.112061	1216.707153	5.604691
767.622131	1089.129517	3273.109375	1219.976440	5.991214
767.937378	1100.051880	3214.187256	1215.815430	5.475693
768.252625	1095.073608	3161.209229	1209.128174	5.520187
768.567810	1093.958984	3107.636963	1201.995117	5.365115
768.882996	1088.609253	3077.544189	1197.239746	5.461742
769.197998	1087.197388	3058.300049	1188.769287	5.153049
769.513062	1094.479004	3034.597412	1184.311035	4.630234
769.828064	1093.067261	2995.142578	1179.407104	4.539244
770.142944	1098.194214	2967.873779	1186.168701	4.705324
770.457825	1100.869019	2942.239258	1181.710571	4.390293
770.772705	1100.051758	2919.279541	1182.602173	4.537663
771.087402	1100.943481	2892.233643	1184.831177	4.683088
771.402100	1098.194214	2888.444092	1190.552490	5.158960
771.716736	1096.113770	2883.317139	1191.072632	5.313266
772.031372	1100.348999	2865.187256	1185.425659	4.820649
772.345947	1093.958984	2841.261719	1191.072632	5.557918
772.660461	1091.952759	2828.184326	1193.450317	5.845854
772.974854	1087.048828	2821.125732	1191.518433	6.024508
773.289246	1086.231445	2811.540283	1173.611450	5.064601
773.603638	1088.832031	2796.679932	1168.633179	4.672615
773.917908	1090.169556	2776.395264	1161.797363	4.247818
774.232178	1097.153931	2758.860107	1169.153320	4.332859
774.546265	1097.748413	2744.668213	1172.199707	4.520639
774.860474	1090.615356	2733.820313	1176.360596	5.218171
775.174561	1090.466797	2724.011963	1175.171753	5.185345
775.488586	1096.633789	2712.718018	1162.763184	4.091952
775.802551	1110.305542	2705.659180	1166.032593	3.493084
776.116516	1111.791504	2692.135986	1168.707397	3.601486
776.430359	1108.076538	2690.724609	1173.834351	4.154923
776.744202	1100.794800	2686.786377	1175.320435	4.698993
777.057922	1107.110474	2690.352783	1175.766235	4.336403
777.371704	1100.348999	2681.733643	1174.948853	4.717376
777.685303	1099.828979	2669.473633	1171.307983	4.553833
777.998962	1091.061157	2658.105469	1169.673462	5.016597
778.312500	1096.633789	2648.223389	1172.794067	4.908533
778.626038	1099.457397	2636.112061	1178.218262	5.125476
778.939453	1103.098145	2632.619629	1173.537109	4.605294
779.252869	1106.516113	2640.050049	1169.524780	4.108723
779.566223	1106.813354	2647.554688	1158.082153	3.327541
779.879578	1103.321045	2649.040527	1159.939819	3.662940
780.192749	1094.479004	2641.684570	1163.283325	4.447006
780.505920	1090.838257	2643.616455	1173.685669	5.335431
780.819031	1090.541016	2631.505127	1174.725952	5.463134
781.132141	1103.989868	2620.211182	1177.995239	4.880908
781.445190	1102.726685	2615.307129	1183.345093	5.329859
781.758118	1101.017700	2614.935791	1185.351318	5.570554
782.071045	1090.392456	2606.539551	1173.537109	5.483944
782.383911	1091.581177	2582.242432	1158.750854	4.506032
782.696838	1090.838257	2571.171631	1161.871704	4.798476
783.009583	1096.782471	2549.697754	1174.280151	5.333943
783.322266	1094.256226	2531.864990	1173.983032	5.545793
783.634888	1095.965210	2501.772461	1161.871704	4.688160
783.947510	1094.553345	2492.410400	1159.048218	4.613839
784.260132	1096.411011	2481.785156	1167.221558	5.111294
784.572571	1092.844360	2486.169189	1169.078979	5.471417
784.885010	1089.426514	2473.388916	1161.797241	5.229241
785.197449	1097.674194	2473.834961	1158.825317	4.443603
785.509766	1106.813232	2464.992920	1155.853149	3.610709
785.822083	1106.813232	2470.268311	1158.825317	3.814727
786.134277	1102.800903	2463.506592	1163.506348	4.461321
786.446533	1099.011475	2461.129150	1169.822144	5.198572
786.758606	1099.234375	2456.596436	1172.274048	5.381001
787.070740	1095.742065	2467.296143	1166.998535	5.195309
787.382690	1090.912476	2478.144287	1171.085083	5.779323
787.694641	1088.757690	2501.401123	1171.307983	5.843675
788.006653	1086.008545	2534.540283	1176.063354	6.216972
788.318481	1095.816528	2584.991699	1170.119263	4.989523
788.630310	1100.794800	2642.724854	1170.416504	4.515231
788.942017	1105.698730	2679.504639	1170.416504	4.112183
789.253784	1090.466675	2691.244629	1177.995239	5.467877
789.565430	1085.042603	2673.114746	1176.063477	5.731533
789.877014	1087.717529	2635.368896	1174.131592	5.583561
790.188538	1091.655640	2589.969971	1171.531006	5.331015
790.500061	1098.194214	2546.874268	1169.450562	4.918708
790.811462	1099.085815	2507.345459	1165.363892	4.706382
791.122925	1106.516113	2487.060547	1162.317383	4.041975
791.434204	1096.485229	2463.209717	1160.757202	4.702628
791.745483	1087.494629	2456.150879	1157.562134	5.119438
792.056702	1086.305786	2429.253174	1154.069946	5.045928
792.367920	1098.045532	2402.504150	1155.556030	4.408764
792.678955	1091.655640	2386.900635	1160.162598	5.289112
792.990112	1096.411011	2367.284912	1165.958252	5.472395
793.301086	1087.866089	2353.538818	1170.044922	6.492898
793.612122	1094.181885	2341.055908	1168.856079	5.988913
793.922974	1082.813477	2343.953857	1165.289551	6.539801
794.233826	1091.061157	2370.108154	1161.202881	5.483905
794.544556	1092.101318	2377.389648	1158.899536	5.197139
794.855286	1100.646118	2379.916260	1154.367065	4.199344
795.166016	1094.033325	2377.687256	1159.345337	5.087976
795.476624	1095.519409	2389.501221	1158.825317	4.892334
795.787292	1091.135376	2413.426758	1163.655029	5.484393
796.097778	1093.067383	2449.314941	1159.345337	4.886863
796.408264	1094.182007	2472.423096	1163.060547	4.997568
796.718689	1090.243896	2487.357910	1157.636353	4.823690
797.029053	1087.197388	2487.209229	1160.905762	5.264839
797.339355	1088.088989	2483.270996	1160.980103	5.224488
797.649658	1097.153931	2469.599365	1160.757202	4.634303
797.959839	1099.160156	2441.958740	1158.899536	4.448871
798.270020	1093.661743	2414.987061	1161.648804	5.145369
798.580078	1088.980835	2392.101807	1170.342163	6.243575
798.890137	1088.014771	2361.266357	1164.323608	5.993226
799.200195	1093.141602	2343.804932	1158.379395	5.216255
799.510071	1091.506958	2332.585205	1151.246338	4.813506
799.820007	1091.135376	2337.340576	1153.698364	5.020280
800.129883	1085.414185	2321.291260	1153.029663	5.471052
800.439575	1087.866089	2310.517334	1153.326782	5.353995
800.749329	1083.779419	2290.232666	1155.778809	5.967856
801.058960	1097.674072	2294.839600	1155.853149	4.859735
801.368591	1098.788574	2289.935547	1159.939819	5.133812
801.678162	1107.927856	2289.043945	1152.955322	3.812281
801.987671	1104.361450	2281.093506	1157.859253	4.546303
802.297119	1101.240601	2271.508545	1156.967651	4.761905
802.606506	1097.971313	2256.573486	1163.654907	5.669210
802.915894	1092.844360	2258.654053	1157.264893	5.525819
803.225159	1095.073608	2253.304443	1150.949097	4.824210
803.534424	1095.816528	2264.375488	1147.531250	4.425512
803.843628	1097.897095	2248.177490	1144.707764	4.069501
804.152771	1101.240601	2246.320068	1144.707764	3.795995
804.461792	1093.438965	2220.759766	1142.181519	4.323752
804.770874	1089.798096	2211.769043	1146.713867	5.072838
805.079773	1082.144897	2214.072266	1154.441406	6.387027
805.388733	1087.420410	2242.381836	1151.617920	5.558412
805.697571	1090.244019	2270.914063	1151.617798	5.198216
806.006470	1102.429565	2278.344482	1147.159668	3.803855
806.315125	1107.482056	2280.053467	1154.887207	4.042837
806.623901	1108.968140	2267.867920	1153.103882	3.808418
806.932495	1098.045654	2272.028564	1158.602295	5.158222
807.241150	1090.764038	2265.935791	1156.596191	5.601918
807.549622	1086.900269	2261.329102	1162.986206	6.478548
807.858154	1092.472900	2250.555420	1155.258667	5.421528
808.166565	1090.838257	2229.676270	1153.029663	5.460953
808.474915	1090.095215	2207.310791	1150.726196	5.426972
808.783264	1091.358276	2187.026611	1152.286499	5.560827
809.091492	1097.153931	2184.722900	1152.509399	5.089835
809.399719	1098.862915	2189.106689	1144.856323	4.218635
809.707825	1101.983765	2188.363525	1141.066895	3.597557
810.015930	1099.234497	2169.565186	1147.382690	4.498441
810.323975	1100.200439	2150.543701	1157.636475	5.468311
810.632080	1090.243774	2133.751221	1156.001831	6.301638
810.939880	1090.689819	2125.429443	1150.206177	5.751820
811.247864	1085.265625	2116.736084	1137.351685	5.049690
811.555664	1089.723755	2111.683350	1147.976929	5.700144
811.863464	1090.169556	2119.782471	1139.952271	4.835090
812.171143	1093.661743	2128.326904	1139.432251	4.423702
812.478882	1090.838257	2120.450928	1131.704712	3.969110
812.786438	1090.169556	2105.590576	1141.958618	5.100255
813.094055	1093.141602	2094.296387	1152.955322	5.974473
813.401489	1092.324341	2082.333740	1152.658081	6.094259
813.708984	1098.862915	2065.838623	1147.605469	5.040721
814.016357	1092.993042	2053.429932	1143.444580	5.252978
814.323730	1101.017700	2058.631592	1140.843994	4.158909
814.630981	1099.828979	2058.482666	1143.890381	4.596175
814.938232	1103.618408	2067.398682	1144.410522	4.232512
815.245361	1097.079712	2054.544434	1142.032837	4.695016
815.552490	1095.370728	2067.250244	1142.181519	4.816522
815.859619	1093.067383	2071.931396	1134.676758	4.250782
816.166565	1094.256226	2089.838379	1140.918335	4.686917
816.473572	1088.386353	2085.008545	1137.426147	4.920600
816.780457	1097.153931	2085.083008	1145.005005	4.843574
817.087341	1098.714355	2088.872314	1142.627197	4.434933
817.394043	1101.240601	2102.469482	1143.741699	4.244894
817.700806	1095.073608	2111.906250	1140.026611	4.420885
818.007507	1091.506958	2122.903076	1140.992554	4.797924
818.314209	1093.438965	2133.751221	1140.769653	4.549662
818.620667	1099.903198	2141.107178	1142.255737	4.067650
818.927246	1104.732910	2162.357666	1140.918335	3.421386
819.233704	1103.395386	2191.113037	1140.546753	3.415534
819.540161	1098.342896	2240.746826	1138.094727	3.479665
819.846497	1099.828979	2302.195313	1148.051392	4.010626
820.152832	1099.977417	2381.996582	1152.658081	4.109195
820.458984	1101.017700	2469.005127	1162.763184	4.513600
820.765259	1098.119995	2563.666748	1161.277222	4.309465
821.071350	1099.754517	2689.906982	1176.657837	4.836223
821.377502	1099.903198	2882.350830	1190.181030	5.064824
821.683472	1093.958984	3255.573486	1212.397583	5.479173
821.989441	1088.460571	3999.120850	1244.199097	5.350626
822.295349	1084.745361	5196.062988	1298.365723	5.195910
822.601196	1085.488403	6753.746094	1375.491821	5.116271
822.907043	1092.993042	8163.045410	1451.800903	5.075038
823.212769	1095.519409	9016.932617	1503.664185	5.152424
823.518494	1096.708130	8963.359375	1510.054199	5.254409
823.824097	1096.856812	8217.805664	1474.909058	5.309015
824.129700	1095.370728	7075.328125	1418.067383	5.396304
824.435242	1100.274658	5937.976563	1352.235352	5.208272
824.740723	1102.949585	4992.399902	1298.737427	5.033818
825.046082	1104.138306	4293.954590	1259.356812	4.866064
825.351501	1101.091919	3825.252686	1234.093872	4.882309
825.656799	1093.587402	3510.729492	1217.152954	5.112051
825.962036	1093.290161	3309.369141	1203.109741	4.955580
826.267212	1091.061157	3198.880859	1200.731812	5.203037
826.572449	1091.952759	3203.190186	1210.837036	5.631024
826.877502	1084.448242	3343.548096	1223.319946	6.147214
827.182495	1081.698853	3649.006592	1238.254883	6.098063
827.487488	1082.293335	4039.319092	1252.372437	5.751695
827.792419	1086.974487	4372.641113	1268.050293	5.511083
828.097290	1096.856812	4500.812988	1274.663208	5.223522
828.402100	1094.999146	4379.996582	1261.957520	5.082450
828.706848	1097.971313	4067.256104	1245.387939	4.964718
829.011597	1093.810425	3650.120850	1224.954712	5.130218
829.316223	1096.336792	3254.161865	1203.183960	4.951614
829.620789	1093.587524	2920.394287	1184.831177	4.994708
829.925354	1095.370728	2675.046631	1171.308228	4.807157
830.229797	1093.587524	2484.088623	1161.871704	4.910760
830.534302	1096.411011	2367.433350	1146.713989	3.957679
830.838562	1092.250000	2272.994629	1147.679810	4.694479
831.142944	1091.432739	2200.326416	1149.017334	5.192977
831.447144	1086.157227	2142.964844	1158.156616	6.812913
831.751404	1090.466675	2126.692383	1149.314575	5.679062
832.055542	1087.494507	2125.949463	1153.104004	6.317992
832.359619	1091.209717	2134.568604	1151.840820	5.811146
832.663635	1089.277832	2156.636475	1162.911865	6.898715
832.967651	1092.472778	2202.258545	1152.806763	5.436543
833.271545	1094.181885	2305.018799	1157.413452	5.222137
833.575439	1094.627686	2458.974121	1166.255493	5.249972
833.879211	1095.965210	2698.897705	1185.945801	5.613499
834.183044	1092.175659	2958.957275	1198.874512	5.715658
834.486694	1097.153931	3182.905518	1200.954956	4.976673
834.790344	1103.841187	3293.393555	1215.592651	5.103850
835.093933	1107.184814	3239.078369	1216.855591	5.144289
835.397522	1107.704956	3073.606201	1211.803101	5.295187
835.700928	1104.955688	2827.441406	1183.716675	4.572519
836.004395	1110.602783	2614.638428	1167.295776	3.769392
836.307739	1106.144653	2421.451416	1155.778931	3.773589
836.611023	1098.268433	2284.437256	1158.750854	5.098972
836.914307	1089.723755	2165.924561	1157.710693	6.317310
837.217529	1092.324341	2088.575195	1150.428955	5.832328
837.520691	1095.222168	2026.458130	1147.679688	5.633107
837.823730	1092.398560	1970.656860	1137.054565	5.084610
838.126831	1091.581177	1918.198853	1136.237183	5.402256
838.429749	1086.157104	1876.960938	1128.881226	5.402619
838.732727	1086.008667	1857.122192	1134.305420	6.263248
839.035522	1085.414185	1845.085327	1136.311523	6.699917
839.338379	1094.256226	1833.122437	1135.419922	5.571198
839.641113	1098.862915	1833.939941	1131.704712	4.467803
839.943848	1099.754517	1869.382202	1140.026733	5.232688
840.246460	1094.776245	1921.468384	1144.856323	6.057887
840.549072	1098.862915	1986.854858	1149.314453	5.681531
840.851563	1101.017700	2026.606812	1142.775757	4.511511
841.154053	1104.955688	2041.913086	1145.673706	4.345770
841.456482	1096.262329	2008.105469	1137.500366	4.522492
841.758850	1090.689575	1951.263672	1138.986450	5.612169
842.061157	1088.609253	1893.901978	1133.042236	5.517619
842.363403	1097.674194	1834.385620	1136.385864	5.254659
842.665588	1100.794922	1778.064087	1132.001953	4.607774
842.967712	1101.983765	1735.860229	1117.364258	2.426418
843.269775	1105.475952	1703.761353	1112.014526	1.092885
843.571777	1104.732788	1688.306519	1110.156982	0.929479
843.873840	1105.401489	1663.192017	1124.869019	3.490115
844.175659	1098.417114	1639.638184	1125.166138	4.942347
844.477600	1101.017700	1632.133667	1122.416992	4.029119
844.779297	1101.612183	1618.684692	1121.525269	3.851121
845.081116	1103.915527	1615.638306	1114.094971	1.989250
845.382751	1103.989868	1596.171021	1122.713989	3.804315
845.684387	1101.092163	1585.545776	1121.376709	4.187098
845.985962	1088.832031	1578.264038	1130.144409	8.440882
846.287537	1081.773315	1565.112671	1128.361206	9.638754
846.588989	1081.253296	1559.762695	1130.218750	10.232914
846.890381	1089.352173	1541.707153	1128.286743	8.607083
847.191711	1096.336792	1540.221313	1120.559326	5.456945
847.493042	1097.971313	1528.407104	1112.906128	3.469696
847.794250	1098.491333	1515.924194	1119.444824	5.019608
848.095459	1092.398682	1508.939819	1121.450806	6.974611
848.396606	1096.039551	1507.825195	1122.119629	6.333411
848.697693	1097.971313	1523.428711	1124.794556	6.304566
848.998657	1098.640015	1520.456543	1119.073364	4.844132
849.299622	1096.931030	1518.747681	1120.930786	5.689618
849.600464	1098.862915	1509.682617	1115.803955	4.123716
849.901367	1102.726685	1507.527832	1119.816284	4.221727
850.202087	1097.748413	1502.475220	1117.364380	4.846718
850.502808	1099.160278	1501.138062	1113.872070	3.659852
850.803467	1097.302612	1495.267944	1109.265259	3.005952
851.104065	1096.782471	1491.255737	1111.717285	3.786014
851.404663	1098.788696	1488.654907	1112.237427	3.449576
851.705139	1095.890747	1492.370117	1113.871948	4.535217
852.005615	1106.887695	1497.571289	1113.054688	1.578513
852.306030	1101.686401	1495.490845	1114.243530	3.188671
852.606384	1099.011597	1501.509277	1119.964966	5.205836
852.906616	1091.804199	1492.964478	1117.884399	6.501192
853.206909	1092.026978	1484.345337	1119.890625	7.102305
853.506958	1098.565796	1468.890503	1120.410645	5.898837
853.807129	1100.646118	1471.565430	1118.998901	4.947918
854.107178	1104.435669	1478.549805	1108.670898	1.132069
854.407166	1107.853638	1472.902954	1100.571899	-1.994727
854.707092	1106.218872	1463.392212	1106.516113	0.083220
855.007019	1104.212769	1454.550171	1119.444702	4.347790
855.306763	1094.256226	1462.723267	1124.051514	8.086283
855.606567	1100.423340	1462.797729	1129.178345	7.935165
855.906250	1096.782593	1465.695679	1119.816284	6.243663
856.205933	1104.807129	1461.386108	1118.999023	3.980014
856.505493	1103.098145	1459.008301	1109.116699	1.691032
856.805054	1106.144653	1450.463501	1112.237427	1.769515
857.104492	1099.828979	1451.206421	1108.076538	2.347208
857.403931	1098.417236	1451.503540	1107.482056	2.567310
857.703308	1097.674194	1455.961792	1102.355103	1.306467
858.002563	1095.668091	1450.983521	1104.212769	2.404815
858.301819	1086.528687	1454.029907	1102.429443	4.326722
858.601013	1089.797974	1448.308594	1109.413940	5.471516
858.900208	1095.816528	1449.348999	1109.265259	3.804101
859.199219	1102.875244	1435.825806	1109.339478	1.941499
859.498291	1094.033325	1440.284058	1100.943359	1.995674
859.797302	1092.621460	1434.488403	1104.955688	3.607903
860.096191	1092.101440	1436.494629	1110.008423	5.199575
860.395020	1088.609253	1432.705078	1112.311890	6.888382
860.693787	1085.414185	1427.652466	1110.231323	7.251421
860.992554	1082.144897	1421.262329	1110.157104	8.260326
861.291260	1087.717407	1414.872437	1111.494263	7.267764
861.589844	1088.906372	1417.027222	1105.698730	5.117736
861.888428	1088.534790	1428.024048	1104.138428	4.596210
862.186890	1091.358276	1436.940430	1109.934082	5.375221
862.485413	1096.336548	1438.500610	1117.364380	6.145541
862.783813	1106.664673	1438.203491	1117.587280	3.294518
863.082153	1103.989868	1430.327515	1111.048462	2.162972
863.380371	1093.215942	1428.321289	1106.590332	3.991100
863.678589	1084.373901	1426.983765	1102.280884	5.226639
863.976746	1084.002441	1429.138550	1101.760742	5.145304
864.274902	1094.033325	1427.058105	1107.704956	4.105289
864.572937	1090.466675	1423.268555	1110.825684	6.117456
864.870911	1095.147827	1424.160156	1113.352051	5.532991
865.168884	1100.051758	1418.958984	1104.138550	1.281499
865.466736	1108.076538	1416.358398	1104.435669	-1.181020
865.764587	1109.413940	1415.318237	1102.652466	-2.210324
866.062317	1106.070435	1421.485352	1112.980469	2.190776
866.360107	1110.677124	1423.862915	1114.095093	1.091355
866.657715	1108.076538	1418.215942	1111.717407	1.173946
866.955322	1110.231323	1407.442017	1105.030151	-1.749995
867.252808	1101.686523	1401.572266	1103.989868	0.768074
867.550293	1101.389160	1400.977905	1105.550171	1.388908
867.847717	1101.612183	1406.030640	1103.915649	0.756678
868.145081	1102.652466	1405.658813	1103.023926	0.122591
868.442383	1099.011597	1408.408203	1106.218872	2.329462
868.739624	1090.392456	1401.943726	1113.723511	7.488673
869.036804	1091.729858	1402.909790	1108.447998	5.372499
869.333984	1092.993042	1399.343262	1103.915527	3.565359
869.631042	1095.222046	1399.788940	1096.559570	0.439156
869.928101	1093.735962	1402.240845	1096.188110	0.794849
870.224976	1095.593506	1398.971680	1092.621582	-0.979610
870.521851	1100.571899	1403.801270	1099.828979	-0.245003
870.818726	1105.550171	1403.429810	1106.739136	0.399143
871.115479	1104.435669	1415.244019	1115.283936	3.490340
871.412231	1097.674072	1417.770142	1108.373657	3.342617
871.708862	1086.825928	1413.089233	1104.509888	5.420150
872.005493	1086.380249	1398.377319	1104.286987	5.739393
872.302063	1099.754517	1392.804321	1105.847290	2.079092
872.598572	1104.138550	1392.358765	1109.413940	1.830333
872.895020	1106.664673	1402.984009	1107.407837	0.250798
873.191406	1095.444946	1406.550415	1104.287109	2.842175
873.487671	1099.754517	1410.414185	1109.933960	3.276719
873.783997	1105.029907	1414.055176	1104.509888	-0.168277
874.080200	1105.475830	1419.702148	1108.225098	0.874932
874.376343	1112.609009	1425.126343	1100.348999	-3.922986
874.672424	1106.813477	1420.296509	1112.534668	1.825040
874.968445	1106.664673	1413.683594	1112.534668	1.911933
875.264465	1089.872314	1418.587524	1113.649292	7.233306
875.560364	1091.655640	1417.993042	1110.231323	5.692171
875.856201	1094.850464	1424.531738	1110.974243	4.890718
876.152039	1105.104370	1416.804199	1107.927856	0.905835
876.447754	1106.738892	1421.485352	1098.268555	-2.691162
876.743469	1102.429443	1420.073608	1095.965210	-2.035055
877.039063	1097.005493	1419.256226	1098.119751	0.345774
877.334595	1095.519409	1413.014771	1098.342773	0.889262
877.630127	1099.605957	1416.432739	1106.218872	2.087234
877.925537	1107.407715	1421.039429	1107.927856	0.165845
878.221008	1107.036133	1425.869141	1118.850464	3.705492
878.516296	1104.584229	1427.132324	1118.330200	4.261681
878.811646	1102.429321	1432.630737	1123.605835	6.413211
879.106812	1095.742188	1457.001953	1120.930786	6.972434
879.401978	1091.878418	1484.419800	1111.494385	4.997172
879.697083	1089.500732	1511.391602	1107.481934	4.262050
879.992126	1088.088989	1531.973511	1108.447876	4.586528
880.287109	1086.974487	1564.963867	1115.803833	6.031378
880.582031	1084.522583	1642.238647	1119.296021	6.234972
880.876892	1091.506958	1795.451050	1129.029785	5.330370
881.171753	1101.463501	2068.364990	1139.506470	3.934524
881.466492	1102.800903	2501.178467	1153.995483	3.660998
881.761230	1100.571899	3069.296875	1182.973511	4.185532
882.055786	1092.250000	3627.087158	1221.313843	5.091603
882.350403	1091.729858	3995.182861	1243.530273	5.228271
882.644958	1090.318115	4055.145264	1243.827515	5.177685
882.939453	1100.497681	3833.723389	1222.725586	4.471929
883.233826	1104.732910	3429.887939	1213.734985	4.687949
883.528137	1104.435669	3001.087158	1191.889893	4.610980
883.822449	1097.005371	2623.852295	1174.800171	5.095128
884.116577	1093.661743	2341.501709	1157.190552	5.091102
884.410828	1093.958984	2124.909424	1144.187622	4.872071
884.704956	1094.479126	1962.557983	1137.203125	4.921672
884.999023	1097.005371	1849.097656	1129.624390	4.337103
885.292969	1096.559570	1758.225220	1126.206299	4.480621
885.586914	1094.627808	1695.885254	1126.280518	5.264419
885.880798	1093.141724	1644.170532	1124.200073	5.636429
886.174622	1094.553345	1615.341187	1115.283813	3.980598
886.468384	1095.667969	1595.428101	1111.048706	3.077624
886.762085	1093.661743	1570.165039	1111.865845	3.820352
887.055664	1092.101440	1543.118774	1122.193970	6.672145
887.349304	1089.055054	1514.586548	1115.358276	6.181263
887.642822	1100.943481	1492.816040	1105.995972	1.289320
887.936340	1102.429443	1471.713989	1102.132202	-0.080491
888.229736	1104.138428	1452.915405	1109.042358	1.406036
888.523071	1089.797974	1441.769897	1115.135132	7.198630
888.816284	1093.141602	1424.977539	1121.748169	8.620696
889.109619	1090.764038	1416.655640	1113.723511	7.045125
889.402710	1090.243896	1407.367798	1112.460327	7.005599
889.695862	1090.838379	1401.349243	1104.435669	4.379006
889.988892	1096.931030	1390.872559	1107.482056	3.589498
890.281921	1103.172607	1379.132690	1102.280884	-0.323135
>>>>>End Processed Spectral Data<<<<<
