Jaz Data File
++++++++++++++++++++++++++++++++++++
Date: Fri Jun 04 11:31:40 2021
User: jaz
Dark Spectrum Present: Yes
Reference Spectrum Present: Yes
Processed Spectrum Present: Yes
Spectrometers: JAZA3586
Integration Time (usec): 48100 (JAZA3586)
Spectra Averaged: 10 (JAZA3586)
Boxcar Smoothing: 1 (JAZA3586)
Correct for Electrical Dark: No (JAZA3586)
Strobe/Lamp Enabled: Yes (JAZA3586)
Correct for Detector Non-linearity: No (JAZA3586)
Correct for Stray Light: No (JAZA3586)
Number of Pixels in Processed Spectrum: 2048
>>>>>Begin Processed Spectral Data<<<<<
W	D	R	S	P
191.335022	0.000000	0.000000	0.000000	0.000000
191.713211	471.896606	472.045166	468.181427	-2500.801270
192.091385	951.149109	946.765198	939.706543	261.012726
192.469528	1429.955688	1419.776367	1412.048950	175.912888
192.847641	1441.621460	1414.277954	1409.151245	118.749275
193.225739	1446.079590	1421.485352	1415.318359	125.074944
193.603790	1455.292969	1432.482300	1417.324585	166.450104
193.981842	1456.704712	1446.748413	1435.008423	217.915207
194.359863	1459.751343	1449.051636	1442.735962	159.026611
194.737854	1462.351929	1459.454102	1444.816406	605.126587
195.115829	1468.444702	1463.317749	1440.878418	537.673828
195.493774	1471.268188	1460.494141	1437.609009	312.409790
195.871704	1476.766602	1456.927734	1441.770142	176.403519
196.249603	1481.076172	1459.676880	1442.290039	181.249603
196.627457	1478.847046	1466.512817	1435.379883	352.410889
197.005310	1472.085449	1467.032837	1434.414063	745.582397
197.383133	1462.872070	1467.107300	1436.345825	-626.323669
197.760910	1464.135132	1468.519043	1445.336548	-428.808502
198.138687	1463.614868	1462.426270	1441.918579	1825.367188
198.516449	1460.048462	1460.197266	1448.754395	-7589.909668
198.894180	1449.200195	1455.813110	1450.760620	23.596626
199.271866	1442.587280	1459.082520	1458.042358	93.694176
199.649536	1445.113647	1459.305298	1453.955688	62.304531
200.027191	1458.116699	1457.967896	1453.361328	3195.734131
200.404816	1458.934082	1457.670776	1453.955688	394.076721
200.782410	1454.921509	1463.540649	1449.646118	-61.205528
201.159988	1447.862915	1474.091675	1446.525391	-5.099457
201.537537	1452.023804	1479.367188	1448.828735	-11.684978
201.915070	1454.104126	1485.534180	1448.754517	-17.020681
202.292557	1454.624390	1488.877930	1447.193970	-21.692415
202.670029	1451.652344	1490.884155	1445.931030	-14.583353
203.047485	1457.745117	1493.336060	1450.834961	-19.415491
203.424911	1454.995972	1488.729370	1449.571777	-16.079596
203.802292	1454.104126	1483.082397	1454.104370	0.000842
204.179688	1442.958862	1475.800659	1448.308716	16.289770
204.557037	1435.602905	1476.469238	1459.751343	59.091274
204.934357	1435.231445	1478.401245	1445.633789	24.096344
205.311661	1431.664917	1477.881226	1445.262207	29.420979
205.688934	1437.609009	1481.001831	1439.763672	4.965483
206.066177	1432.110474	1482.265015	1452.543945	40.741020
206.443390	1436.271606	1486.277344	1457.447754	42.347435
206.820587	1438.500854	1478.401367	1458.636719	50.465176
207.197769	1440.209595	1480.778931	1449.423218	22.710806
207.574921	1440.358276	1472.011353	1447.194214	21.596439
207.952042	1431.664917	1469.410645	1437.683472	15.944996
208.329147	1433.076660	1469.708008	1435.900269	7.708175
208.706223	1444.519165	1484.791382	1449.794800	13.099936
209.083267	1447.937134	1491.850220	1454.252930	14.382492
209.460297	1448.680176	1489.695313	1454.698608	14.673687
209.837280	1442.364380	1481.670532	1439.763794	-6.616231
210.214264	1444.593384	1480.927612	1443.256226	-3.680161
210.591217	1439.466431	1485.236938	1439.541016	0.162954
210.968124	1432.928101	1487.837524	1442.587280	17.591114
211.345016	1434.859863	1488.655151	1440.209595	9.944610
211.721893	1438.129272	1485.237183	1444.222046	12.933653
212.098724	1441.026978	1485.237183	1444.519165	7.899053
212.475555	1440.358398	1484.196899	1443.033203	6.101497
212.852356	1439.541016	1484.345337	1456.927734	38.805897
213.229126	1435.825806	1481.521973	1454.624390	41.138206
213.605865	1438.649292	1480.556030	1455.144531	39.361782
213.982590	1444.444946	1477.732544	1438.797852	-16.964561
214.359283	1445.856812	1485.608765	1436.197266	-24.299551
214.735931	1441.026978	1489.620972	1434.488281	-13.455770
215.112579	1439.317993	1498.165649	1439.392212	0.126120
215.489197	1443.330444	1492.295898	1441.175659	-4.400623
215.865799	1440.432617	1492.890259	1442.661621	4.249150
216.242355	1435.974487	1484.642578	1437.311890	2.748007
216.618896	1428.023926	1479.961548	1435.082642	13.590756
216.995407	1429.138550	1477.955444	1430.550293	2.891915
217.371902	1429.212891	1484.048340	1442.141602	23.577286
217.748367	1429.212891	1491.106934	1445.708008	26.650574
218.124802	1432.705078	1489.026367	1448.457397	27.968678
218.501236	1428.321289	1493.261719	1444.890747	25.514858
218.877609	1429.138672	1488.283569	1442.141602	21.984871
219.253983	1428.618530	1491.478516	1442.290039	21.749144
219.630295	1427.429565	1489.175171	1433.968140	10.589538
220.006592	1429.435913	1489.918091	1438.649292	15.233212
220.382889	1426.538086	1491.924316	1434.191040	11.704229
220.759140	1435.751587	1486.203003	1441.175415	10.750596
221.135391	1441.992798	1497.868530	1444.296265	4.122482
221.511581	1449.125977	1496.902466	1456.333374	15.085657
221.887772	1442.735962	1503.887085	1452.023804	15.188342
222.263931	1433.299438	1497.348267	1449.125977	24.710114
222.640060	1434.191040	1497.868530	1449.200195	23.570581
223.016159	1439.243774	1499.354492	1455.590332	27.194082
223.392212	1440.581177	1506.264648	1444.444824	5.882222
223.768265	1433.968140	1506.487671	1434.042603	0.102680
224.144302	1431.590454	1511.020020	1439.466431	9.915674
224.520294	1439.317993	1506.710571	1450.611938	16.758440
224.896286	1439.838013	1512.580444	1453.212524	18.386122
225.272217	1441.918579	1502.029419	1449.571655	12.731607
225.648148	1438.574829	1501.435181	1457.002075	29.314577
226.024048	1436.866211	1500.617798	1456.853516	31.351854
226.399902	1437.386230	1510.351440	1456.630493	26.374573
226.775772	1436.197266	1511.985962	1441.398438	6.862728
227.151581	1444.519165	1516.146973	1450.240601	7.987730
227.527374	1444.890625	1522.314087	1446.748413	2.399516
227.903137	1444.964966	1533.459595	1456.556274	13.098319
228.278870	1437.609009	1548.988892	1451.726563	12.675138
228.654572	1438.946655	1563.849243	1459.676880	16.597115
229.030273	1437.757813	1585.322876	1449.943359	8.257745
229.405930	1438.797852	1595.725220	1454.029907	9.706437
229.781555	1434.562622	1603.824341	1447.937134	7.901676
230.157181	1433.522461	1599.291870	1460.197144	16.091438
230.532761	1430.773315	1592.827515	1457.150757	16.276926
230.908325	1427.652466	1584.208374	1460.048462	20.692924
231.283859	1423.491577	1579.155762	1461.088745	24.152740
231.659332	1426.686523	1576.852417	1466.512817	26.521530
232.034821	1429.733032	1576.703735	1466.884399	25.278076
232.410263	1437.311890	1570.388062	1470.525269	24.958172
232.785690	1430.030273	1567.415894	1469.633667	28.826447
233.161087	1434.711304	1562.957642	1469.930664	27.462275
233.536469	1435.900024	1574.920532	1459.528320	16.996267
233.911804	1442.884644	1585.322876	1452.692505	6.885695
234.287140	1439.169434	1590.821289	1450.240601	7.300384
234.662430	1441.844360	1594.833618	1456.630493	9.664818
235.037704	1442.215820	1595.873657	1465.695679	15.280612
235.412933	1445.187866	1597.805664	1460.865845	10.272707
235.788162	1440.506836	1603.452759	1461.311646	12.767922
236.163345	1440.506836	1608.431030	1459.008179	11.017675
236.538513	1434.934204	1612.666138	1469.856445	19.648829
236.913635	1440.952637	1608.208130	1475.577759	20.701935
237.288742	1443.627563	1617.718872	1474.834595	17.925669
237.663834	1446.748169	1622.325684	1470.971069	13.796129
238.038879	1440.952637	1620.839478	1467.255737	14.622026
238.413910	1440.804077	1615.564087	1470.525269	17.006861
238.788910	1440.135376	1610.882935	1480.035767	23.368059
239.163879	1442.810181	1615.266968	1480.927368	22.102457
239.538834	1439.541016	1624.183228	1485.236938	24.748362
239.913757	1436.568848	1646.696899	1489.026489	24.964607
240.288651	1440.655640	1674.040405	1500.097656	25.469536
240.663528	1442.587402	1691.724243	1504.704468	24.932911
241.038361	1445.931030	1713.866577	1508.642578	23.405460
241.413177	1437.237671	1738.237793	1512.506226	25.006155
241.787979	1436.271851	1779.995972	1526.178101	26.156515
242.162735	1435.380005	1823.165649	1535.242798	25.752060
242.537476	1435.157227	1854.298706	1539.329590	24.853746
242.912170	1435.380005	1873.766113	1544.679321	24.932203
243.286865	1433.076660	1878.447266	1541.410034	24.324320
243.661514	1438.797852	1868.193359	1555.527466	27.184637
244.036148	1437.980469	1851.029297	1547.874390	26.605553
244.410751	1442.215820	1837.432007	1555.527344	28.670771
244.785339	1433.002319	1837.877808	1550.994995	29.142954
245.159882	1431.739258	1852.143921	1554.784546	29.268297
245.534378	1427.652466	1876.366699	1564.666626	30.534838
245.908890	1427.355347	1927.189819	1586.437500	31.826967
246.283356	1431.070313	1998.371704	1613.780884	32.206966
246.657791	1430.030273	2085.157227	1641.124146	32.221828
247.032196	1435.008423	2150.543701	1662.746216	31.827612
247.406586	1438.277832	2194.382080	1693.433228	33.746059
247.780960	1440.135376	2214.964111	1703.018433	33.927891
248.155289	1446.822388	2208.425537	1699.897827	33.229305
248.529602	1440.135376	2171.571289	1679.018555	32.659481
248.903870	1440.952759	2101.875244	1662.746216	33.558167
249.278122	1434.637085	2040.724243	1638.449219	33.627529
249.652344	1429.807251	1983.213867	1622.102661	34.747581
250.026550	1428.469727	1945.096680	1614.003784	35.912579
250.400711	1433.448120	1919.462280	1615.043945	37.364307
250.774857	1437.609009	1923.846069	1615.489868	36.583157
251.148987	1448.234375	1937.369141	1613.706543	33.829567
251.523071	1446.079590	1967.759155	1617.867554	32.929787
251.897125	1446.079468	1988.563843	1623.960327	32.790043
252.271164	1441.844238	2013.157837	1634.213989	33.671482
252.645187	1438.426392	2014.198242	1639.489624	34.920643
253.019165	1444.965210	2004.835938	1641.347046	35.076283
253.393112	1437.163452	1984.625610	1633.025024	35.776276
253.767044	1438.649414	1961.145874	1618.907593	34.499405
254.140930	1434.265503	1932.019165	1615.489746	36.408421
254.514801	1436.420288	1905.716187	1613.111938	37.650372
254.888657	1430.996094	1898.434570	1616.901489	39.771095
255.262466	1429.212891	1908.539673	1621.211060	40.055798
255.636276	1428.321289	1926.595215	1632.728027	41.022964
256.010010	1427.503906	1948.588867	1642.758789	41.308979
256.383759	1425.349121	1966.495728	1644.170532	40.436623
256.757446	1427.132446	1998.668945	1651.526733	39.261585
257.131134	1428.172485	2039.386719	1670.994019	39.727730
257.504791	1428.692749	2099.349365	1700.194946	40.483040
257.878418	1432.036255	2172.611572	1727.241211	39.861572
258.252014	1435.082642	2262.517822	1754.212891	38.568611
258.625580	1429.732910	2370.182373	1798.943359	39.258934
258.999115	1422.451294	2498.354492	1864.552734	41.091190
259.372650	1420.370972	2634.774658	1929.864624	41.954224
259.746124	1424.160278	2766.067627	1979.201660	41.362125
260.119598	1430.624634	2848.468994	2014.792603	41.201134
260.493042	1435.379883	2861.769531	2024.674927	41.313751
260.866425	1444.742065	2812.878174	2000.452148	40.618042
261.239838	1438.426392	2715.615723	1951.932617	40.205959
261.613159	1435.082642	2594.353760	1906.385132	40.655071
261.986511	1423.640015	2483.196777	1875.549438	42.650799
262.359802	1428.989868	2397.600098	1847.760132	43.234135
262.733063	1426.315063	2367.358887	1832.007935	43.110943
263.106293	1427.875366	2351.160889	1822.794312	42.773220
263.479523	1429.510132	2347.594482	1813.060669	41.777267
263.852692	1436.123047	2326.492676	1808.528320	41.825920
264.225861	1438.574829	2316.536133	1809.196899	42.213940
264.598969	1431.070313	2325.675049	1808.082520	42.142879
264.972076	1432.779297	2355.990967	1817.816284	41.706253
265.345154	1441.769897	2392.250244	1835.277344	41.400902
265.718201	1449.200195	2430.442139	1857.270874	41.587162
266.091217	1450.686157	2479.110107	1885.208618	42.251297
266.464203	1440.061035	2535.951904	1899.400391	41.914700
266.837158	1427.058105	2588.335205	1930.235962	43.329697
267.210114	1417.918823	2637.597900	1934.099731	42.321045
267.583038	1424.977539	2657.956787	1951.189453	42.678085
267.955902	1432.259155	2673.560303	1957.951050	42.350071
268.328766	1440.506836	2661.226318	1978.681519	44.086678
268.701569	1434.339844	2671.108398	1982.842407	44.349651
269.074371	1434.859863	2672.966064	1984.402832	44.385769
269.447144	1427.206665	2706.996826	1987.151978	43.752899
269.819885	1434.042480	2762.872314	2010.854492	43.407516
270.192596	1437.311890	2860.655029	2064.129639	44.038414
270.565277	1441.621216	2979.910889	2129.516113	44.718163
270.937927	1439.763672	3103.699219	2196.611572	45.485409
271.310577	1439.392212	3207.351563	2235.471680	45.028156
271.683136	1444.222046	3275.041016	2268.090576	45.000000
272.055725	1439.615234	3305.282227	2278.641602	44.971924
272.428284	1445.708008	3281.059326	2277.081055	45.297760
272.800812	1439.392212	3239.969971	2259.620117	45.553596
273.173279	1441.026978	3158.237061	2233.391357	46.142540
273.545776	1432.333618	3129.705078	2221.948486	46.519863
273.918152	1436.866089	3093.073486	2204.635986	46.357109
274.290558	1438.574829	3082.671143	2205.824951	46.666981
274.662964	1444.519165	3059.934814	2201.515381	46.860771
275.035278	1442.290039	3069.519775	2212.586182	47.337887
275.407593	1436.420288	3105.928467	2213.923828	46.570812
275.779907	1428.023926	3151.772705	2238.146484	46.997715
276.152161	1424.085938	3205.939453	2261.774658	47.012211
276.524384	1437.460571	3249.852295	2293.873291	47.253181
276.896606	1440.581055	3279.276123	2305.019043	47.013668
277.268799	1451.280762	3283.734375	2303.532959	46.508801
277.640930	1445.262085	3290.347412	2309.328369	46.830696
278.013031	1449.423218	3302.904541	2313.192383	46.602528
278.385162	1444.890625	3323.932373	2324.412109	46.806915
278.757233	1440.581177	3321.553955	2328.796143	47.221043
279.129272	1441.398438	3344.365234	2344.993896	47.483513
279.501282	1441.398438	3362.866943	2362.603760	47.942776
279.873230	1446.451172	3427.807373	2405.699219	48.413712
280.245178	1440.283813	3522.989014	2446.045898	48.291142
280.617126	1437.014648	3638.083984	2511.506348	48.816803
280.988983	1440.581055	3753.104736	2548.137451	47.893841
281.360870	1445.039429	3844.274170	2604.087646	48.309078
281.732697	1447.416992	3932.843018	2647.257080	48.275028
282.104492	1441.621460	3981.585693	2675.864014	48.592907
282.476288	1431.813477	3999.641357	2690.130127	49.003155
282.848053	1433.076538	3996.668945	2688.049561	48.953690
283.219757	1428.841309	3986.341064	2693.325195	49.442188
283.591461	1438.723633	3977.647705	2682.253906	48.978630
283.963135	1436.197266	3983.369141	2697.040283	49.499722
284.334747	1441.324219	4030.699951	2720.668213	49.407429
284.706360	1444.593628	4107.826172	2769.782471	49.758663
285.077942	1445.559448	4201.595703	2813.769531	49.644127
285.449524	1441.026978	4298.635254	2862.809326	49.754276
285.821014	1441.472656	4337.347168	2871.428467	49.379066
286.192535	1439.763794	4373.978516	2888.295654	49.366932
286.563995	1443.330444	4363.650391	2896.022705	49.744286
286.935425	1436.048706	4335.266602	2899.886719	50.490791
287.306824	1433.670898	4261.855957	2860.655029	50.455826
287.678223	1431.664917	4187.403809	2822.834717	50.482643
288.049561	1429.881470	4150.401367	2798.091797	50.292236
288.420898	1427.949829	4143.490723	2794.302002	50.316021
288.792145	1427.429565	4181.979980	2808.494141	50.137569
289.163452	1433.745483	4256.877441	2853.893555	50.303993
289.534668	1432.184937	4357.186035	2914.895752	50.690952
289.905914	1436.494507	4462.324219	2969.656982	50.669163
290.277039	1436.123047	4544.354004	3027.835938	51.209606
290.648193	1444.222046	4603.425293	3066.919189	51.364128
291.019318	1447.119751	4604.391113	3090.027344	52.035679
291.390381	1449.720337	4559.289551	3064.392822	51.925919
291.761475	1443.999023	4487.438965	3021.520264	51.833492
292.132507	1437.163452	4443.748535	2994.028076	51.781826
292.503510	1433.076660	4439.810059	2998.114502	52.051102
292.874481	1433.596680	4473.692383	3026.052490	52.381767
293.245422	1434.488281	4559.140625	3068.702393	52.300671
293.616364	1438.129272	4692.736816	3130.447998	51.997631
293.987213	1445.931030	4837.330078	3204.230469	51.845844
294.358093	1447.937134	4945.737793	3276.601318	52.280399
294.728943	1441.175659	5052.361816	3329.727783	52.297283
295.099731	1432.036499	5159.654785	3390.061768	52.527515
295.470490	1428.024048	5277.350586	3440.661865	52.285450
295.841248	1432.705078	5349.721191	3495.571533	52.664230
296.211975	1431.441772	5459.466797	3545.725830	52.489353
296.582642	1438.649292	5563.639160	3603.533203	52.482162
296.953308	1434.785522	5636.679199	3642.690674	52.545483
297.323883	1442.661621	5608.814941	3650.046875	52.983772
297.694519	1434.711304	5524.333496	3605.911133	53.090473
298.065063	1436.048706	5411.170410	3542.531006	52.991646
298.435608	1437.163208	5269.623535	3452.252930	52.579533
298.806122	1444.816406	5078.516602	3355.659424	52.586700
299.176575	1447.268433	4905.911621	3272.217529	52.764885
299.547028	1451.578003	4787.547852	3210.992188	52.740711
299.917450	1441.621460	4734.941406	3196.725830	53.292862
300.287872	1436.494507	4727.510742	3196.057373	53.465641
300.658234	1423.640137	4703.659668	3198.806396	54.120602
301.028564	1427.578125	4684.489258	3184.688721	53.950214
301.398865	1430.104492	4639.090332	3180.750732	54.554501
301.769135	1442.661743	4601.195801	3163.958252	54.496689
302.139374	1442.884644	4566.496582	3145.382813	54.504154
302.509583	1443.999146	4532.763184	3115.290283	54.108734
302.879791	1436.197266	4482.757324	3087.129639	54.190048
303.249939	1435.825806	4433.197266	3063.129639	54.291027
303.620087	1433.671021	4381.482910	3040.838867	54.520702
303.990173	1426.092163	4366.919434	3039.055420	54.847263
304.360260	1434.562622	4362.981445	3052.207031	55.239513
304.730286	1443.850464	4371.080566	3053.767578	54.997971
305.100281	1456.184692	4361.050293	3060.900391	55.242336
305.470276	1449.794556	4368.554199	3060.974609	55.200844
305.840179	1442.884399	4381.408691	3078.956055	55.676640
306.210144	1442.438599	4422.572266	3087.500977	55.200958
306.579987	1441.695679	4449.618652	3092.925049	54.896000
306.949890	1443.478882	4489.370605	3124.280518	55.182583
307.319702	1437.831909	4567.165527	3171.240234	55.392254
307.689484	1435.974487	4664.576172	3242.645264	55.958305
308.059265	1429.733032	4784.129395	3293.022217	55.547672
308.429016	1427.355347	4859.472168	3355.510986	56.179779
308.798737	1421.262329	4937.638672	3414.358643	56.680401
309.168396	1425.126099	4972.263672	3452.252930	57.148243
309.538055	1432.928101	4995.148926	3467.782227	57.123192
309.907684	1441.175415	4976.944824	3462.283936	57.161774
310.277313	1446.005371	4993.960449	3471.497314	57.088997
310.646851	1441.249878	4990.690918	3480.488281	57.452385
311.016388	1443.404663	4993.885254	3490.964844	57.669945
311.385895	1434.414063	4937.489746	3465.181641	57.970989
311.755371	1435.528687	4887.410156	3449.949951	58.357201
312.124817	1429.510132	4830.345215	3411.089600	58.267441
312.494232	1435.379883	4776.253418	3397.714844	58.737183
312.863617	1435.528442	4758.494629	3372.971924	58.304638
313.232971	1440.581055	4775.064453	3395.634033	58.631359
313.602295	1444.593384	4849.664063	3441.627686	58.648834
313.971619	1442.215820	4912.895996	3501.367188	59.329906
314.340820	1442.215820	4949.081055	3522.320313	59.315212
314.710083	1434.711304	4944.696777	3522.097656	59.469940
315.079285	1440.655640	4895.806152	3486.803711	59.220230
315.448486	1446.451050	4819.273926	3458.865967	59.665600
315.817596	1448.828735	4715.993652	3401.132813	59.755295
316.186707	1440.878418	4615.907715	3357.071289	60.351974
316.555786	1437.386230	4524.144043	3296.885986	60.241196
316.924866	1437.757690	4470.274902	3269.914063	60.417019
317.293884	1437.980469	4461.655273	3253.493164	60.043251
317.662872	1434.191040	4467.673828	3273.703857	60.640289
318.031830	1427.280884	4502.150391	3302.012939	60.969482
318.400757	1424.308960	4529.270996	3333.145752	61.476978
318.769684	1427.429565	4560.032227	3353.579102	61.487198
319.138550	1427.652466	4562.855957	3361.083740	61.668442
319.507416	1434.785522	4537.964355	3348.972412	61.684711
319.876190	1431.590454	4489.519043	3336.712158	62.301052
320.244995	1439.615112	4410.758301	3306.694092	62.840427
320.613770	1437.311890	4348.641113	3290.941650	63.669537
320.982483	1434.711304	4348.121094	3287.449463	63.593464
321.351166	1423.640137	4391.885254	3309.145752	63.522572
321.719818	1425.720581	4458.608887	3353.504639	63.562649
322.088440	1431.813477	4565.233398	3414.878662	63.287567
322.457062	1442.661743	4722.606934	3508.722656	62.990715
322.825623	1443.999023	4880.945801	3614.901367	63.163689
323.194183	1447.640015	5018.331543	3706.071045	63.249126
323.562653	1435.751465	5081.934570	3763.804443	63.849041
323.931183	1433.076660	5110.689453	3787.952881	64.032738
324.299591	1425.869141	5062.912598	3783.420654	64.820549
324.668060	1431.293335	5006.517090	3762.095703	65.193184
325.036407	1432.779297	4945.068848	3715.656250	64.996834
325.404755	1434.339722	4876.189941	3663.570068	64.768379
325.773102	1429.955933	4809.540527	3617.055908	64.715057
326.141388	1432.853638	4731.597168	3574.629639	64.927017
326.509674	1433.225098	4660.935547	3522.914795	64.742165
326.877899	1444.370483	4599.412598	3477.218750	64.431732
327.246124	1440.135254	4554.607910	3446.754883	64.428871
327.614288	1445.187866	4527.784668	3429.293701	64.364754
327.982422	1447.342651	4496.875000	3428.253174	64.957848
328.350525	1443.404663	4489.296387	3430.853760	65.250160
328.718628	1439.392212	4516.640137	3459.980469	65.662186
329.086700	1432.333618	4566.645508	3481.900146	65.391266
329.454712	1437.088867	4623.858398	3517.194092	65.273163
329.822693	1436.940308	4648.229980	3553.750732	65.917770
330.190674	1436.717407	4686.347168	3588.003906	66.200974
330.558563	1435.751465	4722.829590	3619.656982	66.439110
330.926483	1436.197266	4805.379395	3664.164307	66.127831
331.294312	1441.250000	4901.527344	3710.529297	65.580849
331.662231	1442.513062	5013.130371	3782.454346	65.533249
332.029999	1442.513062	5115.667969	3831.791260	65.047035
332.397766	1438.352051	5162.627441	3883.505859	65.654488
332.765503	1433.671021	5206.763184	3913.673096	65.728630
333.133240	1433.745239	5223.778809	3938.564453	66.089630
333.500916	1428.098267	5241.239746	3949.635498	66.127548
333.868561	1435.825806	5209.066406	3935.443604	66.245911
334.236176	1432.705078	5175.333496	3918.502686	66.418495
334.603790	1441.992798	5135.729980	3888.112549	66.223434
334.971344	1436.866089	5123.990234	3873.401123	66.082268
335.338867	1437.163086	5075.544434	3859.060547	66.565247
335.706360	1434.859741	5070.194824	3858.391846	66.665993
336.073853	1437.311890	5071.012207	3867.828125	66.888184
336.441284	1434.339844	5132.832031	3878.304688	66.080032
336.808655	1433.968262	5172.732910	3893.165283	65.775658
337.176086	1433.819702	5217.017090	3918.130859	65.666969
337.543396	1439.540894	5223.481934	3927.493164	65.750290
337.910706	1439.615234	5232.249023	3934.106201	65.771996
338.277954	1440.506836	5214.490723	3914.564453	65.555595
338.645264	1442.438843	5182.986328	3898.664063	65.664856
339.012421	1443.924805	5119.085938	3870.354492	66.022400
339.379669	1444.519165	5039.284668	3814.404297	65.926003
339.746796	1437.757446	4963.718750	3757.934326	65.802673
340.113953	1439.169434	4926.790527	3724.795654	65.535393
340.481018	1439.020874	4903.013672	3713.055664	65.647789
340.848114	1448.902954	4907.174316	3711.420654	65.423363
341.215118	1445.931030	4943.805664	3732.671143	65.375137
341.582153	1444.593384	5062.764160	3796.943359	65.014900
341.949066	1435.157227	5231.580078	3903.344482	65.013496
342.316010	1435.974487	5442.971191	4034.711914	64.854988
342.682922	1433.671021	5658.226563	4186.660645	65.166374
343.049835	1434.934204	5949.938965	4359.043457	64.764259
343.416656	1434.785522	6232.660645	4533.877930	64.593018
343.783478	1437.088867	6493.908691	4675.721191	64.044846
344.150269	1433.596680	6621.857910	4765.776367	64.225365
344.516998	1429.807251	6648.979004	4785.243652	64.290596
344.883728	1426.760864	6581.734863	4719.411621	63.873276
345.250427	1423.045898	6475.259277	4648.155762	63.835583
345.617065	1424.606079	6338.319824	4545.840332	63.520882
345.983704	1428.544067	6200.264160	4476.367188	63.872631
346.350281	1436.494507	6062.953125	4375.761719	63.531685
346.716827	1437.088867	5929.282715	4279.464844	63.273670
347.083405	1440.506836	5838.559082	4211.255371	62.999447
347.449860	1444.147827	5771.463379	4159.614746	62.751766
347.816376	1448.903198	5751.550781	4138.290039	62.505394
348.182770	1441.546997	5737.358887	4130.562500	62.596214
348.549194	1439.317993	5762.547363	4149.212891	62.682194
348.915558	1429.732788	5846.806641	4193.125488	62.561615
349.281921	1425.200562	5925.493652	4234.065918	62.415165
349.648193	1421.113770	5978.693848	4249.520996	62.059410
350.014526	1425.646484	5978.917480	4265.050293	62.359650
350.380737	1428.841431	6014.136719	4291.427734	62.429707
350.746948	1433.745239	6075.361816	4337.792969	62.565437
351.113159	1433.150879	6137.999512	4372.714844	62.479458
351.479309	1438.575073	6194.097656	4396.269531	62.194939
351.845428	1439.243774	6286.529785	4436.095703	61.825359
352.211517	1446.599731	6412.695801	4489.816406	61.279861
352.577576	1443.701782	6535.667480	4558.397949	61.168839
352.943604	1441.770142	6659.827637	4630.025879	61.100433
353.309601	1439.392456	6801.299316	4693.479980	60.688995
353.675537	1443.404663	6961.347656	4763.398926	60.167244
354.041473	1437.163208	7113.445313	4833.688965	59.837158
354.407379	1435.008423	7212.193848	4899.744141	59.972729
354.773254	1434.711060	7339.771484	4951.310547	59.552303
355.139038	1439.838013	7485.107422	5036.089844	59.488693
355.504913	1444.742065	7730.455078	5164.039551	59.170654
355.870636	1435.528442	7995.121094	5336.421387	59.468525
356.236389	1436.420288	8263.577148	5499.070313	59.507202
356.602081	1435.379883	8513.458008	5636.678223	59.356483
356.967804	1444.073242	8689.778320	5727.550781	59.117470
357.333405	1443.553345	8816.983398	5756.677734	58.495495
357.699036	1435.008423	8831.250000	5762.696777	58.511993
358.064606	1435.602905	8790.605469	5713.953613	58.169262
358.430176	1436.568848	8710.062500	5652.653809	57.965061
358.795654	1438.575073	8728.786133	5642.103027	57.659893
359.161163	1438.649292	8893.961914	5721.755371	57.450390
359.526581	1438.277710	9261.239258	5898.670410	57.016678
359.892029	1441.621216	9759.141602	6140.451172	56.493160
360.257416	1435.974487	10316.487305	6436.992676	56.314518
360.622772	1431.367676	10760.148438	6695.046875	56.424084
360.988098	1432.482300	11062.858398	6859.553223	56.353676
361.353394	1427.875488	11169.258789	6888.085449	56.051693
361.718658	1435.677124	11046.065430	6780.791504	55.618088
362.083893	1432.333618	10667.195313	6567.691406	55.608391
362.449097	1446.748169	10063.040039	6248.486816	55.728600
362.814209	1446.673828	9419.950195	5891.610840	55.747936
363.179382	1453.286743	8826.791992	5527.230469	55.251114
363.544434	1449.720337	8405.570313	5267.839844	54.890770
363.909546	1440.804077	8138.451172	5116.113770	54.874638
364.274536	1437.683228	7986.502441	5022.418457	54.738651
364.639587	1432.184937	7858.032715	4918.171387	54.249439
365.004517	1431.813477	7771.767578	4839.484863	53.749149
365.369507	1432.779419	7704.226563	4772.092285	53.246288
365.734344	1435.380005	7702.814453	4764.513184	53.117958
366.099274	1443.924805	7701.328125	4731.820313	52.544086
366.464081	1446.525391	7685.428223	4713.245117	52.360485
366.828918	1448.382935	7639.583496	4653.654297	51.771404
367.193665	1452.023804	7548.859375	4593.171387	51.520950
367.558411	1450.611938	7482.655762	4538.633301	51.193619
367.923126	1448.605835	7398.618652	4495.166504	51.202587
368.287781	1438.946655	7365.107910	4464.553223	51.055084
368.652435	1439.392212	7316.143066	4433.643555	50.950798
369.017059	1438.872070	7328.477051	4408.826660	50.427059
369.381653	1443.627563	7361.542480	4402.436035	49.997482
369.746185	1438.055054	7444.464355	4423.092285	49.697533
370.110687	1433.299438	7521.292969	4453.481934	49.608833
370.475220	1433.448120	7597.898438	4486.621094	49.528713
370.839661	1432.333618	7644.114746	4493.754395	49.284107
371.204041	1431.590454	7685.872559	4504.453613	49.132149
371.568451	1424.754883	7695.978027	4483.574707	48.775490
371.932770	1423.342896	7674.505371	4458.460449	48.552853
372.297150	1431.442017	7641.068848	4411.352539	47.988560
372.661377	1441.324097	7626.059082	4397.755371	47.802067
373.025696	1442.735840	7657.563965	4383.934570	47.325504
373.389862	1444.370483	7729.118652	4393.445801	46.924320
373.754059	1446.376587	7818.949707	4406.968750	46.458347
374.118225	1449.125977	7930.701172	4432.825684	46.033558
374.482361	1446.822632	8075.070801	4465.147461	45.537292
374.846436	1430.698853	8290.697266	4529.939941	45.178452
375.210510	1424.383179	8590.137695	4633.740723	44.787434
375.574524	1417.250000	8893.069336	4746.086426	44.528049
375.938538	1420.370728	9202.243164	4863.112793	44.240536
376.302460	1422.376953	9425.077148	4945.291992	44.021580
376.666412	1435.900024	9586.833984	5001.242188	43.741516
377.030304	1441.324219	9573.385742	4981.849121	43.537853
377.394196	1445.336548	9472.110352	4912.821777	43.198990
377.757996	1445.633789	9259.605469	4786.729980	42.757977
378.121796	1446.376587	8989.068359	4634.186035	42.263554
378.485565	1448.605835	8711.845703	4493.457031	41.921391
378.849304	1441.026978	8480.763672	4401.990234	42.060711
379.212982	1446.971313	8355.415039	4325.310059	41.664070
379.576630	1449.869019	8291.663086	4278.202148	41.339054
379.940277	1447.565552	8292.109375	4231.168457	40.668934
380.303864	1446.673828	8274.871094	4216.828125	40.569336
380.667450	1433.522339	8271.527344	4201.893066	40.485062
381.030945	1430.996094	8257.038086	4186.810059	40.372063
381.394501	1426.537964	8282.970703	4176.556152	40.108585
381.757935	1431.144653	8339.440430	4140.742188	39.222374
382.121399	1435.082642	8432.319336	4141.708496	38.681355
382.484741	1438.277832	8578.100586	4170.537109	38.267887
382.848145	1438.203491	8719.499023	4227.007324	38.300926
383.211487	1438.574829	8860.376953	4236.369629	37.696976
383.574768	1428.098267	8950.133789	4241.645020	37.404060
383.938019	1428.098267	8982.975586	4225.893066	37.032963
384.301270	1429.510132	8980.078125	4224.258301	37.013748
384.664459	1431.887695	9002.442383	4203.379395	36.608833
385.027649	1429.510132	9051.706055	4186.586914	36.171684
385.390778	1427.949707	9149.785156	4198.400879	35.878143
385.753876	1435.082642	9233.970703	4195.800293	35.398865
386.116943	1436.643066	9341.412109	4207.391602	35.051605
386.479980	1438.649292	9392.161133	4178.339355	34.446293
386.842987	1431.887695	9421.065430	4156.717285	34.106510
387.205994	1438.797852	9416.384766	4119.565918	33.603745
387.568909	1436.048706	9407.096680	4102.401855	33.450470
387.931793	1442.141602	9337.696289	4057.894531	33.129440
388.294678	1433.745483	9299.133789	4027.430420	32.975933
388.657471	1433.150879	9258.044922	3993.399658	32.719276
389.020294	1436.271484	9332.645508	3988.347412	32.319592
389.383057	1440.358276	9500.198242	4004.322266	31.811598
389.745819	1444.370605	9722.511719	4031.740234	31.255444
390.108521	1441.695801	9961.542969	4075.578857	30.914673
390.471191	1444.667847	10207.708008	4131.677246	30.662981
390.833801	1445.039429	10443.024414	4186.586914	30.468458
391.196442	1442.141602	10624.545898	4212.964355	30.175352
391.558960	1435.825806	10658.428711	4194.240234	29.909286
391.921509	1433.671021	10601.512695	4147.800781	29.604895
392.284027	1429.881470	10545.339844	4103.145020	29.326708
392.646484	1431.516235	10508.708008	4062.352539	28.982935
393.008911	1430.104492	10509.004883	4031.888672	28.657482
393.371307	1437.014648	10513.983398	4011.901123	28.367250
393.733673	1435.008423	10463.606445	3981.139648	28.200741
394.096008	1435.454468	10375.706055	3926.527344	27.863564
394.458344	1429.881470	10241.886719	3858.763428	27.563328
394.820587	1436.271484	10046.916016	3772.943604	27.137018
395.182831	1439.540894	9843.401367	3705.476807	26.963037
395.545013	1436.791870	9605.558594	3625.229736	26.790312
395.907196	1432.630859	9440.532227	3573.886719	26.739288
396.269287	1425.571899	9346.315430	3518.976807	26.429398
396.631409	1431.739258	9301.214844	3493.119385	26.194632
396.993469	1433.893921	9262.130859	3459.014404	25.869432
397.355530	1436.940430	9246.082031	3452.550049	25.810898
397.717499	1437.906250	9277.139648	3439.175781	25.528893
398.079468	1439.763794	9322.836914	3423.052002	25.158819
398.441376	1430.624634	9331.901367	3403.733154	24.972021
398.803284	1429.435669	9301.512695	3381.219482	24.793758
399.165131	1426.463501	9291.778320	3369.628174	24.705490
399.526978	1430.550171	9257.821289	3344.514404	24.452511
399.888763	1434.859741	9255.815430	3323.635010	24.150185
400.250519	1434.785522	9249.945313	3303.796143	23.915194
400.612244	1441.324219	9298.985352	3298.223389	23.631702
400.973938	1432.630737	9380.049805	3309.517578	23.616306
401.335602	1432.333496	9470.402344	3309.888916	23.358290
401.697205	1433.968140	9606.821289	3320.514404	23.083080
402.058807	1438.426392	9746.288086	3324.155273	22.698126
402.420349	1438.723633	9987.400391	3378.619141	22.692348
402.781860	1439.466675	10218.555664	3414.061279	22.492022
403.143341	1437.014648	10434.776367	3455.002197	22.427662
403.504822	1440.878418	10607.530273	3467.261963	22.106037
403.866241	1440.284058	10730.649414	3480.339111	21.958824
404.227631	1439.392212	10836.532227	3484.872070	21.767048
404.588959	1440.729858	10854.067383	3483.608643	21.701960
404.950287	1435.900024	10820.333984	3463.918701	21.610455
405.311554	1436.791626	10717.276367	3427.807373	21.453791
405.672821	1433.893921	10601.437500	3374.086670	21.163713
406.034027	1435.008423	10463.160156	3328.316162	20.971157
406.395203	1428.544312	10308.461914	3270.880127	20.747217
406.756348	1427.578247	10209.193359	3233.728516	20.567404
407.117493	1425.943481	10157.627930	3202.001221	20.340380
407.478516	1436.494629	10182.592773	3183.054443	19.969589
407.839600	1439.838257	10237.726563	3166.410400	19.624847
408.200592	1448.977417	10356.536133	3161.655273	19.227242
408.561554	1444.444824	10491.171875	3177.333008	19.154863
408.922485	1433.448120	10619.122070	3185.655029	19.075432
409.283417	1428.989868	10694.613281	3193.085205	19.039145
409.644257	1429.138550	10783.776367	3189.815674	18.821436
410.005096	1438.426270	10851.838867	3192.639404	18.635252
410.365906	1437.609009	10869.225586	3166.485107	18.330645
410.726715	1442.215820	10839.207031	3144.119873	18.111160
411.087433	1438.797852	10770.773438	3105.259521	17.857544
411.448120	1441.546997	10749.894531	3080.516602	17.607525
411.808807	1438.946411	10713.114258	3059.711670	17.476126
412.169434	1441.324219	10698.254883	3035.042969	17.216492
412.530029	1438.203491	10717.202148	3024.268799	17.093065
412.890564	1442.141602	10797.894531	3005.842041	16.713785
413.251099	1446.896851	10927.180664	3004.281982	16.427620
413.611572	1444.593384	11099.192383	3007.476807	16.187969
413.972076	1435.528687	11262.731445	3005.025146	15.970938
414.332489	1434.785522	11378.717773	3009.631592	15.837256
414.692871	1439.986694	11541.143555	3013.049561	15.573095
415.053223	1441.026978	11705.723633	3019.142334	15.374204
415.413574	1432.333496	11982.354492	3031.328125	15.156317
415.773834	1427.726929	12203.850586	3037.420898	14.937597
416.134094	1433.299438	12481.816406	3052.355469	14.654058
416.494263	1441.992798	12757.480469	3064.541260	14.339183
416.854462	1446.005249	13121.637695	3082.076904	14.012702
417.214630	1443.107422	13525.546875	3107.116943	13.772132
417.574738	1433.448242	13927.600586	3125.618164	13.543695
417.934784	1430.476074	14372.003906	3164.850342	13.401620
418.294861	1437.609009	14912.555664	3219.759766	13.225661
418.654846	1440.209595	15502.593750	3282.471436	13.100636
419.014832	1441.918579	16095.530273	3325.789795	12.856020
419.374756	1438.129272	16682.000000	3369.405518	12.669198
419.734680	1441.472778	17343.294922	3416.736328	12.421618
420.094543	1435.305664	17885.259766	3450.395508	12.249822
420.454376	1434.191040	18225.195313	3458.866211	12.058095
420.814148	1432.630737	18374.544922	3440.661865	11.852446
421.173920	1435.008423	18513.265625	3428.699219	11.673854
421.533691	1442.290405	18631.779297	3397.714844	11.375699
421.893341	1448.457397	18708.384766	3364.501709	11.101114
422.253021	1446.673950	18673.685547	3325.269531	10.904942
422.612640	1437.163208	18632.375000	3299.709717	10.831775
422.972260	1435.677124	18606.814453	3279.053467	10.735319
423.331757	1434.414063	18688.544922	3265.010010	10.609610
423.691315	1436.494629	18837.968750	3248.292236	10.411748
424.050781	1433.299438	18844.583984	3216.119141	10.239450
424.410248	1440.061035	18701.103516	3165.072998	9.993671
424.769653	1441.101196	18377.662109	3107.636963	9.839871
425.128998	1444.444946	18051.103516	3046.931641	9.649664
425.488373	1449.794556	17598.228516	2978.721924	9.467961
425.847656	1447.788452	17190.529297	2911.849365	9.299911
426.206940	1445.484985	16767.078125	2853.001709	9.186491
426.566193	1441.026855	16417.113281	2807.825439	9.126541
426.925385	1437.609009	16012.014648	2754.921875	9.038536
427.284576	1440.061157	15616.574219	2701.052490	8.894933
427.643677	1437.163208	15315.796875	2641.759033	8.679499
428.002777	1442.215820	15122.089844	2585.586182	8.358047
428.361847	1435.677124	14931.875000	2553.338623	8.281306
428.720856	1432.556519	14708.075195	2514.106934	8.146955
429.079865	1433.002319	14534.281250	2484.906006	8.029015
429.438812	1436.048706	14468.968750	2457.265381	7.835670
429.797760	1433.448120	14442.145508	2443.519287	7.764584
430.156616	1425.423218	14346.889648	2424.200439	7.729596
430.515503	1420.370728	14276.971680	2391.358643	7.552447
430.874268	1424.160156	14288.785156	2365.427002	7.316707
431.233093	1433.596680	14376.312500	2351.383789	7.091148
431.591827	1433.522461	14542.901367	2352.052490	7.006663
431.950562	1434.339844	14666.390625	2342.987793	6.867023
432.309204	1427.875366	14811.950195	2335.260254	6.779586
432.667877	1437.832031	14993.471680	2323.223389	6.531535
433.026459	1446.451050	15098.461914	2317.279053	6.378753
433.385010	1453.435547	15157.382813	2300.040771	6.177820
433.743561	1447.565552	15123.203125	2271.805420	6.027067
434.102051	1442.587402	15146.682617	2252.709717	5.911534
434.460510	1438.946655	15192.304688	2246.171143	5.869290
434.818939	1442.884644	15183.165039	2245.651367	5.842433
435.177338	1446.302368	15173.878906	2235.026123	5.745543
435.535675	1443.702026	15163.625000	2212.215088	5.601439
435.894012	1434.785522	15177.221680	2191.781494	5.508455
436.252289	1422.748535	15340.242188	2187.843506	5.497362
436.610535	1428.246948	15448.872070	2179.447510	5.357825
436.968719	1433.373657	15717.625000	2179.670166	5.224611
437.326935	1437.980469	15945.289063	2177.664063	5.098696
437.685028	1431.144653	16239.528320	2185.540039	5.094380
438.043152	1430.327515	16422.164063	2185.911621	5.039970
438.401215	1433.299438	16696.339844	2176.475342	4.869121
438.759277	1439.615234	16999.794922	2173.280273	4.715016
439.117249	1440.283813	17522.216797	2179.001709	4.593465
439.475250	1442.215820	17894.843750	2176.177979	4.461063
439.833130	1440.804077	18339.173828	2184.722656	4.402310
440.191071	1440.283813	18508.361328	2179.298828	4.329808
440.548889	1441.770020	18600.869141	2179.967529	4.302076
440.906708	1439.095215	18500.115234	2155.224854	4.197461
441.264496	1440.878418	18299.646484	2131.522217	4.096645
441.622223	1437.683228	18097.541016	2113.615234	4.057250
441.979950	1438.872192	17805.904297	2089.243896	3.973669
442.337616	1434.488281	17603.353516	2071.114014	3.937356
442.695251	1428.692749	17353.250000	2049.789307	3.900244
443.052887	1424.680298	17290.615234	2046.965820	3.922148
443.410461	1428.767090	17366.033203	2035.820313	3.809017
443.768005	1431.887695	17559.962891	2033.145508	3.728020
444.125458	1435.231445	17796.765625	2030.247681	3.636678
444.482941	1432.630859	18117.603516	2041.764648	3.650793
444.840393	1432.705078	18601.314453	2048.451904	3.586469
445.197754	1432.630737	19068.751953	2050.755127	3.504877
445.555084	1433.596680	19459.066406	2040.427124	3.366517
445.912415	1437.906250	19719.347656	2036.414673	3.273858
446.269714	1435.157104	19813.044922	2036.191895	3.270423
446.626953	1431.219116	19815.123047	2037.975098	3.300474
446.984161	1427.429688	19664.736328	2028.092773	3.293595
447.341309	1427.949585	19461.292969	2013.900879	3.249266
447.698456	1429.584351	19150.560547	1998.668823	3.211361
448.055542	1431.664917	18931.960938	1980.018921	3.133398
448.412598	1430.921753	18625.537109	1964.341187	3.102247
448.769653	1436.940430	18294.962891	1946.954224	3.025347
449.126617	1433.596680	17820.318359	1930.384766	3.031650
449.483582	1441.695679	17511.369141	1909.431274	2.910673
449.840515	1437.460327	17278.724609	1893.679077	2.879939
450.197388	1437.237671	17149.958984	1877.629883	2.802775
450.554230	1437.163208	17047.496094	1871.314087	2.781176
450.911041	1444.667969	16995.857422	1865.890015	2.708616
451.267822	1444.147827	17018.666016	1863.883667	2.695016
451.624573	1444.742188	17027.136719	1860.911499	2.670766
451.981262	1440.061157	16958.482422	1848.057251	2.629108
452.337921	1438.723633	16780.080078	1841.369751	2.624580
452.694580	1431.739258	16466.744141	1828.664185	2.640005
453.051147	1428.544067	16262.932617	1821.605469	2.649664
453.407715	1433.968262	15929.909180	1814.695313	2.626439
453.764221	1441.175659	15828.782227	1804.515991	2.525370
454.120728	1441.621460	15505.043945	1796.565430	2.523880
454.477142	1436.420288	15463.434570	1783.042358	2.471104
454.833557	1437.386108	15344.179688	1775.983521	2.434762
455.189911	1435.900024	15343.734375	1774.943359	2.437787
455.546265	1438.946655	15402.656250	1775.686401	2.411535
455.902557	1432.928101	15486.171875	1782.893677	2.490283
456.258820	1433.670898	15750.168945	1783.562500	2.443975
456.615051	1435.305664	15994.625000	1791.067017	2.443530
456.971252	1440.878296	16329.062500	1797.382813	2.394547
457.327393	1443.478882	16827.187500	1807.265137	2.364750
457.683502	1441.472656	17443.380859	1829.035767	2.421981
458.039612	1435.379883	18324.685547	1852.961304	2.472461
458.395630	1436.420288	19193.880859	1876.961060	2.480877
458.751648	1443.255981	19965.291016	1887.512085	2.398527
459.107605	1439.020874	20596.267578	1891.970093	2.364375
459.463562	1435.156860	20819.697266	1886.397461	2.327837
459.819458	1423.937378	20698.212891	1876.812378	2.349634
460.175323	1426.537964	20183.291016	1860.317017	2.312655
460.531158	1423.937378	19510.482422	1859.648438	2.409034
460.886932	1430.698853	18813.744141	1848.874634	2.405653
461.242676	1432.928101	18109.876953	1850.137695	2.501714
461.598419	1434.562622	17595.626953	1832.676636	2.463415
461.954102	1433.225220	17099.582031	1824.429077	2.497095
462.309723	1437.163086	16683.931641	1811.871704	2.457626
462.665344	1441.026978	16334.338867	1810.980103	2.484022
463.020905	1444.742188	16158.687500	1799.983398	2.414316
463.376373	1451.132202	16116.632813	1802.286743	2.394426
463.731873	1452.618164	16111.729492	1797.085571	2.349852
464.087341	1452.841187	16161.436523	1796.193970	2.334368
464.442749	1440.729858	16293.992188	1795.005249	2.385169
464.798126	1437.311890	16411.611328	1795.451050	2.391692
465.153503	1433.596680	16573.890625	1808.453979	2.475892
465.508820	1437.906250	16692.031250	1803.029785	2.393605
465.864105	1431.442017	16789.146484	1803.252563	2.421003
466.219330	1430.475952	16989.763672	1801.395142	2.383909
466.574524	1426.315063	17025.873047	1818.856323	2.516361
466.929657	1433.745239	16952.240234	1820.193726	2.490245
467.284790	1435.454224	16749.318359	1825.840698	2.549236
467.639893	1439.838257	16557.839844	1825.543579	2.551298
467.994934	1435.305664	16409.384766	1824.057617	2.596166
468.349945	1431.070435	16226.969727	1818.484741	2.618390
468.704926	1427.726685	16075.467773	1810.014282	2.609874
469.059875	1437.534668	15915.418945	1814.100952	2.600976
469.414764	1442.290039	15838.218750	1814.323730	2.584298
469.769653	1436.940430	15814.961914	1810.682983	2.599402
470.124451	1424.977539	15894.614258	1800.800781	2.597323
470.479248	1425.126099	15937.339844	1805.853394	2.623496
470.834015	1430.030151	15987.715820	1814.769531	2.642861
471.188721	1439.912476	16161.213867	1832.305054	2.665475
471.543365	1445.262207	16403.439453	1840.626953	2.643134
471.898010	1443.553223	16665.283203	1843.821899	2.629587
472.252625	1445.039429	16949.119141	1854.075806	2.638250
472.607178	1431.664917	17218.021484	1857.642212	2.698389
472.961700	1432.705078	17335.271484	1857.345093	2.670261
473.316193	1430.253296	17359.123047	1857.419434	2.681710
473.670654	1432.036499	17276.349609	1859.202759	2.696023
474.025055	1433.522461	17351.023438	1870.496704	2.745244
474.379456	1434.191040	17418.564453	1873.394531	2.747705
474.733795	1440.432617	17554.167969	1885.877319	2.764379
475.088104	1441.472778	17777.521484	1895.462280	2.779066
475.442383	1433.373901	18082.830078	1908.168091	2.851710
475.796570	1433.671021	18408.869141	1910.100220	2.806619
476.150787	1432.184937	18801.708984	1926.298218	2.844714
476.504944	1440.358032	19155.166016	1944.948120	2.848408
476.859070	1439.020874	19472.439453	1973.851685	2.965776
477.213135	1430.773071	19705.228516	1984.254028	3.028714
477.567200	1423.417358	19956.818359	1990.495605	3.059764
477.921173	1426.314941	20271.267578	2001.863892	3.054128
478.275146	1432.556274	20547.005859	2008.996948	3.015733
478.629089	1432.482056	20824.673828	2034.334106	3.103579
478.983002	1424.680298	21192.472656	2044.959351	3.137826
479.336823	1420.965210	21688.666016	2066.432861	3.184711
479.690643	1426.686523	22337.626953	2080.104736	3.124767
480.044403	1431.664673	23152.505859	2103.658691	3.093775
480.398163	1437.386108	24247.650391	2141.627197	3.087387
480.751862	1438.946655	25790.322266	2193.787842	3.099789
481.105499	1438.574829	27919.544922	2270.691162	3.142318
481.459137	1441.918579	31020.939453	2364.758545	3.119914
481.812744	1441.918579	35076.382813	2491.667236	3.121051
482.166290	1435.751343	40032.746094	2654.687744	3.158112
482.519806	1432.259155	45085.332031	2825.583984	3.191814
482.873291	1428.543945	49440.511719	2980.430664	3.232291
483.226715	1435.379883	52325.609375	3086.014893	3.243520
483.580139	1437.237427	53397.277344	3141.073486	3.279128
483.933502	1435.082642	52799.062500	3136.094971	3.311683
484.286804	1435.379883	50813.175781	3078.807861	3.328273
484.640106	1441.175415	47985.886719	3005.322266	3.360525
484.993347	1440.952637	45088.597656	2921.954834	3.393086
485.346558	1433.596680	42908.632813	2846.388672	3.406367
485.699738	1432.705078	41902.574219	2806.933594	3.395683
486.052887	1428.989868	42071.835938	2813.546875	3.406644
486.405975	1429.807251	42894.218750	2851.292725	3.428206
486.759064	1421.856934	43846.855469	2893.050781	3.467752
487.112061	1426.017944	44304.261719	2918.462158	3.480656
487.464996	1431.739258	44006.531250	2918.387939	3.491852
487.817963	1438.277710	42921.707031	2888.666992	3.496310
488.170868	1434.785522	41191.941406	2840.890381	3.536734
488.523743	1432.779297	39194.316406	2778.921875	3.564851
488.876587	1425.423462	37349.597656	2724.012207	3.614805
489.229401	1428.618286	36171.683594	2687.455322	3.623276
489.582153	1426.389282	35880.414063	2694.811279	3.681492
489.934845	1429.881714	36425.050781	2721.337158	3.690382
490.287537	1433.968262	37462.464844	2765.324219	3.695286
490.640198	1435.900024	38620.027344	2807.751221	3.689346
490.992798	1430.550293	39249.144531	2845.645508	3.741797
491.345337	1430.698853	39126.324219	2849.509521	3.763860
491.697876	1429.584351	37972.402344	2825.583984	3.820175
492.050354	1437.163208	36146.863281	2752.247070	3.788808
492.402832	1431.070313	33709.214844	2666.873291	3.828606
492.755219	1433.671021	31156.396484	2572.583008	3.831789
493.107605	1427.652466	28777.443359	2498.354736	3.914846
493.459930	1440.581177	26936.593750	2435.717529	3.903106
493.812225	1444.296387	25611.476563	2392.547607	3.923715
494.164490	1451.949585	24785.900391	2373.526123	3.949509
494.516724	1447.714233	24338.375000	2362.009277	3.994184
494.868896	1439.763794	24244.906250	2369.959473	4.078886
495.221039	1437.906250	24380.287109	2374.714844	4.083310
495.573120	1432.259155	24582.685547	2383.036865	4.106956
495.925201	1439.912476	24827.810547	2392.844971	4.074468
496.277222	1434.934082	25013.937500	2398.046143	4.084617
496.629211	1434.562500	25073.529297	2412.312256	4.136178
496.981140	1435.751465	24945.501953	2405.922119	4.126674
497.333069	1441.621460	24732.625000	2404.882080	4.135763
497.684967	1443.181763	24453.695313	2391.730225	4.122240
498.036804	1446.822632	24017.312500	2377.909912	4.125242
498.388580	1445.485352	23538.507813	2361.489014	4.146122
498.740326	1448.605835	23037.037109	2344.845215	4.151480
499.092072	1441.249878	22576.138672	2329.241699	4.201545
499.443756	1443.181763	22176.759766	2306.876709	4.165682
499.795410	1443.701782	21835.119141	2290.975830	4.155052
500.147003	1437.609009	21570.156250	2287.855225	4.223242
500.498566	1443.553223	21298.281250	2283.991455	4.232937
500.850098	1437.237671	21099.966797	2290.901611	4.341534
501.201599	1446.079590	20959.384766	2279.310303	4.270064
501.553009	1435.528687	20858.111328	2284.363037	4.370347
501.904449	1442.661743	20794.806641	2273.217529	4.291802
502.255859	1440.358398	20828.242188	2288.152344	4.372803
502.607178	1443.701782	20933.677734	2291.273193	4.348755
502.958405	1436.271484	20976.328125	2303.161377	4.436476
503.309692	1432.853516	21028.412109	2292.016113	4.384476
503.660919	1424.160156	21080.498047	2301.081055	4.461263
504.012115	1426.240723	21110.220703	2300.560791	4.441785
504.363251	1429.138550	21091.496094	2313.266602	4.496552
504.714294	1437.534668	21019.570313	2302.195557	4.415582
505.065369	1441.472778	21003.820313	2306.950928	4.424204
505.416443	1439.763794	20920.302734	2310.443359	4.469484
505.767395	1435.974487	20877.281250	2311.260498	4.502197
506.118317	1439.169312	20828.537109	2314.455322	4.514258
506.469238	1435.974243	20909.083984	2325.080566	4.565816
506.820160	1434.934082	21007.609375	2338.380615	4.615856
507.170929	1431.813477	21212.683594	2353.464111	4.659303
507.521729	1433.448120	21467.392578	2361.637451	4.633083
507.872498	1440.804077	21767.873047	2379.618896	4.618545
508.223236	1431.664673	22095.029297	2381.327881	4.595879
508.573883	1433.002319	22295.349609	2390.318604	4.588727
508.924500	1429.287109	22505.103516	2396.485596	4.589139
509.275116	1432.333496	22585.945313	2414.169678	4.641459
509.625702	1430.921875	22799.046875	2422.640137	4.641110
509.976196	1435.751587	22896.382813	2434.082764	4.651919
510.326660	1447.640015	23093.656250	2444.708008	4.606243
510.677124	1449.720337	23278.375000	2467.890381	4.664374
511.027557	1445.633789	23456.703125	2484.013916	4.717536
511.377869	1441.918579	23587.400391	2501.995361	4.786876
511.728180	1442.141602	23569.492188	2494.267822	4.754868
512.078430	1437.460327	23545.046875	2498.354736	4.798780
512.428650	1431.516235	23430.470703	2494.342529	4.831258
512.778931	1430.921875	23317.085938	2501.921143	4.893499
513.129028	1428.172485	23183.193359	2497.314209	4.914460
513.479126	1426.909546	23052.568359	2481.190674	4.875140
513.829285	1431.293335	22946.759766	2465.141357	4.805139
514.179382	1433.671021	22851.357422	2459.048584	4.787528
514.529297	1432.333618	22848.009766	2462.243408	4.809140
514.879272	1425.572144	23008.357422	2482.453857	4.896873
515.229187	1423.491577	23154.955078	2490.627197	4.910556
515.579163	1423.565918	23543.634766	2520.125488	4.957306
515.928955	1422.674194	23978.601563	2530.899414	4.913233
516.278748	1438.426392	24653.867188	2563.444092	4.845989
516.628540	1443.181641	25393.623047	2604.236084	4.847737
516.978333	1446.971191	26264.673828	2651.864014	4.854973
517.327942	1438.649292	27146.572266	2697.337158	4.896109
517.677612	1439.317993	27770.197266	2723.566162	4.877347
518.027222	1434.414063	28148.468750	2742.067627	4.895002
518.376831	1429.584351	28252.865234	2749.869385	4.922161
518.726379	1429.807251	28143.119141	2741.398682	4.909879
519.075867	1437.980469	27642.248047	2727.429932	4.920761
519.425293	1441.918579	27027.021484	2702.984375	4.928906
519.774658	1434.414063	26373.009766	2674.526367	4.972663
520.124084	1433.447876	25825.322266	2648.446045	4.981159
520.473389	1424.085938	25334.849609	2623.480225	5.016127
520.822693	1435.974243	24936.587891	2611.592041	5.002498
521.171997	1440.283813	24758.556641	2601.932861	4.981711
521.521240	1453.286987	24665.531250	2594.874023	4.918038
521.870361	1446.599609	24749.345703	2611.592041	4.999378
522.219482	1442.364624	24890.447266	2618.130615	5.014338
522.568604	1438.723633	25189.068359	2641.461670	5.064087
522.917664	1442.884644	25641.421875	2639.381348	4.944500
523.266724	1442.364380	26261.330078	2681.288086	4.991843
523.615662	1434.042480	27104.740234	2711.454834	4.976150
523.964600	1433.151001	28174.328125	2769.039795	4.995625
524.313538	1437.237671	29358.787109	2827.515625	4.979229
524.662354	1441.026978	30660.048828	2901.372803	4.997929
525.011169	1439.838257	31888.197266	2969.582275	5.024061
525.359985	1439.169312	33133.660156	3031.179443	5.022987
525.708740	1436.048706	34409.292969	3089.358398	5.014094
526.057434	1437.906250	35897.722656	3167.302002	5.018587
526.406067	1431.590454	37864.074219	3260.106201	5.018916
526.754700	1433.893921	40645.746094	3394.148438	4.999138
527.103333	1430.773315	43980.968750	3550.778320	4.982362
527.451782	1421.708374	47472.902344	3738.987305	5.031962
527.800293	1427.206665	50149.730469	3901.784424	5.078919
528.148743	1428.321289	51730.597656	4023.715576	5.159596
528.497131	1438.649414	51808.984375	4044.965820	5.174308
528.845642	1434.934082	50487.734375	3985.523682	5.199682
529.193909	1434.637085	48010.031250	3838.850342	5.161982
529.542175	1436.271606	44742.644531	3655.173828	5.123732
529.890503	1438.723633	41345.082031	3474.395264	5.101121
530.238770	1435.900024	38261.371094	3316.130615	5.105788
530.586914	1433.225098	36102.871094	3205.344971	5.111445
530.934998	1438.946411	34840.246094	3137.358154	5.084867
531.283142	1439.020874	34746.628906	3119.822510	5.046299
531.631226	1441.918579	35269.644531	3140.924561	5.022525
531.979248	1428.915649	36414.648438	3186.917969	5.024912
532.327148	1429.138550	37536.027344	3239.969971	5.015196
532.675110	1431.293335	38401.949219	3281.356689	5.004140
533.023071	1435.157104	38552.339844	3296.737549	5.015414
533.370850	1432.853638	37865.929688	3269.022461	5.039841
533.718689	1429.138672	36723.156250	3207.722656	5.039336
534.066467	1432.036499	35196.308594	3132.231201	5.035484
534.414246	1443.255981	33777.574219	3065.804688	5.018039
534.761963	1442.810181	32511.156250	3015.873047	5.063233
535.109619	1447.491333	31856.328125	2990.759033	5.075063
535.457153	1442.364624	31540.615234	2979.910889	5.108424
535.804749	1437.163452	31528.357422	2975.303955	5.111597
536.152344	1432.407837	31373.287109	2966.907471	5.125099
536.499817	1430.030151	31042.708984	2948.703125	5.128455
536.847229	1439.986694	30475.853516	2921.805664	5.103409
537.194641	1436.048462	29748.056641	2871.800049	5.071176
537.542114	1436.643066	28997.228516	2821.571533	5.025033
537.889404	1433.596680	28352.876953	2781.002197	5.005355
538.236694	1435.380005	27965.166016	2759.008545	4.989217
538.583984	1432.036499	28084.646484	2788.729736	5.090283
538.931213	1428.395508	28809.023438	2825.435303	5.102293
539.278381	1427.355347	30225.083984	2899.960938	5.113617
539.625488	1425.720703	32097.361328	2968.542236	5.030124
539.972595	1423.565796	34473.117188	3081.408203	5.016233
540.319641	1428.841309	36831.261719	3196.280029	4.992423
540.666687	1438.129028	38685.785156	3292.130615	4.977499
541.013611	1441.398438	39734.714844	3346.668701	4.975464
541.360596	1442.735962	39920.921875	3355.807861	4.971835
541.707458	1432.928101	39315.058594	3325.938232	4.997106
542.054260	1436.643188	37943.207031	3266.570313	5.012598
542.401062	1425.200562	36264.636719	3190.113037	5.065846
542.747864	1432.556519	34433.218750	3104.293213	5.065767
543.094666	1429.064331	32682.720703	3014.907227	5.074104
543.441284	1440.432617	30946.859375	2926.263916	5.035619
543.787903	1439.095215	29516.234375	2852.778564	5.034998
544.134460	1439.541016	28290.314453	2792.964844	5.040539
544.481079	1435.082642	27491.708984	2749.126221	5.043030
544.827637	1436.568848	26944.468750	2717.770508	5.022764
545.174072	1439.392212	26691.244141	2689.089600	4.948934
545.520508	1437.757690	26589.599609	2678.761475	4.934047
545.866943	1438.277710	26531.570313	2675.640869	4.931051
546.213318	1435.825806	26433.490234	2675.566650	4.959427
546.559631	1437.386230	26054.843750	2659.294189	4.963583
546.905823	1433.076660	25504.259766	2635.591553	4.995662
547.252136	1431.590454	24757.890625	2610.180176	5.052622
547.598389	1440.432495	23886.541016	2570.651123	5.035254
547.944458	1441.992798	22997.658203	2531.568115	5.054705
548.290588	1444.519165	22082.322266	2474.875244	4.992567
548.636658	1441.770020	21309.203125	2433.488525	4.991679
548.982727	1445.336548	20615.216797	2385.934570	4.906645
549.328735	1441.770142	20075.183594	2365.798584	4.958986
549.674622	1437.460571	19641.552734	2339.346924	4.954306
550.020569	1424.606079	19388.625000	2333.774170	5.061050
550.366455	1430.030273	19216.093750	2326.864014	5.042340
550.712280	1424.457397	19154.496094	2329.613281	5.105211
551.058044	1432.630737	19200.787109	2326.566895	5.031114
551.403748	1426.612305	19349.990234	2327.309814	5.025266
551.749512	1433.448120	19512.339844	2338.529541	5.006288
552.095154	1430.104492	19635.681641	2339.421143	4.994715
552.440735	1435.231445	19679.150391	2344.622559	4.984626
552.786316	1436.048828	19656.783203	2344.250977	4.984443
553.131897	1435.602905	19482.470703	2343.062256	5.028348
553.477417	1432.705078	19203.166016	2326.789795	5.031297
553.822815	1429.807251	18803.568359	2306.059326	5.043537
554.168213	1429.732910	18457.689453	2289.043945	5.046472
554.513672	1426.092163	18180.242188	2275.594971	5.070402
554.859009	1428.618530	17923.970703	2256.647705	5.019773
555.204285	1432.110718	17687.167969	2250.480713	5.034556
555.549500	1428.321289	17458.539063	2240.449951	5.066236
555.894714	1430.698853	17355.927734	2229.750244	5.017519
556.239990	1440.135376	17282.070313	2234.802979	5.016228
556.585022	1457.522095	17189.042969	2228.338623	4.899822
556.930115	1447.937012	17097.054688	2237.106445	5.042901
557.275146	1437.757690	16971.410156	2214.444092	5.000024
557.620178	1432.482056	16906.099609	2218.159180	5.077527
557.965149	1434.934204	16794.494141	2206.790771	5.025252
558.310059	1439.615234	16689.060547	2205.973389	5.025482
558.654968	1434.339722	16602.125000	2196.537109	5.025107
558.999756	1436.717407	16593.136719	2192.524658	4.986714
559.344604	1435.825806	16635.488281	2202.852783	5.046342
559.689331	1440.358276	16672.193359	2209.688721	5.050806
560.033997	1438.872192	16706.298828	2204.413086	5.014210
560.378723	1438.277832	16834.544922	2200.252197	4.949085
560.723389	1436.866089	16952.314453	2189.998291	4.854080
561.067932	1437.014648	17038.208984	2196.834229	4.870265
561.412476	1433.299438	16976.240234	2183.905518	4.829241
561.757019	1435.454468	16909.740234	2187.843506	4.862189
562.101501	1439.020874	16848.662109	2185.466064	4.844014
562.445862	1437.460327	16771.833984	2190.295898	4.909464
562.790222	1428.766968	16700.726563	2183.311279	4.940717
563.134644	1425.200562	16620.255859	2178.630127	4.958386
563.478943	1431.664917	16650.421875	2173.651855	4.875477
563.823181	1441.993042	16750.509766	2185.540283	4.857082
564.167358	1440.061035	16983.521484	2206.642334	4.931857
564.511536	1436.494507	17292.992188	2223.509033	4.963356
564.855774	1430.327271	17658.634766	2233.242920	4.947624
565.199768	1437.237427	18040.404297	2240.895752	4.840392
565.543823	1439.986816	18351.359375	2254.196045	4.814566
565.887817	1439.615234	18571.517578	2263.260986	4.807673
566.231812	1432.705078	18559.408203	2259.099854	4.825183
566.575745	1431.144531	18416.896484	2240.969971	4.767675
566.919617	1435.454102	18199.263672	2229.676025	4.737718
567.263428	1435.454102	17941.802734	2218.753662	4.745444
567.607239	1431.664917	17744.083984	2216.896240	4.813703
567.950989	1428.915649	17508.619141	2205.081787	4.826993
568.294678	1430.476074	17424.361328	2189.998535	4.748830
568.638367	1430.698853	17318.478516	2183.459961	4.737988
568.981995	1430.996094	17311.494141	2177.515869	4.700859
569.325623	1441.992798	17325.164063	2189.106934	4.703810
569.669128	1445.113647	17441.003906	2188.809570	4.649293
570.012573	1441.101196	17635.974609	2193.342041	4.644932
570.356140	1432.036255	17925.085938	2203.149902	4.675385
570.699524	1428.544067	18203.794922	2217.490479	4.703038
571.042908	1432.110718	18505.388672	2240.375488	4.734093
571.386230	1424.234497	18696.273438	2248.177246	4.770385
571.729492	1431.367676	18824.000000	2258.654053	4.756533
572.072815	1435.082886	18800.296875	2255.830811	4.726391
572.416016	1444.147827	18703.779297	2250.778076	4.673508
572.759094	1434.339844	18538.974609	2231.459229	4.660254
573.102234	1433.745239	18371.646484	2222.022705	4.653927
573.445374	1429.509888	18180.984375	2212.363525	4.673342
573.788391	1437.534546	18055.562500	2212.586182	4.663921
574.131409	1436.642944	17950.720703	2198.320068	4.612290
574.474365	1442.067017	17861.259766	2187.026123	4.537124
574.817261	1440.506836	17774.250000	2185.094482	4.558586
575.160156	1442.735840	17604.765625	2186.357666	4.601042
575.502930	1442.290039	17349.314453	2181.676514	4.648176
575.845703	1439.392212	17070.751953	2174.320313	4.701626
576.188477	1435.379883	16783.275391	2161.911865	4.733757
576.531250	1436.717407	16512.070313	2145.045166	4.698582
576.873901	1443.330444	16148.285156	2118.667725	4.592583
577.216431	1445.039185	15811.620117	2093.256104	4.511978
577.559082	1443.330200	15493.752930	2072.599854	4.478653
577.901611	1436.420288	15226.114258	2052.315186	4.466342
578.244080	1428.469849	14966.574219	2043.250488	4.541113
578.586487	1427.949829	14734.973633	2042.507446	4.618295
578.928955	1461.237305	14583.246094	2041.912964	4.425204
579.271301	1474.537598	14366.132813	2036.340210	4.357898
579.613647	1475.057617	14193.230469	2018.804688	4.275355
579.955872	1440.581055	13984.812500	2008.031128	4.523594
580.298157	1436.866089	13922.472656	1997.108398	4.487105
580.640320	1440.581055	13838.436523	2005.504761	4.556624
580.982483	1446.228149	13753.507813	2002.978394	4.523747
581.324524	1453.361206	13682.028320	1999.337524	4.464725
581.666626	1447.119751	13631.429688	1982.916626	4.397433
582.008728	1451.503540	13591.231445	1977.344116	4.331568
582.350647	1441.324219	13528.296875	1969.022095	4.365840
582.692566	1441.992798	13473.460938	1979.127319	4.464414
583.034424	1437.980591	13414.242188	1979.350220	4.520356
583.376343	1439.317993	13310.664063	1979.796021	4.552795
583.718201	1442.438843	13271.135742	1970.508179	4.464307
584.059937	1438.797852	13221.500977	1962.706177	4.446419
584.401611	1436.271606	13203.221680	1956.762207	4.423326
584.743347	1433.968262	13211.171875	1951.783813	4.396762
585.085022	1429.361450	13182.789063	1952.081055	4.447380
585.426514	1430.030273	13174.393555	1956.167603	4.479914
585.768127	1431.293335	13138.875000	1961.963257	4.532703
586.109619	1437.163208	13133.377930	1964.712524	4.510428
586.451172	1447.342773	13128.993164	1956.242065	4.356399
586.792542	1445.336548	13142.813477	1950.520874	4.318746
587.133850	1445.559448	13220.906250	1952.229858	4.302807
587.475220	1434.414063	13304.868164	1967.387573	4.489917
587.816589	1434.636841	13377.684570	1967.684692	4.463248
588.157776	1432.482056	13436.531250	1964.341187	4.430665
588.498962	1433.596680	13495.676758	1954.607422	4.319410
588.840210	1433.448120	13553.113281	1952.601196	4.283560
589.181335	1437.311890	13611.515625	1947.474243	4.190519
589.522400	1440.432617	13652.379883	1958.471069	4.242063
589.863403	1440.804077	13624.741211	1966.347168	4.313409
590.204407	1440.432617	13568.344727	1971.399780	4.378059
590.545410	1438.203491	13526.512695	1966.792969	4.372733
590.886353	1433.522461	13419.963867	1959.734375	4.390059
591.227112	1435.825806	13274.405273	1956.464844	4.397817
591.567932	1435.157104	13158.863281	1947.325684	4.368658
591.908752	1442.215820	13117.625000	1935.957397	4.228902
592.249512	1441.621460	13141.625000	1935.288574	4.219376
592.590149	1442.810181	13108.187500	1931.499146	4.189226
592.930786	1448.754517	13189.996094	1941.307251	4.195065
593.271423	1450.537720	13279.828125	1944.576538	4.176403
593.612000	1445.410767	13478.141602	1952.601196	4.215090
593.952576	1437.163086	13604.159180	1951.932495	4.230867
594.292969	1429.658691	13766.362305	1947.325562	4.196152
594.633484	1434.414063	13893.270508	1952.601196	4.159187
594.973877	1431.293335	14123.164063	1961.740601	4.179425
595.314209	1433.670898	14403.805664	1975.189331	4.175118
595.654480	1436.494507	14731.628906	1984.774292	4.123913
595.994812	1441.175659	15043.551758	1997.182983	4.087575
596.335022	1441.992798	15314.608398	2012.637817	4.113464
596.675171	1430.401733	15404.143555	2021.479858	4.229920
597.015320	1426.092163	15337.715820	2011.746216	4.209818
597.355408	1427.280884	15042.882813	1992.130371	4.148546
597.695496	1428.543945	14659.851563	1964.266724	4.048903
598.035461	1428.841309	14159.571289	1946.062500	4.062777
598.375366	1425.051758	13695.848633	1921.394165	4.044908
598.715271	1429.510132	13322.997070	1911.288940	4.050778
599.055176	1435.974243	12961.886719	1896.428223	3.994946
599.395081	1436.940308	12696.403320	1897.097046	4.086844
599.734802	1440.061035	12490.139648	1884.539673	4.022403
600.074524	1433.150879	12420.815430	1886.546021	4.126401
600.414246	1436.197266	12381.359375	1886.843262	4.117308
600.753906	1440.506836	12405.285156	1896.874023	4.162119
601.093506	1443.330444	12481.519531	1893.827759	4.081261
601.433044	1439.838257	12646.471680	1884.985840	3.972179
601.772583	1433.373657	12845.676758	1881.122070	3.923383
602.112122	1432.333618	13132.561523	1890.187012	3.913201
602.451538	1438.723633	13474.874023	1903.710083	3.863249
602.790894	1433.596680	13845.867188	1921.022583	3.926968
603.130310	1432.853638	14244.872070	1928.675781	3.869977
603.469604	1427.057983	14633.104492	1951.783813	3.973376
603.808838	1438.203491	14949.708008	1965.827148	3.904995
604.148010	1446.599609	15160.429688	1980.242065	3.891272
604.487305	1449.720337	15217.495117	1981.876587	3.865231
604.826416	1446.228149	15126.250000	1971.771484	3.841685
605.165527	1441.101196	14836.989258	1960.551758	3.877687
605.504456	1444.444824	14478.405273	1946.731323	3.853675
605.843445	1444.222046	14061.864258	1932.316406	3.868348
606.182434	1445.410767	13670.808594	1915.969849	3.849029
606.521423	1441.770142	13277.674805	1892.564575	3.808703
606.860229	1445.931030	12972.363281	1882.608032	3.788484
607.199036	1446.228149	12808.081055	1873.320313	3.759001
607.537903	1445.039429	12760.155273	1870.348267	3.758767
607.876648	1436.568726	12846.643555	1866.261353	3.765905
608.215271	1433.448120	12982.541992	1877.704102	3.846674
608.553955	1425.794922	13174.094727	1884.168335	3.901615
608.892578	1426.909546	13333.920898	1891.449829	3.901401
609.231140	1426.463745	13442.476563	1889.889648	3.856736
609.569641	1430.773315	13427.096680	1887.734863	3.809180
609.908081	1436.048828	13353.757813	1880.601929	3.730189
610.246521	1433.745483	13177.661133	1875.697876	3.763246
610.584961	1438.277832	12937.143555	1867.227539	3.730366
610.923340	1438.575073	12620.093750	1851.475220	3.692702
611.261597	1440.729858	12267.899414	1836.763184	3.657773
611.599854	1441.398560	11985.473633	1821.605469	3.605882
611.938110	1440.655640	11742.281250	1817.147339	3.654682
612.276245	1441.472778	11548.426758	1805.036011	3.597159
612.614319	1435.231445	11369.504883	1800.577759	3.677635
612.952393	1431.739258	11187.241211	1787.723511	3.649061
613.290466	1433.225220	11066.645508	1780.441895	3.604293
613.628479	1437.906250	10906.969727	1765.135376	3.455771
613.966370	1436.048706	10801.833008	1765.729858	3.520059
614.304260	1442.438843	10691.196289	1762.832031	3.464175
614.642151	1439.764038	10632.644531	1765.581177	3.544233
614.979980	1433.894043	10602.775391	1760.677246	3.564047
615.317749	1435.900024	10544.076172	1753.024048	3.481751
615.655396	1449.869141	10502.540039	1756.590454	3.388186
615.993164	1459.305298	10448.449219	1755.252930	3.292278
616.330811	1446.302368	10446.813477	1759.042480	3.474693
616.668396	1435.528442	10452.833008	1763.500610	3.637142
617.005859	1438.352051	10468.510742	1766.472778	3.633610
617.343445	1442.215820	10475.198242	1767.067261	3.596281
617.680908	1439.986694	10432.325195	1760.082886	3.559654
618.018311	1432.482056	10400.968750	1765.061157	3.708308
618.355652	1428.692749	10364.040039	1760.157227	3.709587
618.692993	1429.658569	10367.681641	1755.178833	3.641972
619.030273	1438.797852	10353.563477	1747.525757	3.463107
619.367554	1443.850464	10318.864258	1744.850708	3.391547
619.704712	1441.472656	10289.291992	1743.364746	3.412051
620.041870	1431.367554	10269.824219	1740.615601	3.498892
620.379028	1429.955933	10238.988281	1737.940552	3.496237
620.716064	1430.773315	10189.354492	1736.454468	3.490076
621.053040	1436.197266	10134.444336	1731.699219	3.397259
621.389954	1433.819702	10071.659180	1727.984009	3.405531
621.726929	1436.643188	10041.790039	1725.532104	3.357164
622.063843	1441.546997	10042.086914	1720.850952	3.247516
622.400635	1442.661499	10090.754883	1729.841675	3.320734
622.737427	1443.850464	10140.091797	1730.436035	3.295511
623.074219	1445.113647	10150.271484	1736.826172	3.351031
623.410889	1440.358276	10164.017578	1736.157349	3.390768
623.747559	1440.952637	10193.887695	1744.850952	3.471959
624.084167	1437.386108	10227.769531	1744.850952	3.497741
624.420715	1441.695679	10326.741211	1748.863281	3.457130
624.757324	1439.838257	10406.765625	1743.736328	3.389099
625.093750	1437.088867	10598.020508	1752.355347	3.441424
625.430176	1436.866089	10768.396484	1750.423462	3.360193
625.766602	1437.237427	10997.545898	1755.624634	3.330303
626.102905	1432.705078	11162.348633	1756.590698	3.328854
626.439209	1436.643066	11304.416992	1763.352173	3.310869
626.775452	1437.906250	11370.916992	1762.609253	3.268928
627.111694	1435.157104	11374.929688	1761.420288	3.282401
627.447876	1436.717407	11296.093750	1760.900269	3.288067
627.783997	1435.379883	11152.688477	1760.157227	3.342256
628.120056	1443.924805	10997.545898	1751.092285	3.215194
628.456055	1442.438843	10814.166992	1740.244141	3.177699
628.792053	1451.206543	10652.260742	1730.881836	3.039600
629.128052	1444.519165	10465.538086	1724.045898	3.098616
629.463928	1433.968384	10337.365234	1722.708496	3.243033
629.799744	1421.485352	10220.338867	1716.541504	3.353348
630.135559	1425.943481	10132.810547	1716.318481	3.335011
630.471375	1425.423462	10035.399414	1708.665405	3.289695
630.807068	1424.903320	9958.718750	1713.940796	3.386966
631.142700	1423.714355	9890.583008	1711.786133	3.402341
631.478333	1437.088867	9813.085938	1714.015137	3.306189
631.813965	1442.513062	9737.891602	1700.046265	3.104538
632.149475	1446.079590	9684.764648	1699.823242	3.079905
632.484924	1445.708008	9686.995117	1698.114258	3.062704
632.820435	1447.862793	9711.885742	1702.423828	3.080352
633.155884	1447.045532	9732.690430	1704.652954	3.109081
633.491150	1440.581055	9777.569336	1707.328003	3.199560
633.826477	1431.664673	9818.583984	1706.882202	3.281509
634.161804	1427.578125	9845.184570	1701.681030	3.256305
634.497009	1423.565796	9798.522461	1690.684082	3.189488
634.832153	1430.475952	9694.795898	1687.712036	3.112610
635.167297	1431.590454	9573.163086	1683.699585	3.096565
635.502380	1433.968262	9436.222656	1675.897827	3.023268
635.837463	1436.345825	9327.295898	1677.681152	3.058381
636.172424	1439.392212	9262.280273	1671.439819	2.966265
636.507324	1438.203491	9225.796875	1675.452148	3.046495
636.842224	1431.293335	9182.849609	1670.102173	3.080786
637.177124	1430.996094	9082.987305	1670.325073	3.127669
637.511963	1427.132446	8990.406250	1665.123901	3.146672
637.846741	1429.435669	8887.050781	1664.083618	3.146421
638.181396	1427.280762	8800.339844	1661.334473	3.174445
638.516113	1433.447876	8740.081055	1662.597656	3.136188
638.850769	1432.110718	8694.458008	1666.164063	3.222833
639.185303	1433.819702	8648.614258	1661.557495	3.156539
639.519836	1436.345825	8569.852539	1661.334473	3.153970
639.854370	1435.528687	8504.318359	1642.758789	2.931621
640.188843	1434.339844	8430.015625	1649.445923	3.074843
640.523254	1433.448242	8368.195313	1651.080688	3.138290
640.857605	1437.534790	8296.493164	1662.820679	3.284549
641.191895	1435.900024	8261.050781	1653.681274	3.190864
641.526184	1435.157104	8249.534180	1649.743286	3.149021
641.860413	1435.082642	8237.719727	1647.662964	3.124969
642.194580	1436.494507	8218.995117	1645.656738	3.083851
642.528748	1437.757690	8190.091309	1650.857910	3.155949
642.862793	1439.169312	8162.228027	1653.086914	3.181849
643.196838	1435.528442	8126.042969	1660.963013	3.369465
643.530823	1426.463501	8064.965332	1653.458496	3.419371
643.864746	1430.475952	8019.343750	1645.656738	3.265823
644.198669	1434.116699	8019.937988	1646.176758	3.219949
644.532532	1448.605835	8011.021973	1645.805298	3.004983
644.866333	1433.893921	8018.378418	1649.594727	3.275895
645.200073	1431.442017	7987.468262	1646.251099	3.276513
645.533813	1428.915649	7994.006348	1645.953979	3.305946
645.867554	1433.893921	8012.210938	1648.331665	3.259766
646.201172	1437.980469	8031.900879	1649.669067	3.210360
646.534729	1437.757446	8051.442871	1657.099243	3.316483
646.868225	1434.042480	8047.653809	1657.322266	3.376065
647.201782	1429.807251	8038.588379	1654.870117	3.405512
647.535217	1427.058105	8044.310059	1648.851685	3.351748
647.868591	1435.602905	8023.876953	1647.811401	3.221003
648.201965	1430.475952	8002.255371	1647.588501	3.303710
648.535278	1435.454102	7956.484375	1645.210815	3.216619
648.868591	1435.231323	7963.765625	1649.594727	3.283484
649.201782	1446.748413	7938.799316	1654.201538	3.195494
649.534912	1441.324219	7971.418457	1655.836060	3.284973
649.868103	1447.491333	7972.161621	1645.731079	3.038311
650.201172	1448.457397	8008.941406	1638.597778	2.898268
650.534180	1452.469604	8008.867188	1640.678345	2.870612
650.867188	1440.061035	7991.629395	1647.439941	3.165332
651.200134	1433.893921	7986.576660	1647.737183	3.263446
651.533020	1428.989868	7974.763184	1651.229492	3.395162
651.865845	1438.129028	7966.291504	1648.034302	3.215381
652.198608	1440.655396	7948.681641	1648.108765	3.187654
652.531433	1443.107422	7907.369629	1642.907593	3.090843
652.864136	1438.352173	7883.443848	1641.569946	3.153063
653.196777	1568.753418	7996.013184	1776.578125	3.233489
653.529358	1573.137207	7955.963379	1772.194214	3.118634
653.861938	1568.158813	7883.667480	1765.061157	3.117759
654.194519	1428.246704	7643.669434	1622.102661	3.118950
654.526978	1418.364624	7602.356934	1623.142944	3.311426
654.859375	1424.011597	7581.923828	1619.353516	3.172210
655.191833	1430.327271	7600.277344	1629.235718	3.223826
655.524170	1429.361450	7583.410156	1635.848633	3.355306
655.856445	1426.166382	7572.859375	1649.743286	3.637353
656.188660	1430.327515	7575.162109	1656.504883	3.680772
656.520874	1432.853882	7617.589355	1656.727905	3.619783
656.853088	1435.082886	7701.773926	1657.025024	3.541616
657.185181	1427.949707	7795.544434	1649.000366	3.471494
657.517212	1421.708374	7921.636230	1646.473999	3.457971
657.849243	1422.971558	8088.519531	1656.059082	3.496900
658.181274	1429.361450	8289.210938	1667.798828	3.475840
658.513123	1436.271606	8438.040039	1670.993774	3.352327
658.844971	1428.767090	8590.434570	1674.932007	3.437257
659.176819	1428.544312	8701.516602	1670.622437	3.328462
659.508667	1429.435913	8775.522461	1674.188965	3.331748
659.840393	1442.067383	8756.204102	1663.117798	3.022235
660.172058	1438.872192	8674.842773	1667.427368	3.158597
660.503662	1442.141602	8559.822266	1671.142578	3.217354
660.835266	1428.989868	8396.504883	1675.303589	3.535173
661.166931	1430.773071	8192.840820	1666.833008	3.490943
661.498413	1425.720703	8028.557129	1658.659668	3.527862
661.829773	1432.705078	7816.794434	1649.817749	3.400840
662.161194	1430.921875	7665.439941	1651.601074	3.539635
662.492615	1431.293335	7499.670410	1643.576172	3.498181
662.823975	1425.646362	7387.696777	1639.860962	3.592969
663.155212	1432.259277	7281.815918	1640.232544	3.555368
663.486450	1434.711304	7192.131348	1642.833008	3.614843
663.817627	1440.655396	7141.085938	1638.375000	3.468503
664.148743	1437.237427	7084.839355	1630.573242	3.423326
664.479858	1435.825806	7041.222656	1629.384399	3.453076
664.810913	1430.921875	7015.143066	1628.864258	3.544673
665.141907	1429.807251	6995.898438	1636.591797	3.715076
665.472778	1425.646362	6963.948730	1635.551392	3.790061
665.803711	1439.912476	6950.499512	1649.297485	3.799686
666.134583	1434.859863	6943.440918	1643.130371	3.780838
666.465454	1443.924805	6952.654785	1643.724731	3.626969
666.796143	1433.076538	6956.221191	1635.105835	3.657867
667.126831	1437.163086	6946.115723	1638.449341	3.653803
667.457458	1439.169312	6934.747559	1644.319336	3.733002
667.788147	1438.872070	6901.236816	1644.987915	3.773381
668.118774	1442.067261	6884.593262	1641.495728	3.664263
668.449219	1435.379883	6897.596191	1637.557617	3.701386
668.779663	1439.466675	6908.221191	1637.409058	3.619515
669.110107	1435.008423	6940.097168	1638.449219	3.695504
669.440552	1431.070435	6940.617188	1639.638184	3.785570
669.770874	1427.578125	6939.725098	1632.950806	3.725820
670.101135	1428.098267	6898.933594	1635.180054	3.785195
670.431396	1433.002319	6857.175293	1643.056030	3.872548
670.761597	1435.231323	6786.364746	1654.795898	4.103142
671.091797	1435.602905	6752.259277	1654.647461	4.119968
671.421875	1437.237427	6725.510254	1650.114868	4.025463
671.751892	1433.002319	6720.161621	1649.966187	4.103600
672.081909	1437.980469	6682.118652	1646.771118	3.981410
672.411865	1438.946411	6648.830566	1645.210938	3.959100
672.741821	1440.358276	6606.626465	1644.393555	3.949375
673.071716	1436.866089	6605.363281	1648.183105	4.088558
673.401550	1433.819702	6546.738770	1641.495728	4.061790
673.731262	1439.169312	6533.810059	1631.316284	3.771551
674.060974	1435.231445	6483.730469	1633.916870	3.935534
674.390625	1436.940430	6474.888184	1638.375000	3.998346
674.720276	1434.859863	6410.021484	1652.715332	4.378862
675.049927	1435.305664	6388.548340	1652.195190	4.378738
675.379395	1430.476074	6363.062500	1660.294312	4.659183
675.708923	1425.720703	6345.229004	1651.823730	4.596049
676.038330	1428.915649	6350.728027	1652.343872	4.539552
676.367737	1432.928101	6360.610840	1645.582397	4.315503
676.697083	1436.345825	6406.603516	1653.607056	4.371227
677.026428	1444.444824	6394.343750	1659.179688	4.338167
677.355652	1446.228149	6412.324707	1661.854492	4.341968
677.684875	1446.748413	6431.197754	1663.563599	4.349833
678.013977	1435.008423	6472.807129	1667.130249	4.607604
678.343079	1431.070435	6524.001953	1668.839233	4.668604
678.672180	1431.144897	6587.084473	1671.142578	4.654781
679.001221	1422.822876	6682.043457	1675.080566	4.796484
679.330139	1427.578247	6766.303223	1672.405640	4.585877
679.659058	1426.092163	6849.225098	1677.086792	4.628222
679.987976	1442.958984	6928.431641	1676.046509	4.249178
680.316772	1444.816406	6968.035156	1687.117554	4.386955
680.645630	1444.890625	6965.880371	1684.814087	4.345660
680.974304	1438.575073	6894.623535	1677.532593	4.379681
681.302979	1434.191040	6851.082520	1678.126953	4.503245
681.631653	1432.407837	6803.008301	1679.018555	4.591865
681.960266	1433.225098	6785.250000	1683.105103	4.668887
682.288757	1429.658691	6724.916504	1684.071289	4.804536
682.617249	1429.658569	6638.502441	1682.882446	4.861422
682.945679	1432.779297	6531.878418	1689.792480	5.040365
683.274109	1440.506836	6429.712402	1691.575684	5.032241
683.602478	1447.491211	6341.812012	1689.495239	4.944589
683.930725	1445.708008	6229.242676	1673.966187	4.771747
684.259033	1445.336426	6133.466309	1665.347046	4.692929
684.587280	1443.627563	6059.832520	1664.678223	4.788579
684.915344	1444.593384	6035.238281	1665.495483	4.812006
685.243469	1439.020874	6004.849121	1666.164185	4.974854
685.571533	1435.751587	5995.040527	1659.551270	4.908653
685.899536	1439.317993	5974.087402	1665.347046	4.984356
686.227539	1446.079590	5980.997559	1667.204468	4.876050
686.555420	1444.296265	6013.318848	1677.383911	5.101477
686.883301	1441.621460	6051.585449	1681.173462	5.196396
687.211121	1431.962036	6067.634766	1681.916504	5.391978
687.538940	1437.906250	6057.752441	1685.483032	5.358983
687.866638	1432.407837	6027.584473	1684.665649	5.489622
688.194336	1430.401733	6032.191406	1688.900879	5.617361
688.521973	1421.931030	5980.700684	1687.043335	5.815435
688.849609	1422.599976	5932.255371	1691.055664	5.952909
689.177063	1425.869141	5844.354980	1695.067993	6.092559
689.504578	1427.875366	5776.144531	1696.999878	6.189233
689.832031	1431.590454	5745.160645	1690.907104	6.011648
690.159485	1439.912476	5684.307129	1683.031128	5.727993
690.486816	1437.460327	5644.109375	1679.984741	5.765264
690.814087	1436.568726	5591.354004	1680.653320	5.874783
691.141296	1433.076538	5566.314453	1676.417969	5.887429
691.468506	1432.259277	5538.450684	1674.040161	5.888203
691.795715	1431.144653	5488.073730	1672.702759	5.954211
692.122803	1427.578247	5434.278320	1672.182617	6.104883
692.449829	1430.550293	5404.111328	1672.479858	6.088482
692.776855	1428.469727	5370.154785	1666.684204	6.043468
693.103821	1425.051880	5351.802246	1665.718384	6.128897
693.430664	1426.314941	5309.152344	1659.031250	5.993460
693.757568	1427.355103	5291.690918	1661.929077	6.070227
694.084351	1436.345825	5274.229980	1668.170410	6.040427
694.411133	1438.426392	5273.189941	1671.216797	6.070528
694.737854	1443.999023	5252.979980	1670.993774	5.959461
695.064575	1440.209595	5236.558105	1667.353027	5.983208
695.391174	1444.890625	5234.849609	1669.061890	5.914873
695.717773	1451.578003	5259.146484	1670.622437	5.752869
696.044250	1455.813110	5304.917480	1681.842163	5.872251
696.370789	1456.333374	5354.700195	1687.786255	5.937176
696.697205	1448.011597	5430.414551	1695.365112	6.211163
697.023621	1438.426392	5544.246094	1700.566284	6.384593
697.349915	1439.615234	5696.343750	1714.089478	6.448009
697.676208	1435.454224	5880.837402	1727.538208	6.570502
698.002380	1438.649292	6093.640625	1735.488647	6.376797
698.328674	1426.315063	6305.998047	1751.983887	6.673975
698.654724	1430.252930	6484.101563	1771.822754	6.758608
698.980896	1435.157104	6578.465332	1790.472656	6.908308
699.306946	1437.460449	6579.283203	1787.797729	6.813484
699.632935	1441.398438	6490.119629	1784.677124	6.799320
699.958862	1435.677246	6353.923340	1776.057739	6.920770
700.284729	1439.763794	6181.317871	1773.531616	7.039207
700.610596	1432.927856	6018.445801	1765.283813	7.247948
700.936340	1439.243652	5856.763184	1751.463745	7.067770
701.262146	1430.624512	5706.077637	1739.946655	7.234839
701.587830	1427.206665	5549.075684	1726.349243	7.257450
701.913513	1425.720703	5378.476563	1718.101929	7.396895
702.239075	1436.940308	5238.787598	1704.875977	7.047513
702.564697	1445.559570	5135.358887	1692.541626	6.693645
702.890137	1438.352051	5061.204590	1685.185669	6.813240
703.215698	1427.132324	5000.127441	1693.507690	7.455240
703.541016	1423.268555	4914.679199	1700.566406	7.942287
703.866455	1424.977539	4848.921387	1710.225952	8.330990
704.191711	1425.051758	4804.562500	1698.411621	8.088740
704.517029	1426.240723	4785.763672	1695.959595	8.028487
704.842163	1427.280884	4771.274902	1686.300293	7.745809
705.167419	1436.643188	4738.358887	1691.501465	7.718965
705.492493	1437.163452	4725.652832	1699.972046	7.991773
705.817566	1439.838257	4705.442871	1697.371460	7.886234
706.142578	1443.330444	4692.217285	1698.708862	7.860490
706.467590	1440.061035	4684.786621	1691.798706	7.758366
706.792480	1439.540894	4678.916992	1695.439575	7.899629
707.117371	1437.088867	4685.455566	1691.204102	7.822862
707.442200	1439.095093	4687.907227	1697.222656	7.945291
707.766907	1439.615234	4694.742676	1701.903809	8.057705
708.091675	1438.575073	4702.545410	1705.990601	8.192952
708.416321	1439.020874	4724.835938	1701.383789	7.984714
708.741028	1437.386108	4743.188965	1700.640991	7.963418
709.065552	1431.590454	4744.303223	1706.436523	8.296706
709.390137	1426.612305	4733.900879	1704.058716	8.388939
709.714600	1422.971558	4760.798340	1710.374390	8.610478
710.039063	1424.531738	4807.162598	1715.501343	8.601872
710.363403	1424.977539	4856.277344	1732.590820	8.964920
710.687744	1421.336914	4911.261230	1742.770386	9.210328
711.012085	1426.315063	4972.115234	1749.234741	9.107102
711.336304	1427.280884	4998.641113	1741.952759	8.810981
711.660461	1436.048462	4993.662598	1733.779663	8.368844
711.984619	1434.042480	4960.821289	1733.036621	8.477825
712.308716	1432.407837	4928.945313	1735.562988	8.670153
712.632751	1429.212891	4890.159668	1732.516602	8.763605
712.956726	1431.144653	4834.283691	1724.343262	8.615534
713.280701	1442.884644	4794.605957	1723.228882	8.364187
713.604553	1442.587402	4747.721191	1721.222656	8.430377
713.928467	1439.169434	4727.510742	1727.241089	8.760394
714.252258	1435.008423	4718.668457	1724.343140	8.811348
714.575989	1439.540894	4709.529297	1729.990234	8.882275
714.899719	1439.169312	4726.916016	1728.207031	8.791363
715.223267	1436.494507	4723.646973	1731.179199	8.964741
715.546936	1440.283813	4723.721191	1738.906616	9.094822
715.870422	1440.655273	4702.544922	1735.265747	9.031896
716.193970	1438.649048	4673.344238	1728.950073	8.974602
716.517395	1436.643066	4660.117676	1721.891235	8.849090
716.840820	1437.906250	4613.456543	1724.640503	9.029435
717.164124	1438.500610	4564.416016	1733.333862	9.431901
717.487488	1433.299438	4511.661133	1738.312134	9.908279
717.810730	1430.698853	4461.729980	1731.401978	9.920819
718.133972	1428.321289	4395.674805	1726.349609	10.043573
718.457092	1433.671021	4325.161621	1718.101929	9.836826
718.780212	1433.819702	4258.140137	1714.832397	9.949746
719.103210	1432.556519	4226.338867	1710.002930	9.930853
719.426208	1429.881470	4169.720215	1700.937988	9.893155
719.749207	1433.745239	4129.819824	1708.739624	10.199806
720.072083	1437.014648	4075.727295	1704.355835	10.131500
720.394958	1434.414063	4054.104736	1709.259766	10.491532
720.717773	1425.126343	4028.247803	1703.018188	10.675331
721.040527	1419.999390	4005.213867	1708.888306	11.174660
721.363281	1422.153931	3971.926514	1700.714966	10.924937
721.685913	1431.961914	3950.824219	1693.061646	10.365780
722.008545	1438.054810	3929.499268	1680.801758	9.743222
722.331055	1439.689575	3916.867920	1676.566528	9.562370
722.653503	1437.906250	3897.029297	1678.721313	9.792721
722.976013	1438.277710	3898.366455	1681.693481	9.894592
723.298401	1436.568848	3894.651611	1690.164063	10.316789
723.620789	1430.030273	3895.691650	1688.752319	10.493008
723.943115	1428.098267	3889.747314	1689.272461	10.609726
724.265381	1425.943481	3891.010742	1687.786499	10.622145
724.587585	1429.955933	3878.602295	1695.142212	10.829913
724.909790	1431.219116	3892.645264	1704.058594	11.084609
725.231873	1432.036499	3902.899170	1707.996704	11.168576
725.553894	1435.825806	3936.558350	1709.482788	10.943073
725.875916	1478.475586	3989.313232	1756.516235	11.073621
726.197937	1479.515747	3995.628906	1754.658813	10.935242
726.519775	1479.590210	3989.981689	1752.578247	10.874321
726.841675	1438.797852	3943.542725	1710.374390	10.842483
727.163513	1442.587402	3960.855469	1724.789063	11.206181
727.485291	1437.534790	4000.310303	1729.470093	11.391373
727.806946	1440.061157	4044.000000	1729.470093	11.114275
728.128662	1436.643188	4076.321533	1726.869507	10.994761
728.450256	1446.376831	4080.928467	1730.435913	10.782065
728.771790	1442.438843	4074.240967	1730.287476	10.937320
729.093323	1443.776245	4059.305908	1732.665039	11.045135
729.414795	1440.061157	4040.804932	1730.881836	11.182213
729.736145	1439.169434	4026.018799	1737.791992	11.543871
730.057495	1437.609009	4027.653564	1737.420532	11.575536
730.378845	1424.977539	4056.111328	1743.587524	12.109228
730.700134	1423.640015	4084.049072	1737.123169	11.783268
731.021301	1422.822754	4102.476074	1746.411133	12.075755
731.342468	1435.751465	4113.324219	1749.531860	11.718838
731.663574	1433.968140	4125.509766	1763.797852	12.254305
731.984680	1434.488403	4143.119629	1753.841309	11.790195
732.305664	1432.036499	4149.732910	1753.990112	11.846563
732.626648	1432.259277	4147.131836	1747.302734	11.604355
732.947571	1434.562622	4138.810059	1752.429688	11.754363
733.268433	1437.014648	4142.971191	1753.544067	11.697506
733.589233	1439.986694	4128.705078	1753.172729	11.648153
733.909973	1431.962036	4100.172363	1743.959106	11.693121
734.230713	1428.321289	4038.278564	1738.386597	11.880092
734.551331	1424.903320	3999.492432	1729.395874	11.826840
734.871948	1426.389282	3950.229736	1731.104858	12.073488
735.192505	1424.903320	3903.865234	1728.578491	12.250094
735.513062	1427.132324	3851.555908	1729.395874	12.467440
735.833435	1432.779297	3803.556396	1713.272095	11.831260
736.153931	1438.797852	3778.887695	1706.807983	11.452985
736.474304	1448.902954	3753.550537	1708.442383	11.261567
736.794617	1444.073608	3744.931396	1719.439331	11.967958
737.114807	1445.113770	3734.008789	1716.244141	11.845469
737.434998	1440.432617	3735.272217	1707.699585	11.646434
737.755188	1446.451172	3733.860596	1710.523071	11.544584
738.075256	1437.683228	3746.417725	1713.940918	11.965763
738.395325	1434.859863	3768.485596	1726.646606	12.503579
738.715271	1437.609009	3804.893799	1734.374146	12.536098
739.035278	1444.370728	3823.915283	1737.643555	12.324747
739.355164	1437.683472	3810.094971	1731.625000	12.389989
739.675049	1432.630737	3793.079834	1728.950073	12.553514
739.994873	1429.955933	3767.593750	1733.482422	12.984325
740.314636	1435.900024	3754.962158	1730.213257	12.691047
740.634277	1433.745239	3717.141846	1721.148071	12.586637
740.953979	1433.819702	3678.579102	1709.854126	12.296839
741.273499	1433.373657	3641.055908	1711.786133	12.611076
741.593140	1434.191040	3606.802734	1710.671509	12.725718
741.912598	1427.875366	3585.031982	1710.448608	13.099338
742.232117	1433.819702	3555.013672	1706.139038	12.838022
742.551453	1433.670898	3529.453369	1708.442383	13.110687
742.870850	1441.026978	3501.961670	1706.139038	12.863682
743.190063	1433.893921	3475.361084	1696.108032	12.844396
743.509338	1437.088867	3456.414063	1684.071167	12.230932
743.828552	1436.940308	3446.457275	1679.538696	12.072473
744.147705	1442.513062	3435.832031	1687.786255	12.304764
744.466797	1440.655396	3424.017578	1684.888550	12.314097
744.785828	1443.850586	3402.172607	1687.340454	12.433597
745.104858	1443.255981	3372.080078	1678.572876	12.200018
745.423706	1444.444824	3353.727539	1690.832886	12.904745
745.742615	1439.392212	3325.046875	1692.318848	13.413200
746.061401	1436.048706	3325.715576	1701.086548	14.025639
746.380249	1428.395508	3321.926025	1689.941040	13.812586
746.698975	1429.435669	3327.424561	1692.244507	13.846701
747.017639	1429.361328	3330.396729	1692.838867	13.859686
747.336304	1435.305664	3344.291260	1705.841797	14.171722
747.654907	1433.522461	3358.854492	1704.355835	14.066840
747.973389	1435.157104	3374.978271	1702.201172	13.766427
748.291931	1436.940308	3364.278564	1695.216675	13.400677
748.610352	1440.432617	3347.040283	1681.247681	12.630551
748.928711	1439.243774	3330.694092	1686.300293	13.061750
749.247070	1435.900024	3326.161377	1695.885254	13.753930
749.565308	1438.946655	3338.421143	1707.699585	14.148805
749.883545	1439.095093	3329.133545	1699.005981	13.751619
750.201782	1446.228149	3309.740479	1688.083618	12.978475
750.519836	1439.763672	3290.198486	1687.637695	13.395448
750.837952	1434.339722	3294.508545	1683.328125	13.385259
751.155884	1428.692749	3302.755859	1687.637573	13.817295
751.473877	1430.475952	3301.269531	1693.433228	14.055922
751.791809	1433.076538	3292.724854	1686.225952	13.612758
752.109619	1437.460449	3286.409424	1681.916382	13.221346
752.427490	1438.649292	3288.861328	1682.065063	13.156101
752.745300	1441.175659	3287.746826	1698.708862	13.946563
753.062988	1435.677246	3283.734619	1700.640747	14.337407
753.380615	1436.123047	3271.920166	1691.724243	13.923172
753.698303	1438.872192	3258.768799	1687.489136	13.661048
754.015808	1438.649414	3260.998047	1682.882324	13.402096
754.333374	1431.739136	3265.307373	1692.987427	14.248081
754.650757	1428.692749	3267.759521	1696.776978	14.577188
754.968262	1426.389282	3259.511719	1697.742798	14.802804
755.285583	1427.429688	3260.700439	1686.077271	14.108532
755.602905	1429.361450	3251.338623	1681.396362	13.833044
755.920105	1430.847534	3239.226807	1685.631470	14.089076
756.237305	1434.934204	3223.846436	1692.913086	14.420992
756.554443	1433.819702	3225.703857	1696.182251	14.641714
756.871582	1435.751465	3239.673096	1700.640625	14.684072
757.188599	1434.562622	3252.527344	1697.296997	14.452116
757.505615	1431.739136	3271.697266	1700.714966	14.618585
757.822510	1428.841309	3284.625977	1697.594238	14.481903
758.139465	1431.813477	3307.139893	1700.417603	14.323060
758.456238	1429.435669	3328.687500	1699.972046	14.244366
758.773010	1428.989868	3350.309570	1698.634399	14.034340
759.089783	1426.017944	3361.826416	1698.188599	14.059793
759.406433	1432.333496	3357.665771	1703.835571	14.101570
759.723145	1441.472656	3358.557373	1711.563110	14.088603
760.039673	1443.850464	3370.594482	1721.073853	14.388180
760.356201	1444.964966	3387.683838	1717.507324	14.028913
760.672668	1443.553345	3393.405273	1711.637573	13.748953
760.989136	1441.769897	3378.544922	1712.083374	13.956885
761.305481	1436.420288	3361.603516	1717.135864	14.581240
761.621826	1438.352051	3367.622070	1723.005859	14.754482
761.938049	1442.067261	3392.141846	1724.120483	14.463715
762.254333	1442.141602	3437.838623	1723.971802	14.121893
762.570496	1434.414063	3501.664307	1732.590820	14.423835
762.886597	1422.748657	3606.505615	1750.274780	14.998287
763.202637	1419.553345	3780.076416	1782.299316	15.367187
763.518677	1424.828979	3993.176758	1818.633423	15.332988
763.834656	1431.219116	4212.221191	1857.939453	15.344122
764.150574	1430.327515	4344.405762	1885.134277	15.607226
764.466370	1422.674194	4385.569824	1893.233276	15.881731
764.782288	1425.720581	4319.812012	1875.995117	15.558408
765.097961	1435.900024	4190.153809	1845.308105	14.864573
765.413696	1445.039429	4029.882080	1816.255859	14.361277
765.729309	1443.924805	3863.072510	1790.101196	14.309850
766.044861	1437.757813	3736.460938	1773.160156	14.590938
766.360474	1429.807251	3613.861328	1761.123047	15.169761
766.675903	1431.590454	3528.487549	1751.835327	15.272323
766.991394	1428.098267	3449.429688	1745.593750	15.707245
767.306763	1437.683228	3407.894531	1732.888062	14.983410
767.622131	1443.404663	3373.046631	1726.200806	14.655369
767.937378	1450.760620	3339.015625	1715.501343	14.020391
768.252625	1454.921509	3296.514404	1712.826294	14.004440
768.567810	1448.680176	3251.561279	1707.327759	14.346347
768.882996	1449.200195	3220.428467	1704.504395	14.413963
769.197998	1444.296265	3195.314453	1698.634399	14.525157
769.513062	1442.141602	3163.661377	1700.343384	14.998479
769.828064	1442.364380	3126.138428	1694.399292	14.968452
770.142944	1436.271606	3075.835693	1693.136108	15.666634
770.457825	1440.209595	3051.241211	1685.854492	15.247677
770.772705	1438.872192	3020.034180	1690.238281	15.897554
771.087402	1438.575073	3005.842529	1693.730469	16.280272
771.402100	1435.677124	2978.647461	1691.873047	16.604073
771.716736	1435.900024	2976.492920	1683.328125	16.060577
772.031372	1438.352051	2970.548584	1678.349976	15.663651
772.345947	1440.135376	2959.848877	1676.566528	15.557613
772.660461	1438.575073	2942.536377	1680.207397	16.066393
772.974854	1441.324097	2929.905029	1673.297241	15.583509
773.289246	1437.163208	2932.579834	1678.869995	16.163174
773.603638	1436.123047	2925.075195	1669.433594	15.669446
773.917908	1422.674194	2911.552002	1660.368652	15.964672
774.232178	1422.228516	2886.511963	1646.919922	15.344803
774.546265	1422.674194	2871.056885	1648.554565	15.595351
774.860474	1431.961914	2869.571045	1660.145874	15.872461
775.174561	1434.265259	2873.657471	1664.083862	15.966364
775.488586	1433.299438	2870.537109	1662.151733	15.923065
775.802551	1429.584351	2852.184326	1654.349976	15.799637
776.116516	1427.578247	2827.367188	1654.127075	16.184500
776.430359	1425.423340	2811.540283	1649.966309	16.199425
776.744202	1432.853638	2812.209229	1649.668945	15.718595
777.057922	1436.345825	2810.351563	1650.783569	15.606757
777.371704	1440.283813	2804.407471	1655.836304	15.801536
777.685303	1439.763672	2786.946533	1655.539063	16.016785
777.998962	1432.705078	2784.494385	1651.526733	16.187557
778.312500	1433.225098	2780.779297	1647.217163	15.880034
778.626038	1432.705078	2781.151123	1654.944336	16.481138
778.939453	1441.546997	2784.643311	1648.554321	15.412694
779.252869	1444.667847	2789.918701	1645.136353	14.901942
779.566223	1443.181763	2783.974609	1643.204712	14.918259
779.879578	1435.677246	2785.832031	1650.486328	15.909960
780.192749	1431.664917	2772.383057	1654.795898	16.642647
780.505920	1435.157104	2776.321045	1654.350098	16.343491
780.819031	1441.770020	2764.729736	1652.715332	15.944954
781.132141	1444.890625	2767.479248	1664.380859	16.595503
781.445190	1438.203491	2758.117188	1659.476929	16.764235
781.758118	1432.556274	2747.640625	1653.904297	16.831470
782.071045	1434.265259	2732.111328	1641.049927	15.932912
782.383911	1435.156860	2713.386719	1639.860962	16.014654
782.696838	1435.825806	2699.715088	1641.347046	16.261017
783.009583	1431.887695	2693.844971	1644.319214	16.833496
783.322266	1429.510132	2689.238281	1642.610229	16.916355
783.634888	1432.110718	2680.173584	1626.412231	15.568247
783.947510	1434.488403	2669.473877	1621.359741	15.131460
784.260132	1434.488281	2658.922852	1619.725098	15.128356
784.572571	1436.346069	2657.585205	1627.898438	15.685082
784.885010	1437.757690	2653.275635	1630.647461	15.868937
785.197449	1435.677246	2652.086914	1628.269897	15.832877
785.509766	1431.739136	2644.359619	1629.161499	16.280640
785.822083	1431.516235	2634.254395	1623.663086	15.975784
786.134277	1443.330444	2622.366211	1629.235840	15.767579
786.446533	1444.221802	2609.734619	1624.480469	15.466039
786.758606	1434.042480	2609.139893	1625.520508	16.294651
787.070740	1425.943359	2618.947754	1622.474243	16.473610
787.382690	1427.652466	2637.523438	1632.728149	16.950211
787.694641	1438.649414	2662.786621	1635.254395	16.060698
788.006653	1440.804077	2704.247803	1649.148804	16.490227
788.318481	1440.729858	2742.662109	1660.739868	16.898729
788.630310	1435.602905	2783.379883	1668.096069	17.250122
788.942017	1438.574829	2797.868896	1663.117676	16.519077
789.253784	1442.364380	2814.141357	1648.405884	15.020044
789.565430	1447.045532	2793.261963	1653.978516	15.371449
789.877014	1440.952637	2775.429443	1660.145508	16.425379
790.188538	1435.231323	2729.881836	1667.353027	17.929295
790.500061	1430.104492	2697.262939	1659.625488	18.113047
790.811462	1435.900024	2666.873291	1640.975586	16.659628
791.122925	1439.986694	2649.560791	1633.025269	15.959219
791.434204	1438.203491	2635.666260	1625.669312	15.655252
791.745483	1438.723633	2609.214600	1614.821167	15.044758
792.056702	1436.643066	2585.214600	1606.201782	14.762573
792.367920	1444.296265	2568.273438	1602.115234	14.041119
792.678955	1451.206421	2567.158936	1609.248413	14.162071
792.990112	1444.964966	2563.220947	1622.548462	15.880398
793.301086	1433.596680	2556.459473	1627.749634	17.290888
793.612122	1423.342896	2544.645264	1636.517456	19.011335
793.922974	1429.287231	2538.180908	1628.715698	17.984453
794.233826	1435.900024	2534.614502	1623.663086	17.089340
794.544556	1431.442017	2533.277100	1613.409302	16.514929
794.855286	1431.144653	2531.048096	1612.443359	16.483147
795.166016	1431.590454	2538.032471	1603.229858	15.512733
795.476624	1439.986694	2542.118896	1608.356812	15.276762
795.787292	1440.878418	2562.923828	1612.220337	15.270497
796.097778	1439.689575	2579.418701	1617.050171	15.561645
796.408264	1434.116821	2597.102783	1623.142944	16.253517
796.718689	1432.630737	2613.152100	1622.697144	16.100208
797.029053	1430.996094	2625.412354	1625.074707	16.248825
797.339355	1434.711304	2630.019287	1625.817749	15.988050
797.649658	1434.488281	2619.839600	1629.087280	16.416988
797.959839	1435.602905	2595.988525	1628.715698	16.642122
798.270020	1434.488281	2576.669922	1619.576538	16.204800
798.580078	1433.745483	2560.397217	1617.495972	16.309431
798.890137	1435.305664	2554.230225	1616.752930	16.216219
799.200195	1431.367554	2552.892822	1614.746704	16.350870
799.510071	1430.698853	2537.586426	1615.415527	16.687935
799.820007	1430.773071	2520.274170	1621.656860	17.520294
800.129883	1426.983765	2502.887451	1619.576294	17.900536
800.439575	1431.739258	2500.063721	1615.415527	17.192930
800.749329	1432.556519	2490.552979	1607.613647	16.546099
801.058960	1436.048828	2478.739014	1612.220337	16.895863
801.368591	1435.008423	2462.466553	1614.746704	17.493490
801.678162	1434.191040	2462.169189	1615.192505	17.607521
801.987671	1439.541016	2456.373535	1607.316406	16.499805
802.297119	1431.664673	2453.624268	1606.201782	17.078671
802.606506	1429.732910	2436.832031	1598.771606	16.784714
802.915894	1421.113892	2432.002441	1598.697266	17.567059
803.225159	1426.760864	2427.990234	1588.815063	16.185522
803.534424	1430.253052	2430.070557	1590.301147	16.007730
803.843628	1430.996094	2428.510010	1589.706665	15.910612
804.152771	1427.875488	2423.457275	1594.907837	16.777361
804.461792	1425.423462	2425.538086	1602.189453	17.674574
804.770874	1433.002319	2429.698975	1603.898438	17.146252
805.079773	1439.392212	2445.748291	1603.824219	16.339346
805.388733	1438.054688	2456.745117	1604.492798	16.338438
805.697571	1434.042480	2468.336182	1612.740601	17.277309
806.006470	1429.138550	2474.800537	1617.867554	18.048758
806.315125	1432.407837	2485.500488	1614.003540	17.244040
806.623901	1425.794922	2480.373535	1617.644531	18.192064
806.932495	1426.166504	2473.686279	1619.130493	18.421036
807.241150	1428.172485	2461.872070	1621.433960	18.696096
807.549622	1440.209595	2452.138428	1610.585815	16.836779
807.858154	1445.410767	2442.924805	1602.932617	15.791442
808.166565	1438.426392	2434.157227	1606.424805	16.871870
808.474915	1439.615234	2424.052002	1605.013062	16.801264
808.783264	1441.026978	2403.247314	1600.183472	16.540546
809.091492	1444.519165	2386.231689	1587.031860	15.133354
809.399719	1443.553345	2371.742920	1593.644897	16.170355
809.707825	1438.575073	2368.919189	1599.514771	17.298943
810.015930	1439.392456	2364.460938	1600.926392	17.461836
810.323975	1430.921875	2364.906982	1599.886230	18.090691
810.632080	1436.643188	2351.904053	1592.455933	17.023861
810.939880	1433.225220	2329.539063	1596.914063	18.262447
811.247864	1435.825806	2310.369141	1590.524048	17.689032
811.555664	1438.055054	2302.195557	1589.483887	17.523636
811.863464	1442.810181	2291.421631	1586.214478	16.898699
812.171143	1445.931030	2292.536133	1587.403320	16.710541
812.478882	1438.277710	2283.768555	1587.477539	17.646534
812.786438	1435.231445	2299.743408	1586.288696	17.473124
813.094055	1427.875366	2299.149170	1586.660278	18.224457
813.401489	1430.550293	2302.864258	1583.242554	17.504278
813.708984	1430.401733	2295.433838	1587.329102	18.141218
814.016357	1437.163208	2291.124512	1577.446777	16.427391
814.323730	1429.287109	2290.381348	1582.350586	17.775461
814.630981	1424.234497	2287.855225	1574.028809	17.344919
814.938232	1420.370728	2275.372314	1574.994751	18.084648
815.245361	1427.652466	2263.558105	1569.793579	17.004444
815.552490	1426.240723	2254.121582	1566.895874	16.989782
815.859619	1423.640137	2262.294922	1566.895874	17.081610
816.166565	1422.302734	2272.994385	1571.130981	17.494970
816.473572	1422.822754	2287.334961	1573.731812	17.455978
816.780457	1426.315063	2298.183350	1575.589233	17.121183
817.087341	1423.714478	2304.201660	1573.880249	17.054850
817.394043	1430.327515	2299.594971	1571.354004	16.223602
817.700806	1432.630737	2298.257568	1567.192993	15.545065
818.007507	1433.819702	2302.715576	1569.942383	15.666167
818.314209	1428.692749	2315.421387	1578.784180	16.926422
818.620667	1434.711304	2328.870361	1586.511719	16.976892
818.927246	1438.054810	2362.009033	1590.672729	16.517910
819.233704	1441.101196	2388.386719	1597.359985	16.495426
819.540161	1427.801147	2420.782959	1600.183472	17.360069
819.846497	1423.268555	2459.494385	1611.254517	18.141409
820.152832	1425.943359	2541.153076	1620.096558	17.409569
820.458984	1432.333618	2633.288330	1639.935181	17.286377
820.765259	1439.838257	2731.145264	1651.972290	16.427855
821.071350	1441.398438	2821.497314	1668.839233	16.480036
821.377502	1444.816406	2971.217529	1697.817017	16.574976
821.683472	1437.906250	3265.084717	1760.231445	17.640596
821.989441	1432.259277	3880.088135	1873.468750	18.024523
822.295349	1433.150879	4863.855957	2061.157471	18.305468
822.601196	1431.367554	6172.921875	2282.282227	17.945902
822.907043	1442.067383	7423.808105	2495.085205	17.603868
823.212769	1439.466675	8235.045898	2623.554932	17.424391
823.518494	1444.742065	8256.666992	2644.508057	17.612732
823.824097	1435.008423	7614.691406	2546.651611	17.988676
824.129700	1431.887695	6611.529785	2385.117188	18.403385
824.435242	1434.934082	5621.372559	2207.013916	18.442402
824.740723	1436.197388	4806.791504	2057.071045	18.420303
825.046082	1437.386108	4215.341797	1941.158569	18.134647
825.351501	1438.203491	3809.203369	1861.357544	17.847071
825.656799	1437.311890	3543.422607	1806.670776	17.537485
825.962036	1438.055054	3366.878906	1780.293335	17.743366
826.267212	1426.983765	3294.433838	1760.082886	17.837111
826.572449	1432.036255	3311.969482	1771.896973	18.078341
826.877502	1433.968140	3444.971436	1784.825684	17.446890
827.182495	1439.243774	3691.061768	1833.716797	17.517981
827.487488	1433.968262	4019.702881	1888.255249	17.568972
827.792419	1429.584473	4332.962891	1949.406250	17.904032
828.097290	1425.200562	4443.822754	1972.588745	18.133711
828.402100	1419.330566	4321.148926	1954.458862	18.441137
828.706848	1424.531616	4009.226318	1895.833984	18.234352
829.011597	1429.955688	3645.737305	1828.367188	17.980629
829.316223	1444.296265	3308.477295	1758.745483	16.867954
829.620789	1449.868774	3019.068359	1710.671509	16.620111
829.925354	1450.240601	2803.441650	1676.120728	16.692282
830.229797	1439.020874	2642.650635	1655.093140	17.951721
830.534302	1433.893921	2540.261475	1634.288208	18.112814
830.838562	1430.030151	2467.593506	1611.923218	17.530792
831.142944	1433.522339	2404.584717	1597.657227	16.902611
831.447144	1430.624390	2359.408447	1588.072144	16.952030
831.751404	1431.887573	2332.288086	1590.746948	17.643190
832.055542	1437.609009	2336.226318	1596.839844	17.719538
832.359619	1443.553223	2336.077637	1602.486816	17.807198
832.663635	1442.141602	2354.653320	1601.743774	17.490425
832.967651	1439.540894	2390.690186	1604.270142	17.318968
833.271545	1440.209595	2493.673584	1615.266968	16.617310
833.575439	1441.175659	2657.659668	1647.959961	16.998522
833.879211	1443.033203	2885.174805	1684.294067	16.729347
834.183044	1443.033203	3120.120117	1729.618652	17.088289
834.486694	1443.033081	3303.276123	1765.952759	17.359005
834.790344	1439.763794	3353.579102	1778.732788	17.711687
835.093933	1434.488281	3293.468018	1761.568726	17.594622
835.397522	1440.432617	3132.751221	1728.281250	17.009129
835.700928	1438.872192	2949.149170	1701.977905	17.421024
836.004395	1441.770020	2754.327393	1675.600586	17.814884
836.307739	1429.881470	2605.276367	1649.520386	18.686394
836.611023	1428.321289	2479.184326	1617.421753	17.994778
836.914307	1428.098267	2379.544434	1599.811890	18.047646
837.217529	1438.426392	2290.083984	1583.242310	17.004007
837.520691	1436.197266	2229.378906	1580.270142	18.163919
837.823730	1433.745239	2181.973633	1568.158813	17.964245
838.126831	1430.996094	2141.107178	1550.994995	16.898609
838.429749	1435.454224	2118.667725	1543.118774	15.758552
838.732727	1427.132446	2097.640137	1539.478027	16.755301
839.035522	1426.909546	2088.723877	1547.428589	18.210402
839.338379	1432.407837	2072.302979	1547.428589	17.974937
839.641113	1438.723633	2067.176270	1550.920898	17.852940
839.943848	1435.602905	2089.689941	1555.230347	18.289225
840.246460	1427.206665	2134.791504	1557.905151	18.471069
840.549072	1431.961914	2215.038330	1564.741089	16.956095
840.851563	1440.060913	2258.802490	1571.354004	16.035963
841.154053	1446.005249	2272.400146	1578.635742	16.049288
841.456482	1441.695679	2234.877197	1574.474609	16.740044
841.758850	1434.934204	2186.282959	1562.140503	16.930393
842.061157	1433.671021	2127.732666	1549.211792	16.647047
842.363403	1430.773071	2080.847656	1539.923828	16.790497
842.665588	1431.887695	2035.299927	1530.784546	16.389601
842.967712	1437.757690	2002.384155	1522.834351	15.067778
843.269775	1440.506836	1955.944824	1517.187134	14.876726
843.571777	1441.621460	1934.842896	1513.917969	14.658023
843.873840	1433.745239	1914.335327	1515.032593	16.914072
844.175659	1446.376587	1917.976196	1518.821899	15.361614
844.477600	1455.367310	1904.601563	1520.753906	14.555122
844.779297	1462.500488	1895.090820	1512.580566	11.576791
845.081116	1454.401733	1877.332520	1502.995483	11.489764
845.382751	1447.342773	1874.657715	1503.144165	13.058610
845.684387	1444.296387	1863.586548	1502.326782	13.840152
845.985962	1437.832031	1855.636108	1506.264771	16.379147
846.287537	1436.420288	1837.208984	1506.041626	17.371082
846.588989	1431.070313	1825.840820	1496.753906	16.638424
846.890381	1431.293335	1813.878052	1497.348267	17.265440
847.191711	1435.008423	1810.608887	1497.645630	16.676552
847.493042	1432.036499	1816.627319	1507.379272	19.590372
847.794250	1437.163208	1821.902710	1503.664063	17.284645
848.095459	1435.008423	1815.438354	1496.085327	16.054705
848.396606	1444.370605	1805.556030	1495.788086	14.235757
848.697693	1443.181763	1799.686157	1488.357788	12.671941
848.998657	1441.621460	1797.902954	1495.490845	15.119894
849.299622	1438.649292	1797.605835	1494.673462	15.607508
849.600464	1437.980469	1794.187866	1494.302124	15.811479
849.901367	1442.364380	1799.537720	1489.546509	13.209868
850.202087	1440.135254	1793.370483	1491.255493	14.472011
850.502808	1438.352051	1788.912476	1501.137817	17.910112
850.803467	1434.414063	1779.921753	1494.896484	17.505377
851.104065	1436.123047	1780.813354	1488.432129	15.175675
851.404663	1435.454468	1780.441895	1483.602539	13.956471
851.705139	1432.928101	1780.590454	1489.769531	16.349607
852.005615	1429.138550	1779.773071	1489.620972	17.249420
852.306030	1430.178711	1779.178589	1493.930664	18.267042
852.606384	1438.574829	1779.178589	1493.187500	16.034077
852.906616	1441.844238	1781.704956	1495.862427	15.894214
853.206909	1439.838013	1778.138306	1483.602417	12.936555
853.506958	1434.265503	1774.274536	1477.732422	12.784048
853.807129	1439.243774	1767.513062	1474.389038	10.706229
854.107178	1447.342651	1765.729858	1485.905884	12.112055
854.407166	1440.804077	1769.370728	1495.342285	16.598827
854.707092	1437.534790	1761.494629	1491.181274	16.559610
855.007019	1439.317993	1756.590820	1485.831421	14.660388
855.306763	1451.578003	1751.017944	1478.401245	8.957804
855.606567	1446.525391	1751.761108	1488.654907	13.802289
855.906250	1439.615234	1757.705078	1486.425781	14.716140
856.205933	1431.813477	1748.937500	1481.893433	15.791915
856.505493	1438.054810	1745.593750	1479.218384	13.384833
856.805054	1439.317993	1733.333984	1485.236938	15.617840
857.104492	1436.494507	1738.906616	1492.444458	18.501226
857.403931	1431.664673	1735.191406	1484.939819	17.552044
857.703308	1427.355103	1739.649536	1473.794434	14.870368
858.002563	1428.024048	1732.442261	1475.057617	15.450314
858.301819	1428.915649	1741.878784	1480.035767	16.334230
858.601013	1430.476074	1744.999512	1482.785156	16.631220
858.900208	1438.946411	1747.228516	1479.144165	13.039276
859.199219	1442.661621	1752.875488	1476.246582	10.826389
859.498291	1441.918579	1750.497681	1476.395020	11.172643
859.797302	1430.996094	1752.949829	1475.429199	13.801084
860.096191	1430.698853	1743.662109	1483.156616	16.761637
860.395020	1428.024048	1739.649780	1483.379517	17.763447
860.693787	1433.893921	1731.773438	1480.184570	15.540058
860.992554	1433.671021	1721.371094	1472.159790	13.378088
861.291260	1435.900024	1713.346558	1478.624146	15.399047
861.589844	1431.516235	1711.934570	1482.042114	18.018038
861.888428	1428.469727	1714.832397	1480.778931	18.266768
862.186890	1433.893921	1720.628052	1478.847168	15.677675
862.485413	1436.048706	1716.541382	1485.088501	17.483450
862.783813	1435.008423	1710.002808	1489.398071	19.778458
863.082153	1434.042480	1703.389771	1484.271118	18.648281
863.380371	1433.448120	1705.321655	1478.549805	16.589214
863.678589	1439.838013	1707.550781	1485.905640	17.207855
863.976746	1435.677124	1710.448608	1489.323608	19.524036
864.274902	1437.757690	1712.900513	1489.843750	18.930553
864.572937	1432.630859	1716.244263	1480.927612	17.029079
864.870911	1436.346069	1716.838745	1479.441406	15.364158
865.168884	1434.637085	1717.804565	1476.840820	14.904160
865.466736	1431.590454	1716.912964	1480.704590	17.213551
865.764587	1430.030151	1716.987183	1479.590210	17.270899
866.062317	1432.705078	1711.711792	1480.927612	17.283646
866.360107	1438.797852	1716.615845	1480.258789	14.923777
866.657715	1438.351929	1714.609375	1476.692383	13.878523
866.955322	1436.643066	1715.649780	1475.280396	13.848172
867.252808	1430.698853	1711.265991	1469.336304	13.771196
867.550293	1428.766968	1708.591187	1472.234009	15.533695
867.847717	1427.280884	1710.894531	1474.463257	16.636143
868.145081	1421.113892	1707.328003	1484.494141	22.144348
868.442383	1423.788696	1706.436157	1482.710815	20.846506
868.739624	1426.909546	1705.544556	1476.098022	17.653372
869.036804	1433.522461	1709.036743	1464.432251	11.218943
869.333984	1426.909546	1710.225586	1466.215454	13.873520
869.631042	1426.166504	1714.089478	1476.543579	17.496719
869.928101	1430.104492	1717.061523	1487.614746	20.041416
870.224976	1435.900024	1719.885132	1484.939941	17.268482
870.521851	1435.305664	1718.324585	1479.664429	15.673428
870.818726	1429.807251	1721.445313	1469.113403	13.477716
871.115479	1433.893921	1715.426758	1471.491211	13.354495
871.412231	1434.488281	1712.380493	1472.828613	13.796836
871.708862	1434.116821	1712.009155	1471.119507	13.315475
872.005493	1431.293335	1710.522949	1469.039063	13.517810
872.302063	1432.036255	1706.956421	1466.067017	12.378416
872.598572	1439.169312	1698.931641	1474.611816	13.644205
872.895020	1440.655396	1705.396118	1477.583984	13.948964
873.191406	1437.609009	1712.157593	1477.658203	14.587289
873.487671	1436.865845	1718.250366	1483.602417	16.609503
873.783997	1439.466431	1721.965454	1485.311401	16.228365
874.080200	1436.717407	1720.182129	1493.261719	19.947565
874.376343	1433.745483	1715.129517	1487.243286	19.012381
874.672424	1425.274780	1712.454712	1479.961548	19.042685
874.968445	1427.206665	1712.454712	1470.748047	15.264393
875.264465	1426.092163	1710.002930	1466.364258	14.184772
875.560364	1432.036255	1711.340210	1470.822266	13.886667
875.856201	1431.441895	1712.974976	1473.794312	15.043496
876.152039	1427.280884	1722.114258	1479.812866	17.817516
876.447754	1424.828979	1718.399048	1483.453735	19.969595
876.743469	1427.578125	1718.027466	1490.586914	21.693556
877.039063	1433.150879	1714.683960	1488.134888	19.530212
877.334595	1434.859863	1715.946899	1487.837769	18.847509
877.630127	1436.940308	1718.176147	1484.568359	16.935270
877.925537	1438.723633	1716.095703	1483.973999	16.313959
878.221008	1439.838257	1720.999634	1478.698608	13.821369
878.516296	1440.284058	1721.371094	1477.063843	13.084839
878.811646	1440.804077	1734.819946	1487.689087	15.946422
879.106812	1433.968140	1743.884888	1490.586914	18.269028
879.401978	1435.825806	1763.500977	1491.849976	17.097471
879.697083	1439.169434	1788.392212	1482.562134	12.425507
879.992126	1445.039429	1818.113403	1503.366821	15.634270
880.287109	1445.336548	1865.295532	1510.128540	15.428171
880.582031	1440.284058	1927.338257	1528.258423	18.062542
880.876892	1436.940308	2058.631104	1541.930054	16.887775
881.171753	1429.807251	2292.015869	1577.669556	17.149250
881.466492	1430.401733	2681.139404	1644.096313	17.085484
881.761230	1432.779419	3212.626953	1725.457886	16.444019
882.055786	1432.705078	3747.829346	1828.961548	17.115992
882.350403	1431.813477	4101.807129	1890.632813	17.184286
882.644958	1433.076538	4141.633301	1903.486938	17.367567
882.939453	1434.116821	3912.781250	1862.472046	17.281694
883.233826	1434.116821	3554.716553	1799.686157	17.238960
883.528137	1424.605957	3176.589844	1739.426636	17.969381
883.822449	1424.234375	2843.490479	1680.727417	18.072357
884.116577	1436.791626	2568.273438	1633.991211	17.428436
884.410828	1449.125977	2359.854248	1590.301147	15.501349
884.704956	1453.138306	2213.106689	1566.078491	14.861169
884.999023	1445.633789	2098.680420	1530.413086	12.982120
885.292969	1439.540894	2024.377808	1523.800171	14.407311
885.586914	1438.352051	1965.529907	1509.162476	13.431980
885.880798	1431.219116	1926.520874	1514.661011	16.846678
886.174622	1435.825806	1900.217773	1512.357544	16.479988
886.468384	1431.962280	1877.109741	1510.797241	17.709852
886.762085	1433.671021	1862.917969	1514.289429	18.781359
887.055664	1429.212891	1832.453735	1505.893188	19.016005
887.349304	1429.807251	1817.444702	1496.234009	17.136311
887.642822	1432.705078	1795.228027	1487.540527	15.126063
887.936340	1431.739258	1784.676880	1484.419556	14.926234
888.229736	1437.386108	1763.649414	1484.791138	14.529685
888.523071	1427.578125	1746.336914	1483.527954	17.552404
888.816284	1430.550171	1736.083008	1481.819214	16.780207
889.109619	1426.983765	1722.114258	1483.230957	19.058414
889.402710	1437.980469	1712.454712	1480.110229	15.349258
889.695862	1442.067017	1694.622070	1472.828491	12.180106
889.988892	1442.661621	1686.820313	1466.661499	9.829622
890.281921	1434.859863	1686.077393	1463.837891	11.535034
>>>>>End Processed Spectral Data<<<<<
