Jaz Data File
++++++++++++++++++++++++++++++++++++
Date: Fri Jun 04 11:32:03 2021
User: jaz
Dark Spectrum Present: Yes
Reference Spectrum Present: Yes
Processed Spectrum Present: Yes
Spectrometers: JAZA3586
Integration Time (usec): 48100 (JAZA3586)
Spectra Averaged: 10 (JAZA3586)
Boxcar Smoothing: 1 (JAZA3586)
Correct for Electrical Dark: No (JAZA3586)
Strobe/Lamp Enabled: Yes (JAZA3586)
Correct for Detector Non-linearity: No (JAZA3586)
Correct for Stray Light: No (JAZA3586)
Number of Pixels in Processed Spectrum: 2048
>>>>>Begin Processed Spectral Data<<<<<
W	D	R	S	P
191.335022	0.000000	0.000000	0.000000	0.000000
191.713211	471.896606	472.045166	468.627289	-2200.677979
192.091385	951.149109	946.765198	939.112061	274.573273
192.469528	1429.955688	1419.776367	1405.361694	241.607407
192.847641	1441.621460	1414.277954	1413.014771	104.619682
193.225739	1446.079590	1421.485352	1421.188110	101.208580
193.603790	1455.292969	1432.482300	1429.510132	113.029724
193.981842	1456.704712	1446.748413	1438.872192	179.107925
194.359863	1459.751343	1449.051636	1439.689453	187.499435
194.737854	1462.351929	1459.454102	1445.782227	571.797485
195.115829	1468.444702	1463.317749	1440.729858	540.571411
195.493774	1471.268188	1460.494141	1433.893921	346.891602
195.871704	1476.766602	1456.927734	1432.482056	223.221146
196.249603	1481.076172	1459.676880	1431.367554	232.290955
196.627457	1478.847046	1466.512817	1441.472778	303.012604
197.005310	1472.085449	1467.032837	1440.878296	617.643921
197.383133	1462.872070	1467.107300	1443.850464	-449.128113
197.760910	1464.135132	1468.519043	1443.404663	-472.876129
198.138687	1463.614868	1462.426270	1443.999023	1650.333740
198.516449	1460.048462	1460.197266	1439.466675	-13831.500977
198.894180	1449.200195	1455.813110	1433.299438	-240.450043
199.271866	1442.587280	1459.082520	1436.123047	-39.188480
199.649536	1445.113647	1459.305298	1438.277954	-48.167007
200.027191	1458.116699	1457.967896	1438.649414	13082.526367
200.404816	1458.934082	1457.670776	1435.900024	1823.316284
200.782410	1454.921509	1463.540649	1434.637085	-235.341599
201.159988	1447.862915	1474.091675	1434.785645	-49.858517
201.537537	1452.023804	1479.367188	1427.280884	-90.489601
201.915070	1454.104126	1485.534180	1425.051880	-92.434608
202.292557	1454.624390	1488.877930	1429.064087	-74.620911
202.670029	1451.652344	1490.884155	1436.122925	-39.583740
203.047485	1457.745117	1493.336060	1432.407837	-71.190247
203.424911	1454.995972	1488.729370	1430.921753	-71.366127
203.802292	1454.104126	1483.082397	1429.510132	-84.870468
204.179688	1442.958862	1475.800659	1438.946655	-12.216771
204.557037	1435.602905	1476.469238	1432.853638	-6.727463
204.934357	1435.231445	1478.401245	1433.076538	-4.991701
205.311661	1431.664917	1477.881226	1424.680298	-15.112888
205.688934	1437.609009	1481.001831	1429.212891	-19.349094
206.066177	1432.110474	1482.265015	1435.157104	6.074487
206.443390	1436.271606	1486.277344	1431.962036	-8.618152
206.820587	1438.500854	1478.401367	1431.070435	-18.622368
207.197769	1440.209595	1480.778931	1427.132446	-32.234070
207.574921	1440.358276	1472.011353	1437.906250	-7.746566
207.952042	1431.664917	1469.410645	1431.961914	0.786836
208.329147	1433.076660	1469.708008	1431.887695	-3.245758
208.706223	1444.519165	1484.791382	1435.380005	-22.693462
209.083267	1447.937134	1491.850220	1441.101196	-15.566972
209.460297	1448.680176	1489.695313	1433.299438	-37.500149
209.837280	1442.364380	1481.670532	1420.667969	-55.198513
210.214264	1444.593384	1480.927612	1416.953003	-76.072571
210.591217	1439.466431	1485.236938	1415.466797	-52.434711
210.968124	1432.928101	1487.837524	1420.667969	-22.327919
211.345016	1434.859863	1488.655151	1425.794922	-16.850809
211.721893	1438.129272	1485.237183	1432.482056	-11.987831
212.098724	1441.026978	1485.237183	1430.476074	-23.865313
212.475555	1440.358398	1484.196899	1429.212891	-25.424017
212.852356	1439.541016	1484.345337	1421.485352	-40.298935
213.229126	1435.825806	1481.521973	1418.884766	-37.073219
213.605865	1438.649292	1480.556030	1409.522461	-69.503929
213.982590	1444.444946	1477.732544	1412.940430	-94.643410
214.359283	1445.856812	1485.608765	1416.804321	-73.084435
214.735931	1441.026978	1489.620972	1422.079712	-38.990963
215.112579	1439.317993	1498.165649	1425.572144	-23.358364
215.489197	1443.330444	1492.295898	1423.194336	-41.123093
215.865799	1440.432617	1492.890259	1423.268555	-32.719852
216.242355	1435.974487	1484.642578	1419.182007	-34.504086
216.618896	1428.023926	1479.961548	1415.912720	-23.318754
216.995407	1429.138550	1477.955444	1419.182007	-20.395691
217.371902	1429.212891	1484.048340	1417.398804	-21.544617
217.748367	1429.212891	1491.106934	1422.153931	-11.404910
218.124802	1432.705078	1489.026367	1413.906616	-33.377186
218.501236	1428.321289	1493.261719	1417.547363	-16.590475
218.877609	1429.138672	1488.283569	1410.265625	-31.909847
219.253983	1428.618530	1491.478516	1418.141724	-16.666893
219.630295	1427.429565	1489.175171	1416.135620	-18.291092
220.006592	1429.435913	1489.918091	1423.565796	-9.705532
220.382889	1426.538086	1491.924316	1422.376953	-6.363928
220.759140	1435.751587	1486.203003	1423.119995	-25.037140
221.135391	1441.992798	1497.868530	1421.485352	-36.701885
221.511581	1449.125977	1496.902466	1423.640137	-53.343895
221.887772	1442.735962	1503.887085	1422.599976	-32.928238
222.263931	1433.299438	1497.348267	1423.863159	-14.732946
222.640060	1434.191040	1497.868530	1426.092163	-12.718587
223.016159	1439.243774	1499.354492	1432.407837	-11.372244
223.392212	1440.581177	1506.264648	1423.640137	-25.791937
223.768265	1433.968140	1506.487671	1415.615356	-25.307365
224.144302	1431.590454	1511.020020	1412.346069	-24.228239
224.520294	1439.317993	1506.710571	1414.575195	-36.714424
224.896286	1439.838013	1512.580444	1422.525757	-23.799391
225.272217	1441.918579	1502.029419	1428.395508	-22.496893
225.648148	1438.574829	1501.435181	1439.838013	2.009508
226.024048	1436.866211	1500.617798	1430.475952	-10.023685
226.399902	1437.386230	1510.351440	1424.680298	-17.413687
226.775772	1436.197266	1511.985962	1421.336548	-19.608093
227.151581	1444.519165	1516.146973	1427.132324	-24.273870
227.527374	1444.890625	1522.314087	1425.943359	-24.472254
227.903137	1444.964966	1533.459595	1421.411011	-26.616255
228.278870	1437.609009	1548.988892	1420.742310	-15.143398
228.654572	1438.946655	1563.849243	1425.869141	-10.470171
229.030273	1437.757813	1585.322876	1429.658569	-5.488591
229.405930	1438.797852	1595.725220	1431.070313	-4.924277
229.781555	1434.562622	1603.824341	1426.983765	-4.477597
230.157181	1433.522461	1599.291870	1428.469727	-3.048050
230.532761	1430.773315	1592.827515	1426.537720	-2.613691
230.908325	1427.652466	1584.208374	1434.414063	4.318966
231.283859	1423.491577	1579.155762	1440.135376	10.692119
231.659332	1426.686523	1576.852417	1439.466675	8.510689
232.034821	1429.733032	1576.703735	1436.345825	4.499395
232.410263	1437.311890	1570.388062	1429.881470	-5.583584
232.785690	1430.030273	1567.415894	1434.191284	3.028709
233.161087	1434.711304	1562.957642	1425.051880	-7.531929
233.536469	1435.900024	1574.920532	1425.646118	-7.375823
233.911804	1442.884644	1585.322876	1423.417358	-13.667177
234.287140	1439.169434	1590.821289	1435.751465	-2.253826
234.662430	1441.844360	1594.833618	1439.317993	-1.651336
235.037704	1442.215820	1595.873657	1443.701782	0.967059
235.412933	1445.187866	1597.805664	1439.763672	-3.554103
235.788162	1440.506836	1603.452759	1430.996094	-5.836748
236.163345	1440.506836	1608.431030	1429.138550	-6.769892
236.538513	1434.934204	1612.666138	1427.652710	-4.096897
236.913635	1440.952637	1608.208130	1431.367676	-5.730730
237.288742	1443.627563	1617.718872	1425.869263	-10.200567
237.663834	1446.748169	1622.325684	1424.383179	-12.737958
238.038879	1440.952637	1620.839478	1417.770386	-12.887130
238.413910	1440.804077	1615.564087	1415.466797	-14.498328
238.788910	1440.135376	1610.882935	1416.135376	-14.055838
239.163879	1442.810181	1615.266968	1420.370728	-13.011638
239.538834	1439.541016	1624.183228	1421.336792	-9.859188
239.913757	1436.568848	1646.696899	1415.020996	-10.254629
240.288651	1440.655640	1674.040405	1416.729980	-10.251595
240.663528	1442.587402	1691.724243	1417.695923	-9.991087
241.038361	1445.931030	1713.866577	1424.011719	-8.180815
241.413177	1437.237671	1738.237793	1426.909546	-3.431269
241.787979	1436.271851	1779.995972	1434.488281	-0.518896
242.162735	1435.380005	1823.165649	1436.940308	0.402362
242.537476	1435.157227	1854.298706	1436.717407	0.372232
242.912170	1435.380005	1873.766113	1439.317993	0.898292
243.286865	1433.076660	1878.447266	1443.181763	2.268920
243.661514	1438.797852	1868.193359	1446.228149	1.730409
244.036148	1437.980469	1851.029297	1445.559570	1.834917
244.410751	1442.215820	1837.432007	1443.999023	0.451197
244.785339	1433.002319	1837.877808	1437.460449	1.101111
245.159882	1431.739258	1852.143921	1438.426392	1.590642
245.534378	1427.652466	1876.366699	1440.358276	2.831604
245.908890	1427.355347	1927.189819	1451.652222	4.860984
246.283356	1431.070313	1998.371704	1453.584106	3.968577
246.657791	1430.030273	2085.157227	1456.259155	4.003633
247.032196	1435.008423	2150.543701	1448.902954	1.941837
247.406586	1438.277832	2194.382080	1439.838013	0.206345
247.780960	1440.135376	2214.964111	1438.129272	-0.258909
248.155289	1446.822388	2208.425537	1443.924805	-0.380458
248.529602	1440.135376	2171.571289	1445.336426	0.711074
248.903870	1440.952759	2101.875244	1447.045532	0.921859
249.278122	1434.637085	2040.724243	1441.101196	1.066532
249.652344	1429.807251	1983.213867	1446.822632	3.074662
250.026550	1428.469727	1945.096680	1438.723511	1.984756
250.400711	1433.448120	1919.462280	1437.386108	0.810262
250.774857	1437.609009	1923.846069	1442.513062	1.008572
251.148987	1448.234375	1937.369141	1447.788452	-0.091166
251.523071	1446.079590	1967.759155	1448.160034	0.398797
251.897125	1446.079468	1988.563843	1440.581177	-1.013539
252.271164	1441.844238	2013.157837	1435.305664	-1.144481
252.645187	1438.426392	2014.198242	1438.203491	-0.038713
253.019165	1444.965210	2004.835938	1430.550171	-2.574708
253.393112	1437.163452	1984.625610	1440.060913	0.529253
253.767044	1438.649414	1961.145874	1439.838257	0.227531
254.140930	1434.265503	1932.019165	1454.847290	4.134934
254.514801	1436.420288	1905.716187	1453.286743	3.593992
254.888657	1430.996094	1898.434570	1457.447876	5.658880
255.262466	1429.212891	1908.539673	1454.773071	5.332517
255.636276	1428.321289	1926.595215	1454.847290	5.323578
256.010010	1427.503906	1948.588867	1452.246704	4.748323
256.383759	1425.349121	1966.495728	1447.045532	4.009341
256.757446	1427.132446	1998.668945	1442.364624	2.665128
257.131134	1428.172485	2039.386719	1444.296265	2.637991
257.504791	1428.692749	2099.349365	1450.017578	3.179694
257.878418	1432.036255	2172.611572	1454.178345	2.989850
258.252014	1435.082642	2262.517822	1458.636719	2.846637
258.625580	1429.732910	2370.182373	1463.317749	3.571148
258.999115	1422.451294	2498.354492	1467.701660	4.205803
259.372650	1420.370972	2634.774658	1474.166016	4.429749
259.746124	1424.160278	2766.067627	1474.166016	3.726467
260.119598	1430.624634	2848.468994	1482.636353	3.668366
260.493042	1435.379883	2861.769531	1474.389038	2.734818
260.866425	1444.742065	2812.878174	1472.011230	1.993162
261.239838	1438.426392	2715.615723	1457.745117	1.512597
261.613159	1435.082642	2594.353760	1457.447876	1.929250
261.986511	1423.640015	2483.196777	1458.265137	3.267887
262.359802	1428.989868	2397.600098	1463.837891	3.597734
262.733063	1426.315063	2367.358887	1468.518921	4.484792
263.106293	1427.875366	2351.160889	1467.032837	4.241101
263.479523	1429.510132	2347.594482	1463.169312	3.666240
263.852692	1436.123047	2326.492676	1462.054688	2.912458
264.225861	1438.574829	2316.536133	1457.447876	2.149645
264.598969	1431.070313	2325.675049	1456.110352	2.799006
264.972076	1432.779297	2355.990967	1454.847168	2.390337
265.345154	1441.769897	2392.250244	1455.664551	1.461856
265.718201	1449.200195	2430.442139	1456.630493	0.757234
266.091217	1450.686157	2479.110107	1456.481934	0.563559
266.464203	1440.061035	2535.951904	1463.095093	2.101857
266.837158	1427.058105	2588.335205	1463.392090	3.128795
267.210114	1417.918823	2637.597900	1456.036133	3.125192
267.583038	1424.977539	2657.956787	1458.116577	2.687721
267.955902	1432.259155	2673.560303	1463.392212	2.508099
268.328766	1440.506836	2661.226318	1473.645874	2.714714
268.701569	1434.339844	2671.108398	1474.760376	3.268237
269.074371	1434.859863	2672.966064	1471.788208	2.982648
269.447144	1427.206665	2706.996826	1470.227905	3.361585
269.819885	1434.042480	2762.872314	1469.559204	2.672782
270.192596	1437.311890	2860.655029	1471.119629	2.375235
270.565277	1441.621216	2979.910889	1476.023560	2.236402
270.937927	1439.763672	3103.699219	1474.240234	2.071989
271.310577	1439.392212	3207.351563	1480.927368	2.349328
271.683136	1444.222046	3275.041016	1481.967773	2.061685
272.055725	1439.615234	3305.282227	1492.072876	2.811737
272.428284	1445.708008	3281.059326	1486.945923	2.246868
272.800812	1439.392212	3239.969971	1481.967773	2.364550
273.173279	1441.026978	3158.237061	1484.345337	2.522601
273.545776	1432.333618	3129.705078	1487.986328	3.278759
273.918152	1436.866089	3093.073486	1491.701538	3.310905
274.290558	1438.574829	3082.671143	1484.122559	2.770381
274.662964	1444.519165	3059.934814	1491.701294	2.920742
275.035278	1442.290039	3069.519775	1498.685913	3.465760
275.407593	1436.420288	3105.928467	1499.577515	3.782984
275.779907	1428.023926	3151.772705	1488.580688	3.513085
276.152161	1424.085938	3205.939453	1481.893555	3.244241
276.524384	1437.460571	3249.852295	1484.048218	2.570507
276.896606	1440.581055	3279.276123	1492.964478	2.848946
277.268799	1451.280762	3283.734375	1497.051147	2.497765
277.640930	1445.262085	3290.347412	1496.010864	2.750484
278.013031	1449.423218	3302.904541	1492.667358	2.333131
278.385162	1444.890625	3323.932373	1488.432129	2.317219
278.757233	1440.581177	3321.553955	1488.209351	2.532103
279.129272	1441.398438	3344.365234	1486.500366	2.370085
279.501282	1441.398438	3362.866943	1488.209351	2.436205
279.873230	1446.451172	3427.807373	1491.404297	2.268806
280.245178	1440.283813	3522.989014	1505.447388	3.128795
280.617126	1437.014648	3638.083984	1524.246094	3.963139
280.988983	1440.581055	3753.104736	1531.453491	3.929579
281.360870	1445.039429	3844.274170	1528.481323	3.477854
281.732697	1447.416992	3932.843018	1523.874512	3.076234
282.104492	1441.621460	3981.585693	1523.800171	3.235428
282.476288	1431.813477	3999.641357	1528.629883	3.770362
282.848053	1433.076538	3996.668945	1525.955078	3.622984
283.219757	1428.841309	3986.341064	1533.162231	4.079020
283.591461	1438.723633	3977.647705	1524.766113	3.388935
283.963135	1436.197266	3983.369141	1519.564819	3.272946
284.334747	1441.324219	4030.699951	1516.741333	2.912560
284.706360	1444.593628	4107.826172	1519.193359	2.801097
285.077942	1445.559448	4201.595703	1519.193359	2.671732
285.449524	1441.026978	4298.635254	1514.215210	2.561171
285.821014	1441.472656	4337.347168	1518.896118	2.673578
286.192535	1439.763794	4373.978516	1527.366577	2.985561
286.563995	1443.330444	4363.650391	1530.190063	2.974319
286.935425	1436.048706	4335.266602	1528.481323	3.188192
287.306824	1433.670898	4261.855957	1527.218140	3.307678
287.678223	1431.664917	4187.403809	1523.725952	3.340703
288.049561	1429.881470	4150.401367	1527.738281	3.596989
288.420898	1427.949829	4143.490723	1527.143921	3.652830
288.792145	1427.429565	4181.979980	1534.945679	3.903218
289.163452	1433.745483	4256.877441	1541.038452	3.800494
289.534668	1432.184937	4357.186035	1545.570923	3.876443
289.905914	1436.494507	4462.324219	1541.409790	3.467323
290.277039	1436.123047	4544.354004	1540.369629	3.353888
290.648193	1444.222046	4603.425293	1539.552368	3.017543
291.019318	1447.119751	4604.391113	1548.319946	3.205306
291.390381	1449.720337	4559.289551	1547.057007	3.130230
291.761475	1443.999023	4487.438965	1549.063110	3.452149
292.132507	1437.163452	4443.748535	1544.828125	3.580962
292.503510	1433.076660	4439.810059	1540.964233	3.588199
292.874481	1433.596680	4473.692383	1538.883789	3.463283
293.245422	1434.488281	4559.140625	1542.152954	3.445653
293.616364	1438.129272	4692.736816	1545.570923	3.301217
293.987213	1445.931030	4837.330078	1556.344727	3.255698
294.358093	1447.937134	4945.737793	1560.580078	3.220393
294.728943	1441.175659	5052.361816	1562.214722	3.351781
295.099731	1432.036499	5159.654785	1554.338745	3.280976
295.470490	1428.024048	5277.350586	1552.035278	3.221634
295.841248	1432.705078	5349.721191	1560.951782	3.274092
296.211975	1431.441772	5459.466797	1573.657349	3.530653
296.582642	1438.649292	5563.639160	1585.248535	3.553930
296.953308	1434.785522	5636.679199	1584.505493	3.563155
297.323883	1442.661621	5608.814941	1580.418945	3.306583
297.694519	1434.711304	5524.333496	1572.542847	3.370276
298.065063	1436.048706	5411.170410	1569.496460	3.357074
298.435608	1437.163208	5269.623535	1565.186890	3.340509
298.806122	1444.816406	5078.516602	1561.768921	3.218552
299.176575	1447.268433	4905.911621	1561.100098	3.291223
299.547028	1451.578003	4787.547852	1554.710083	3.091517
299.917450	1441.621460	4734.941406	1550.920776	3.318819
300.287872	1436.494507	4727.510742	1548.245728	3.395645
300.658234	1423.640137	4703.659668	1553.595581	3.962033
301.028564	1427.578125	4684.489258	1557.236328	3.981018
301.398865	1430.104492	4639.090332	1548.468750	3.688525
301.769135	1442.661743	4601.195801	1542.970337	3.175796
302.139374	1442.884644	4566.496582	1527.218140	2.699871
302.509583	1443.999146	4532.763184	1524.765991	2.614860
302.879791	1436.197266	4482.757324	1516.815796	2.646215
303.249939	1435.825806	4433.197266	1523.725952	2.932574
303.620087	1433.671021	4381.482910	1531.379028	3.314594
303.990173	1426.092163	4366.919434	1533.088013	3.638291
304.360260	1434.562622	4362.981445	1529.521484	3.242666
304.730286	1443.850464	4371.080566	1524.246094	2.746475
305.100281	1456.184692	4361.050293	1528.109741	2.476020
305.470276	1449.794556	4368.554199	1525.434937	2.591525
305.840179	1442.884399	4381.408691	1522.611328	2.713162
306.210144	1442.438599	4422.572266	1521.050903	2.637878
306.579987	1441.695679	4449.618652	1522.908569	2.699966
306.949890	1443.478882	4489.370605	1526.177856	2.715099
307.319702	1437.831909	4567.165527	1530.264648	2.953752
307.689484	1435.974487	4664.576172	1541.410034	3.265672
308.059265	1429.733032	4784.129395	1544.753540	3.428948
308.429016	1427.355347	4859.472168	1545.645142	3.446555
308.798737	1421.262329	4937.638672	1551.515137	3.704177
309.168396	1425.126099	4972.263672	1553.298218	3.613396
309.538055	1432.928101	4995.148926	1558.127930	3.514657
309.907684	1441.175415	4976.944824	1546.388184	2.975668
310.277313	1446.005371	4993.960449	1547.577026	2.862823
310.646851	1441.249878	4990.690918	1540.295410	2.790454
311.016388	1443.404663	4993.885254	1544.902222	2.858699
311.385895	1434.414063	4937.489746	1541.781616	3.064951
311.755371	1435.528687	4887.410156	1545.125122	3.174977
312.124817	1429.510132	4830.345215	1539.849609	3.244482
312.494232	1435.379883	4776.253418	1545.570923	3.298270
312.863617	1435.528442	4758.494629	1539.849609	3.139399
313.232971	1440.581055	4775.064453	1540.295410	2.990399
313.602295	1444.593384	4849.664063	1536.877563	2.710199
313.971619	1442.215820	4912.895996	1540.369751	2.828089
314.340820	1442.215820	4949.081055	1540.666992	2.807384
314.710083	1434.711304	4944.696777	1538.883667	2.967886
315.079285	1440.655640	4895.806152	1542.375977	2.944021
315.448486	1446.451050	4819.273926	1546.165405	2.956407
315.817596	1448.828735	4715.993652	1544.084839	2.915558
316.186707	1440.878418	4615.907715	1542.895996	3.213122
316.555786	1437.386230	4524.144043	1533.533813	3.114841
316.924866	1437.757690	4470.274902	1530.636108	3.062750
317.293884	1437.980469	4461.655273	1530.859009	3.071711
317.662872	1434.191040	4467.673828	1532.642212	3.245483
318.031830	1427.280884	4502.150391	1540.518188	3.682670
318.400757	1424.308960	4529.270996	1532.790649	3.493817
318.769684	1427.429565	4560.032227	1535.762817	3.458251
319.138550	1427.652466	4562.855957	1526.252075	3.144919
319.507416	1434.785522	4537.964355	1528.704102	3.026528
319.876190	1431.590454	4489.519043	1530.858887	3.246264
320.244995	1439.615112	4410.758301	1531.156128	3.081003
320.613770	1437.311890	4348.641113	1524.766113	3.003928
320.982483	1434.711304	4348.121094	1519.936401	2.925270
321.351166	1423.640137	4391.885254	1520.307983	3.256734
321.719818	1425.720581	4458.608887	1523.651489	3.228965
322.088440	1431.813477	4565.233398	1526.697876	3.028142
322.457062	1442.661743	4722.606934	1538.363647	2.917790
322.825623	1443.999023	4880.945801	1549.657593	3.074198
323.194183	1447.640015	5018.331543	1561.620483	3.192112
323.562653	1435.751465	5081.934570	1561.100220	3.437808
323.931183	1433.076660	5110.689453	1563.106445	3.535712
324.299591	1425.869141	5062.912598	1561.174438	3.720200
324.668060	1431.293335	5006.517090	1556.642090	3.506040
325.036407	1432.779297	4945.068848	1541.558594	3.097105
325.404755	1434.339722	4876.189941	1536.431641	2.966193
325.773102	1429.955933	4809.540527	1530.933228	2.987861
326.141388	1432.853638	4731.597168	1538.660767	3.207498
326.509674	1433.225098	4660.935547	1537.620483	3.234348
326.877899	1444.370483	4599.412598	1541.261353	3.070985
327.246124	1440.135254	4554.607910	1539.849609	3.201645
327.614288	1445.187866	4527.784668	1532.047729	2.817750
327.982422	1447.342651	4496.875000	1525.286255	2.555920
328.350525	1443.404663	4489.296387	1525.286133	2.688259
328.718628	1439.392212	4516.640137	1530.413086	2.957866
329.086700	1432.333618	4566.645508	1530.487427	3.131590
329.454712	1437.088867	4623.858398	1530.190308	2.921499
329.822693	1436.940308	4648.229980	1527.292480	2.813579
330.190674	1436.717407	4686.347168	1533.236694	2.970162
330.558563	1435.751465	4722.829590	1544.084961	3.295738
330.926483	1436.197266	4805.379395	1552.704102	3.458015
331.294312	1441.250000	4901.527344	1561.694702	3.480782
331.662231	1442.513062	5013.130371	1554.933105	3.148477
332.029999	1442.513062	5115.667969	1555.527466	3.076767
332.397766	1438.352051	5162.627441	1550.029175	2.998627
332.765503	1433.671021	5206.763184	1548.171509	3.034659
333.133240	1433.745239	5223.778809	1541.261353	2.836812
333.500916	1428.098267	5241.239746	1543.341797	3.022273
333.868561	1435.825806	5209.066406	1548.245728	2.979400
334.236176	1432.705078	5175.333496	1557.310669	3.329360
334.603790	1441.992798	5135.729980	1563.923828	3.301021
334.971344	1436.866089	5123.990234	1566.152710	3.506435
335.338867	1437.163086	5075.544434	1558.425293	3.332861
335.706360	1434.859741	5070.194824	1550.772095	3.188492
336.073853	1437.311890	5071.012207	1543.564819	2.924097
336.441284	1434.339844	5132.832031	1549.508911	3.113946
336.808655	1433.968262	5172.732910	1557.830933	3.312930
337.176086	1433.819702	5217.017090	1562.363403	3.397753
337.543396	1439.540894	5223.481934	1563.775024	3.283194
337.910706	1439.615234	5232.249023	1553.372681	2.999431
338.277954	1440.506836	5214.490723	1552.629517	2.970937
338.645264	1442.438843	5182.986328	1550.623535	2.892215
339.012421	1443.924805	5119.085938	1553.669922	2.986131
339.379669	1444.519165	5039.284668	1551.366577	2.972305
339.746796	1437.757446	4963.718750	1542.598755	2.973411
340.113953	1439.169434	4926.790527	1536.951782	2.803698
340.481018	1439.020874	4903.013672	1536.580200	2.816384
340.848114	1448.902954	4907.174316	1545.645142	2.797415
341.215118	1445.931030	4943.805664	1554.264282	3.097117
341.582153	1444.593384	5062.764160	1563.254883	3.279599
341.949066	1435.157227	5231.580078	1566.598633	3.462244
342.316010	1435.974487	5442.971191	1565.038208	3.220959
342.682922	1433.671021	5658.226563	1565.409668	3.118402
343.049835	1434.934204	5949.938965	1576.183594	3.128444
343.416656	1434.785522	6232.660645	1587.626343	3.185594
343.783478	1437.088867	6493.908691	1597.285645	3.167935
344.150269	1433.596680	6621.857910	1596.022461	3.130640
344.516998	1429.807251	6648.979004	1601.595215	3.291479
344.883728	1426.760864	6581.734863	1596.542603	3.293552
345.250427	1423.045898	6475.259277	1588.963501	3.284058
345.617065	1424.606079	6338.319824	1581.384766	3.190635
345.983704	1428.544067	6200.264160	1585.025757	3.279356
346.350281	1436.494507	6062.953125	1584.951294	3.208864
346.716827	1437.088867	5929.282715	1585.694336	3.308082
347.083405	1440.506836	5838.559082	1576.629395	3.095065
347.449860	1444.147827	5771.463379	1577.669556	3.085556
347.816376	1448.903198	5751.550781	1580.195923	3.051440
348.182770	1441.546997	5737.358887	1580.270142	3.229265
348.549194	1439.317993	5762.547363	1581.013306	3.277534
348.915558	1429.732788	5846.806641	1573.657349	3.258369
349.281921	1425.200562	5925.493652	1577.818359	3.391286
349.648193	1421.113770	5978.693848	1569.273438	3.250841
350.014526	1425.646484	5978.917480	1571.131226	3.195170
350.380737	1428.841431	6014.136719	1571.576782	3.112893
350.746948	1433.745239	6075.361816	1590.449829	3.376078
351.113159	1433.150879	6137.999512	1590.895508	3.352810
351.479309	1438.575073	6194.097656	1594.090454	3.270206
351.845428	1439.243774	6286.529785	1590.449707	3.119394
352.211517	1446.599731	6412.695801	1592.530273	2.938536
352.577576	1443.701782	6535.667480	1599.663452	3.062897
352.943604	1441.770142	6659.827637	1602.858398	3.087131
353.309601	1439.392456	6801.299316	1611.254517	3.205241
353.675537	1443.404663	6961.347656	1613.260742	3.078250
354.041473	1437.163208	7113.445313	1625.669067	3.320939
354.407379	1435.008423	7212.193848	1625.594849	3.298949
354.773254	1434.711060	7339.771484	1629.830078	3.304268
355.139038	1439.838013	7485.107422	1624.777710	3.059247
355.504913	1444.742065	7730.455078	1636.071655	3.043880
355.870636	1435.528442	7995.121094	1642.164551	3.150136
356.236389	1436.420288	8263.577148	1657.470703	3.237811
356.602081	1435.379883	8513.458008	1664.306641	3.234307
356.967804	1444.073242	8689.778320	1665.718384	3.058986
357.333405	1443.553345	8816.983398	1671.588257	3.092657
357.699036	1435.008423	8831.250000	1673.000000	3.217737
358.064606	1435.602905	8790.605469	1678.646973	3.304473
358.430176	1436.568848	8710.062500	1670.473755	3.215854
358.795654	1438.575073	8728.786133	1668.987671	3.160575
359.161163	1438.649292	8893.961914	1675.823730	3.181281
359.526581	1438.277710	9261.239258	1693.656250	3.264474
359.892029	1441.621216	9759.141602	1710.374390	3.231169
360.257416	1435.974487	10316.487305	1715.278320	3.145132
360.622772	1431.367676	10760.148438	1719.439087	3.087986
360.988098	1432.482300	11062.858398	1728.949829	3.078463
361.353394	1427.875488	11169.258789	1743.884888	3.243989
361.718658	1435.677124	11046.065430	1750.497681	3.275836
362.083893	1432.333618	10667.195313	1737.643555	3.306059
362.449097	1446.748169	10063.040039	1711.117554	3.068250
362.814209	1446.673828	9419.950195	1678.201172	2.903792
363.179382	1453.286743	8826.791992	1658.362305	2.781249
363.544434	1449.720337	8405.570313	1641.718628	2.760242
363.909546	1440.804077	8138.451172	1638.746582	2.955404
364.274536	1437.683228	7986.502441	1643.576172	3.143970
364.639587	1432.184937	7858.032715	1647.737183	3.354456
365.004517	1431.813477	7771.767578	1641.495728	3.307315
365.369507	1432.779419	7704.226563	1632.504883	3.184679
365.734344	1435.380005	7702.814453	1627.749634	3.069352
366.099274	1443.924805	7701.328125	1625.297485	2.898530
366.464081	1446.525391	7685.428223	1626.560913	2.885692
366.828918	1448.382935	7639.583496	1634.585571	3.007537
367.193665	1452.023804	7548.859375	1633.768188	2.980963
367.558411	1450.611938	7482.655762	1632.133667	3.009290
367.923126	1448.605835	7398.618652	1627.898315	3.013313
368.287781	1438.946655	7365.107910	1632.208008	3.261156
368.652435	1439.392212	7316.143066	1628.864258	3.224095
369.017059	1438.872070	7328.477051	1627.749634	3.206965
369.381653	1443.627563	7361.542480	1634.511108	3.225520
369.746185	1438.055054	7444.464355	1642.015625	3.395715
370.110687	1433.299438	7521.292969	1645.879517	3.491792
370.475220	1433.448120	7597.898438	1637.854858	3.315896
370.839661	1432.333618	7644.114746	1638.003418	3.310963
371.204041	1431.590454	7685.872559	1639.638184	3.326484
371.568451	1424.754883	7695.978027	1649.520508	3.584080
371.932770	1423.342896	7674.505371	1651.526733	3.650262
372.297150	1431.442017	7641.068848	1645.359375	3.444931
372.661377	1441.324097	7626.059082	1637.929199	3.178877
373.025696	1442.735840	7657.563965	1633.471069	3.069035
373.389862	1444.370483	7729.118652	1632.950806	3.000603
373.754059	1446.376587	7818.949707	1630.424438	2.888124
374.118225	1449.125977	7930.701172	1633.471069	2.844140
374.482361	1446.822632	8075.070801	1639.489380	2.906752
374.846436	1430.698853	8290.697266	1654.721558	3.265638
375.210510	1424.383179	8590.137695	1667.501587	3.392782
375.574524	1417.250000	8893.069336	1682.139282	3.543281
375.938538	1420.370728	9202.243164	1695.142212	3.530917
376.302460	1422.376953	9425.077148	1695.513672	3.413057
376.666412	1435.900024	9586.833984	1698.188599	3.217896
377.030304	1441.324219	9573.385742	1691.724487	3.079173
377.394196	1445.336548	9472.110352	1689.792480	3.045507
377.757996	1445.633789	9259.605469	1688.306274	3.105623
378.121796	1446.376587	8989.068359	1681.396118	3.115858
378.485565	1448.605835	8711.845703	1675.749146	3.127300
378.849304	1441.026978	8480.763672	1656.207642	3.056658
379.212982	1446.971313	8355.415039	1647.885742	2.908244
379.576630	1449.869019	8291.663086	1647.737305	2.892053
379.940277	1447.565552	8292.109375	1650.412109	2.963624
380.303864	1446.673828	8274.871094	1649.817505	2.975070
380.667450	1433.522339	8271.527344	1646.102417	3.108803
381.030945	1430.996094	8257.038086	1647.514282	3.171943
381.394501	1426.537964	8282.970703	1655.241821	3.335610
381.757935	1431.144653	8339.440430	1655.390259	3.246034
382.121399	1435.082642	8432.319336	1652.418335	3.106022
382.484741	1438.277832	8578.100586	1647.737305	2.933679
382.848145	1438.203491	8719.499023	1659.922974	3.045055
383.211487	1438.574829	8860.376953	1675.154907	3.187637
383.574768	1428.098267	8950.133789	1681.173218	3.364448
383.938019	1428.098267	8982.975586	1675.749146	3.278026
384.301270	1429.510132	8980.078125	1666.387085	3.137207
384.664459	1431.887695	9002.442383	1665.718384	3.088686
385.027649	1429.510132	9051.706055	1669.062012	3.142820
385.390778	1427.949707	9149.785156	1679.464355	3.257187
385.753876	1435.082642	9233.970703	1680.356079	3.144979
386.116943	1436.643066	9341.412109	1682.139282	3.105672
386.479980	1438.649292	9392.161133	1676.269409	2.987612
386.842987	1431.887695	9421.065430	1680.653320	3.113783
387.205994	1438.797852	9416.384766	1677.532593	2.992568
387.568909	1436.048706	9407.096680	1686.077515	3.136712
387.931793	1442.141602	9337.696289	1685.854492	3.086710
388.294678	1433.745483	9299.133789	1690.907104	3.269535
388.657471	1433.150879	9258.044922	1687.934937	3.256070
389.020294	1436.271484	9332.645508	1689.198120	3.203073
389.383057	1440.358276	9500.198242	1693.136108	3.136264
389.745819	1444.370605	9722.511719	1702.943970	3.123568
390.108521	1441.695801	9961.542969	1714.981079	3.207631
390.471191	1444.667847	10207.708008	1717.210083	3.110133
390.833801	1445.039429	10443.024414	1734.968628	3.222157
391.196442	1442.141602	10624.545898	1744.182129	3.289340
391.558960	1435.825806	10658.428711	1751.909546	3.427273
391.921509	1433.671021	10601.512695	1746.336914	3.410463
392.284027	1429.881470	10545.339844	1743.141968	3.436585
392.646484	1431.516235	10508.708008	1750.423462	3.513281
393.008911	1430.104492	10509.004883	1753.247070	3.559270
393.371307	1437.014648	10513.983398	1763.575195	3.597683
393.733673	1435.008423	10463.606445	1773.160156	3.745341
394.096008	1435.454468	10375.706055	1782.002319	3.876265
394.458344	1429.881470	10241.886719	1788.837891	4.073493
394.820587	1436.271484	10046.916016	1780.590332	3.998758
395.182831	1439.540894	9843.401367	1774.200317	3.982211
395.545013	1436.791870	9605.558594	1771.005249	4.091357
395.907196	1432.630859	9440.532227	1781.184937	4.352627
396.269287	1425.571899	9346.315430	1783.413696	4.517780
396.631409	1431.739258	9301.214844	1784.379761	4.481118
396.993469	1433.893921	9262.130859	1790.472656	4.555033
397.355530	1436.940430	9246.082031	1812.317749	4.806896
397.717499	1437.906250	9277.139648	1832.379517	5.032039
398.079468	1439.763794	9322.836914	1843.078979	5.116218
398.441376	1430.624634	9331.901367	1856.230469	5.386545
398.803284	1429.435669	9301.512695	1861.208862	5.484870
399.165131	1426.463501	9291.778320	1872.874390	5.675690
399.526978	1430.550171	9257.821289	1888.923828	5.856111
399.888763	1434.859741	9255.815430	1918.421875	6.182903
400.250519	1434.785522	9249.945313	1937.369141	6.430881
400.612244	1441.324219	9298.985352	1946.731323	6.432030
400.973938	1432.630737	9380.049805	1964.861206	6.696897
401.335602	1432.333496	9470.402344	1983.808228	6.860786
401.697205	1433.968140	9606.821289	2003.349976	6.966745
402.058807	1438.426392	9746.288086	2013.678101	6.924185
402.420349	1438.723633	9987.400391	2041.170288	7.047250
402.781860	1439.466675	10218.555664	2075.126221	7.240610
403.143341	1437.014648	10434.776367	2099.052002	7.357800
403.504822	1440.878418	10607.530273	2130.927734	7.527822
403.866241	1440.284058	10730.649414	2143.930908	7.573942
404.227631	1439.392212	10836.532227	2164.141113	7.712441
404.588959	1440.729858	10854.067383	2170.010986	7.747317
404.950287	1435.900024	10820.333984	2171.868652	7.842441
405.311554	1436.791626	10717.276367	2173.206055	7.935086
405.672821	1433.893921	10601.437500	2172.611572	8.057967
406.034027	1435.008423	10463.160156	2173.725830	8.182377
406.395203	1428.544312	10308.461914	2165.181396	8.295539
406.756348	1427.578247	10209.193359	2155.373535	8.287716
407.117493	1425.943481	10157.627930	2150.023682	8.292561
407.478516	1436.494629	10182.592773	2153.887451	8.202434
407.839600	1439.838257	10237.726563	2156.933594	8.150766
408.200592	1448.977417	10356.536133	2174.617676	8.146343
408.561554	1444.444824	10491.171875	2193.862061	8.283850
408.922485	1433.448120	10619.122070	2208.128174	8.433568
409.283417	1428.989868	10694.613281	2218.679443	8.522790
409.644257	1429.138550	10783.776367	2234.431396	8.608488
410.005096	1438.426270	10851.838867	2245.428223	8.572895
410.365906	1437.609009	10869.225586	2249.143311	8.604403
410.726715	1442.215820	10839.207031	2242.753174	8.519082
411.087433	1438.797852	10770.773438	2230.493408	8.483686
411.448120	1441.546997	10749.894531	2215.261230	8.312047
411.808807	1438.946411	10713.114258	2200.326416	8.209685
412.169434	1441.324219	10698.254883	2210.951904	8.314070
412.530029	1438.203491	10717.202148	2217.564697	8.399195
412.890564	1442.141602	10797.894531	2219.645264	8.310434
413.251099	1446.896851	10927.180664	2217.118896	8.124461
413.611572	1444.593384	11099.192383	2224.400635	8.077055
413.972076	1435.528687	11262.731445	2226.629639	8.050113
414.332489	1434.785522	11378.717773	2232.871094	8.025854
414.692871	1439.986694	11541.143555	2236.809082	7.888427
415.053223	1441.026978	11705.723633	2256.053467	7.940094
415.413574	1432.333496	11982.354492	2270.765381	7.947206
415.773834	1427.726929	12203.850586	2294.245117	8.041093
416.134094	1433.299438	12481.816406	2307.619629	7.913462
416.494263	1441.992798	12757.480469	2325.526611	7.808182
416.854462	1446.005249	13121.637695	2353.093018	7.769067
417.214630	1443.107422	13525.546875	2377.910156	7.736871
417.574738	1433.448242	13927.600586	2407.705322	7.797705
417.934784	1430.476074	14372.003906	2414.689697	7.605081
418.294861	1437.609009	14912.555664	2451.766846	7.526248
418.654846	1440.209595	15502.593750	2482.825195	7.414217
419.014832	1441.918579	16095.530273	2521.611084	7.368098
419.374756	1438.129272	16682.000000	2558.911133	7.352344
419.734680	1441.472778	17343.294922	2599.777588	7.284101
420.094543	1435.305664	17885.259766	2639.381104	7.319628
420.454376	1434.191040	18225.195313	2654.390381	7.266983
420.814148	1432.630737	18374.544922	2659.517334	7.241724
421.173920	1435.008423	18513.265625	2661.820557	7.183474
421.533691	1442.290405	18631.779297	2663.455322	7.104138
421.893341	1448.457397	18708.384766	2654.093018	6.985172
422.253021	1446.673950	18673.685547	2636.409180	6.906219
422.612640	1437.163208	18632.375000	2622.068604	6.890903
422.972260	1435.677124	18606.814453	2619.542236	6.894506
423.331757	1434.414063	18688.544922	2616.867432	6.853161
423.691315	1436.494629	18837.968750	2616.718750	6.782322
424.050781	1433.299438	18844.583984	2619.765381	6.814350
424.410248	1440.061035	18701.103516	2606.390869	6.757007
424.769653	1441.101196	18377.662109	2577.412598	6.709222
425.128998	1444.444946	18051.103516	2535.580322	6.570469
425.488373	1449.794556	17598.228516	2490.924316	6.447249
425.847656	1447.788452	17190.529297	2453.030029	6.385429
426.206940	1445.484985	16767.078125	2413.129639	6.315562
426.566193	1441.026855	16417.113281	2394.628174	6.367494
426.925385	1437.609009	16012.014648	2367.210205	6.378313
427.284576	1440.061157	15616.574219	2330.727783	6.282692
427.643677	1437.163208	15315.796875	2296.399658	6.191074
428.002777	1442.215820	15122.089844	2269.799316	6.049643
428.361847	1435.677124	14931.875000	2256.796387	6.084078
428.720856	1432.556519	14708.075195	2239.929688	6.081669
429.079865	1433.002319	14534.281250	2233.316650	6.108673
429.438812	1436.048706	14468.968750	2226.703857	6.066600
429.797760	1433.448120	14442.145508	2223.508789	6.073327
430.156616	1425.423218	14346.889648	2208.351074	6.059125
430.515503	1420.370728	14276.971680	2191.855957	6.000694
430.874268	1424.160156	14288.785156	2175.955078	5.843893
431.233093	1433.596680	14376.312500	2174.543457	5.724817
431.591827	1433.522461	14542.901367	2180.116211	5.695112
431.950562	1434.339844	14666.390625	2187.100586	5.688920
432.309204	1427.875366	14811.950195	2190.444336	5.697584
432.667877	1437.832031	14993.471680	2186.803467	5.525165
433.026459	1446.451050	15098.461914	2180.933594	5.380032
433.385010	1453.435547	15157.382813	2169.565186	5.225718
433.743561	1447.565552	15123.203125	2169.862305	5.281631
434.102051	1442.587402	15146.682617	2169.788330	5.306449
434.460510	1438.946655	15192.304688	2174.246338	5.346328
434.818939	1442.884644	15183.165039	2168.599121	5.281657
435.177338	1446.302368	15173.878906	2150.766357	5.131743
435.535675	1443.702026	15163.625000	2144.748047	5.109694
435.894012	1434.785522	15177.221680	2134.197021	5.089428
436.252289	1422.748535	15340.242188	2142.519043	5.171696
436.610535	1428.246948	15448.872070	2141.850342	5.089669
436.968719	1433.373657	15717.625000	2151.212402	5.025386
437.326935	1437.980469	15945.289063	2174.543457	5.077186
437.685028	1431.144653	16239.528320	2193.564941	5.148572
438.043152	1430.327515	16422.164063	2207.236572	5.182214
438.401215	1433.299438	16696.339844	2213.255127	5.110094
438.759277	1439.615234	16999.794922	2216.227295	4.991023
439.117249	1440.283813	17522.216797	2233.614014	4.933053
439.475250	1442.215820	17894.843750	2243.644775	4.871130
439.833130	1440.804077	18339.173828	2257.242432	4.831462
440.191071	1440.283813	18508.361328	2259.174072	4.797788
440.548889	1441.770020	18600.869141	2261.031738	4.774503
440.906708	1439.095215	18500.115234	2258.951172	4.805434
441.264496	1440.878418	18299.646484	2240.301270	4.741882
441.622223	1437.683228	18097.541016	2230.196045	4.757020
441.979950	1438.872192	17805.904297	2212.289307	4.725457
442.337616	1434.488281	17603.353516	2204.933105	4.764990
442.695251	1428.692749	17353.250000	2188.586670	4.771837
443.052887	1424.680298	17290.615234	2177.366943	4.744042
443.410461	1428.767090	17366.033203	2174.840820	4.681316
443.768005	1431.887695	17559.962891	2177.738281	4.624548
444.125458	1435.231445	17796.765625	2189.849609	4.612148
444.482941	1432.630859	18117.603516	2201.812256	4.610025
444.840393	1432.705078	18601.314453	2223.657471	4.606968
445.197754	1432.630737	19068.751953	2231.533447	4.529923
445.555084	1433.596680	19459.066406	2251.223877	4.535955
445.912415	1437.906250	19719.347656	2267.793213	4.539505
446.269714	1435.157104	19813.044922	2274.331787	4.566219
446.626953	1431.219116	19815.123047	2269.130615	4.557854
446.984161	1427.429688	19664.736328	2238.666504	4.448227
447.341309	1427.949585	19461.292969	2234.208496	4.470934
447.698456	1429.584351	19150.560547	2223.509033	4.480141
448.055542	1431.664917	18931.960938	2221.651367	4.514132
448.412598	1430.921753	18625.537109	2197.725586	4.459558
448.769653	1436.940430	18294.962891	2176.921143	4.389487
449.126617	1433.596680	17820.318359	2153.961670	4.396029
449.483582	1441.695679	17511.369141	2144.822510	4.375489
449.840515	1437.460327	17278.724609	2135.757324	4.408089
450.197388	1437.237671	17149.958984	2125.800537	4.382200
450.554230	1437.163208	17047.496094	2112.351807	4.325267
450.911041	1444.667969	16995.857422	2101.355225	4.222746
451.267822	1444.147827	17018.666016	2107.596680	4.259835
451.624573	1444.742188	17027.136719	2118.370605	4.323009
451.981262	1440.061157	16958.482422	2112.574951	4.333648
452.337921	1438.723633	16780.080078	2103.955811	4.336202
452.694580	1431.739258	16466.744141	2085.083008	4.345484
453.051147	1428.544067	16262.932617	2081.293701	4.400246
453.407715	1433.968262	15929.909180	2052.761475	4.268734
453.764221	1441.175659	15828.782227	2045.108032	4.197587
454.120728	1441.621460	15505.043945	2028.835571	4.175471
454.477142	1436.420288	15463.434570	2036.786133	4.280068
454.833557	1437.386108	15344.179688	2032.550903	4.279669
455.189911	1435.900024	15343.734375	2038.495239	4.332776
455.546265	1438.946655	15402.656250	2034.185547	4.262756
455.902557	1432.928101	15486.171875	2030.098999	4.249345
456.258820	1433.670898	15750.168945	2033.665527	4.190931
456.615051	1435.305664	15994.625000	2040.055664	4.153697
456.971252	1440.878296	16329.062500	2061.157471	4.166251
457.327393	1443.478882	16827.187500	2076.240967	4.113196
457.683502	1441.472656	17443.380859	2107.596680	4.162779
458.039612	1435.379883	18324.685547	2153.590088	4.252456
458.395630	1436.420288	19193.880859	2192.821777	4.259626
458.751648	1443.255981	19965.291016	2223.806152	4.214170
459.107605	1439.020874	20596.267578	2237.626465	4.168687
459.463562	1435.156860	20819.697266	2243.719482	4.171173
459.819458	1423.937378	20698.212891	2246.096924	4.265580
460.175323	1426.537964	20183.291016	2221.874268	4.240266
460.531158	1423.937378	19510.482422	2199.657715	4.288936
460.886932	1430.698853	18813.744141	2167.039063	4.235968
461.242676	1432.928101	18109.876953	2148.537354	4.291008
461.598419	1434.562622	17595.626953	2127.732666	4.289136
461.954102	1433.225220	17099.582031	2101.429443	4.265218
462.309723	1437.163086	16683.931641	2080.476318	4.219341
462.665344	1441.026978	16334.338867	2068.513428	4.213210
463.020905	1444.742188	16158.687500	2063.312256	4.203971
463.376373	1451.132202	16116.632813	2062.717773	4.170233
463.731873	1452.618164	16111.729492	2057.367920	4.125419
464.087341	1452.841187	16161.436523	2062.197510	4.142859
464.442749	1440.729858	16293.992188	2065.912842	4.209062
464.798126	1437.311890	16411.611328	2070.370850	4.227636
465.153503	1433.596680	16573.890625	2076.315186	4.245086
465.508820	1437.906250	16692.031250	2071.931396	4.156418
465.864105	1431.442017	16789.146484	2082.853760	4.241596
466.219330	1430.475952	16989.763672	2088.649414	4.230100
466.574524	1426.315063	17025.873047	2095.262451	4.288246
466.929657	1433.745239	16952.240234	2097.417236	4.276652
467.284790	1435.454224	16749.318359	2088.054932	4.261502
467.639893	1439.838257	16557.839844	2081.293213	4.242988
467.994934	1435.305664	16409.384766	2072.302734	4.253998
468.349945	1431.070435	16226.969727	2063.089111	4.271580
468.704926	1427.726685	16075.467773	2058.631104	4.307179
469.059875	1437.534668	15915.418945	2052.092529	4.244804
469.414764	1442.290039	15838.218750	2056.550781	4.266906
469.769653	1436.940430	15814.961914	2053.207275	4.286173
470.124451	1424.977539	15894.614258	2052.984375	4.340170
470.479248	1425.126099	15937.339844	2064.649658	4.406796
470.834015	1430.030151	15987.715820	2076.389648	4.439988
471.188721	1439.912476	16161.213867	2085.157227	4.383069
471.543365	1445.262207	16403.439453	2086.420654	4.286341
471.898010	1443.553223	16665.283203	2097.119873	4.293642
472.252625	1445.039429	16949.119141	2116.736084	4.332386
472.607178	1431.664917	17218.021484	2132.265381	4.438013
472.961700	1432.705078	17335.271484	2132.339600	4.399507
473.316193	1430.253296	17359.123047	2130.184814	4.394106
473.670654	1432.036499	17276.349609	2131.893799	4.417088
474.025055	1433.522461	17351.023438	2141.776123	4.449528
474.379456	1434.191040	17418.564453	2145.862549	4.452295
474.733795	1440.432617	17554.167969	2149.874756	4.402717
475.088104	1441.472778	17777.521484	2170.308105	4.461515
475.442383	1433.373901	18082.830078	2184.128418	4.509183
475.796570	1433.671021	18408.869141	2202.778320	4.530771
476.150787	1432.184937	18801.708984	2216.153076	4.513470
476.504944	1440.358032	19155.166016	2232.796875	4.473313
476.859070	1439.020874	19472.439453	2239.261475	4.437542
477.213135	1430.773071	19705.228516	2246.468506	4.463583
477.567200	1423.417358	19956.818359	2258.208252	4.504251
477.921173	1426.314941	20271.267578	2274.926270	4.503122
478.275146	1432.556274	20547.005859	2290.604248	4.489002
478.629089	1432.482056	20824.673828	2306.281982	4.505937
478.983002	1424.680298	21192.472656	2329.984619	4.579693
479.336823	1420.965210	21688.666016	2353.687256	4.602012
479.690643	1426.686523	22337.626953	2392.844971	4.620349
480.044403	1431.664673	23152.505859	2438.169434	4.633820
480.398163	1437.386108	24247.650391	2493.747803	4.631081
480.751862	1438.946655	25790.322266	2558.837158	4.598880
481.105499	1438.574829	27919.544922	2632.025146	4.506823
481.459137	1441.918579	31020.939453	2759.900391	4.455799
481.812744	1441.918579	35076.382813	2942.164795	4.460443
482.166290	1435.751343	40032.746094	3182.385498	4.525311
482.519806	1432.259155	45085.332031	3424.909424	4.564742
482.873291	1428.543945	49440.511719	3643.508545	4.613359
483.226715	1435.379883	52325.609375	3800.435547	4.647367
483.580139	1437.237427	53397.277344	3880.311279	4.701832
483.933502	1435.082642	52799.062500	3864.261719	4.729344
484.286804	1435.379883	50813.175781	3764.696045	4.717335
484.640106	1441.175415	47985.886719	3619.954346	4.681045
484.993347	1440.952637	45088.597656	3471.200195	4.651448
485.346558	1433.596680	42908.632813	3372.675049	4.675291
485.699738	1432.705078	41902.574219	3326.607422	4.679784
486.052887	1428.989868	42071.835938	3333.591553	4.686192
486.405975	1429.807251	42894.218750	3370.668701	4.680789
486.759064	1421.856934	43846.855469	3420.748779	4.711589
487.112061	1426.017944	44304.261719	3457.231201	4.737165
487.464996	1431.739258	44006.531250	3458.122803	4.759585
487.817963	1438.277710	42921.707031	3408.711670	4.749930
488.170868	1434.785522	41191.941406	3325.715576	4.756200
488.523743	1432.779297	39194.316406	3220.354248	4.733851
488.876587	1425.423462	37349.597656	3130.745117	4.747003
489.229401	1428.618286	36171.683594	3078.658936	4.749266
489.582153	1426.389282	35880.414063	3064.095703	4.753310
489.934845	1429.881714	36425.050781	3085.197510	4.730127
490.287537	1433.968262	37462.464844	3128.144531	4.702323
490.640198	1435.900024	38620.027344	3186.918213	4.709047
490.992798	1430.550293	39249.144531	3230.310791	4.758930
491.345337	1430.698853	39126.324219	3223.103516	4.754941
491.697876	1429.584351	37972.402344	3178.447510	4.785792
492.050354	1437.163208	36146.863281	3094.411133	4.774596
492.402832	1431.070313	33709.214844	2989.644531	4.828574
492.755219	1433.671021	31156.396484	2865.261719	4.816485
493.107605	1427.652466	28777.443359	2753.881836	4.849139
493.459930	1440.581177	26936.593750	2676.086914	4.845879
493.812225	1444.296387	25611.476563	2621.400146	4.870671
494.164490	1451.949585	24785.900391	2582.837158	4.846533
494.516724	1447.714233	24338.375000	2559.134521	4.855344
494.868896	1439.763794	24244.906250	2553.933350	4.885607
495.221039	1437.906250	24380.287109	2560.471680	4.892977
495.573120	1432.259155	24582.685547	2571.096924	4.919295
495.925201	1439.912476	24827.810547	2579.493408	4.872524
496.277222	1434.934082	25013.937500	2588.929688	4.894166
496.629211	1434.562500	25073.529297	2586.552002	4.873265
496.981140	1435.751465	24945.501953	2584.248291	4.885194
497.333069	1441.621460	24732.625000	2567.827881	4.835371
497.684967	1443.181763	24453.695313	2560.991943	4.857824
498.036804	1446.822632	24017.312500	2545.982666	4.869899
498.388580	1445.485352	23538.507813	2540.707275	4.957320
498.740326	1448.605835	23037.037109	2512.695068	4.928979
499.092072	1441.249878	22576.138672	2488.472412	4.954947
499.443756	1443.181763	22176.759766	2463.581055	4.921482
499.795410	1443.701782	21835.119141	2444.782471	4.909324
500.147003	1437.609009	21570.156250	2426.578125	4.912290
500.498566	1443.553223	21298.281250	2413.724121	4.886347
500.850098	1437.237671	21099.966797	2414.392822	4.969581
501.201599	1446.079590	20959.384766	2420.485352	4.993546
501.553009	1435.528687	20858.111328	2413.500977	5.035233
501.904449	1442.661743	20794.806641	2410.529053	5.001344
502.255859	1440.358398	20828.242188	2412.089111	5.012052
502.607178	1443.701782	20933.677734	2419.742432	5.007911
502.958405	1436.271484	20976.328125	2418.479248	5.026637
503.309692	1432.853516	21028.412109	2425.092285	5.063590
503.660919	1424.160156	21080.498047	2428.212891	5.108036
504.012115	1426.240723	21110.220703	2438.169434	5.140874
504.363251	1429.138550	21091.496094	2445.525391	5.169201
504.714294	1437.534668	21019.570313	2433.859619	5.087954
505.065369	1441.472778	21003.820313	2426.281006	5.034203
505.416443	1439.763794	20920.302734	2411.049072	4.985926
505.767395	1435.974487	20877.281250	2415.804688	5.039940
506.118317	1439.169312	20828.537109	2411.792236	5.016270
506.469238	1435.974243	20909.083984	2416.027344	5.032854
506.820160	1434.934082	21007.609375	2421.525635	5.040658
507.170929	1431.813477	21212.683594	2440.101318	5.097287
507.521729	1433.448120	21467.392578	2451.989746	5.084079
507.872498	1440.804077	21767.873047	2475.172119	5.088624
508.223236	1431.664673	22095.029297	2490.329834	5.123392
508.573883	1433.002319	22295.349609	2492.187744	5.077019
508.924500	1429.287109	22505.103516	2500.509521	5.082709
509.275116	1432.333496	22585.945313	2502.812744	5.060503
509.625702	1430.921875	22799.046875	2521.091309	5.101849
509.976196	1435.751587	22896.382813	2530.007813	5.098900
510.326660	1447.640015	23093.656250	2540.929932	5.050767
510.677124	1449.720337	23278.375000	2549.474854	5.038123
511.027557	1445.633789	23456.703125	2559.282959	5.059496
511.377869	1441.918579	23587.400391	2559.580322	5.046906
511.728180	1442.141602	23569.492188	2561.512207	5.058764
512.078430	1437.460327	23545.046875	2566.490479	5.106981
512.428650	1431.516235	23430.470703	2570.279785	5.176444
512.778931	1430.921875	23317.085938	2562.477783	5.170188
513.129028	1428.172485	23183.193359	2545.908447	5.137830
513.479126	1426.909546	23052.568359	2551.332275	5.199484
513.829285	1431.293335	22946.759766	2545.908447	5.180530
514.179382	1433.671021	22851.357422	2540.558594	5.168101
514.529297	1432.333618	22848.009766	2526.292725	5.108217
514.879272	1425.572144	23008.357422	2530.304932	5.118583
515.229187	1423.491577	23154.955078	2528.150146	5.083222
515.579163	1423.565918	23543.634766	2551.109619	5.097379
515.928955	1422.674194	23978.601563	2578.378906	5.123729
516.278748	1438.426392	24653.867188	2617.833740	5.080271
516.628540	1443.181641	25393.623047	2652.978760	5.051252
516.978333	1446.971191	26264.673828	2697.262939	5.037903
517.327942	1438.649292	27146.572266	2741.844971	5.069237
517.677612	1439.317993	27770.197266	2783.082764	5.103380
518.027222	1434.414063	28148.468750	2801.435547	5.117237
518.376831	1429.584351	28252.865234	2818.599365	5.178393
518.726379	1429.807251	28143.119141	2803.590576	5.142692
519.075867	1437.980469	27642.248047	2782.339844	5.130307
519.425293	1441.918579	27027.021484	2744.667969	5.091828
519.774658	1434.414063	26373.009766	2709.820068	5.114185
520.124084	1433.447876	25825.322266	2678.167236	5.103008
520.473389	1424.085938	25334.849609	2653.647217	5.142292
520.822693	1435.974243	24936.587891	2638.489502	5.116953
521.171997	1440.283813	24758.556641	2631.950928	5.110443
521.521240	1453.286987	24665.531250	2623.628906	5.041916
521.870361	1446.599609	24749.345703	2624.594971	5.055178
522.219482	1442.364624	24890.447266	2630.465088	5.066941
522.568604	1438.723633	25189.068359	2647.406006	5.089115
522.917664	1442.884644	25641.421875	2668.359375	5.064251
523.266724	1442.364380	26261.330078	2699.343506	5.064591
523.615662	1434.042480	27104.740234	2740.878906	5.090771
523.964600	1433.151001	28174.328125	2787.763672	5.065643
524.313538	1437.237671	29358.787109	2841.410400	5.028993
524.662354	1441.026978	30660.048828	2898.400635	4.987757
525.011169	1439.838257	31888.197266	2979.167725	5.055542
525.359985	1439.169312	33133.660156	3050.126709	5.082768
525.708740	1436.048706	34409.292969	3123.240479	5.116851
526.057434	1437.906250	35897.722656	3190.856201	5.086939
526.406067	1431.590454	37864.074219	3283.585938	5.083363
526.754700	1433.893921	40645.746094	3414.804688	5.051816
527.103333	1430.773315	43980.968750	3573.663330	5.036147
527.451782	1421.708374	47472.902344	3768.708252	5.096502
527.800293	1427.206665	50149.730469	3924.521240	5.125585
528.148743	1428.321289	51730.597656	4023.789795	5.159743
528.497131	1438.649414	51808.984375	4021.931885	5.128579
528.845642	1434.934082	50487.734375	3942.576904	5.112130
529.193909	1434.637085	48010.031250	3807.642822	5.094977
529.542175	1436.271606	44742.644531	3627.310303	5.059391
529.890503	1438.723633	41345.082031	3459.163086	5.062951
530.238770	1435.900024	38261.371094	3299.858154	5.061600
530.586914	1433.225098	36102.871094	3187.215576	5.059154
530.934998	1438.946411	34840.246094	3115.958984	5.020800
531.283142	1439.020874	34746.628906	3101.766846	4.992090
531.631226	1441.918579	35269.644531	3132.379883	4.997265
531.979248	1428.915649	36414.648438	3187.809814	5.027461
532.327148	1429.138550	37536.027344	3246.211670	5.032483
532.675110	1431.293335	38401.949219	3292.427979	5.034086
533.023071	1435.157104	38552.339844	3310.186279	5.051647
533.370850	1432.853638	37865.929688	3273.778076	5.052894
533.718689	1429.138672	36723.156250	3215.301514	5.060809
534.066467	1432.036499	35196.308594	3125.024170	5.014139
534.414246	1443.255981	33777.574219	3051.909912	4.975067
534.761963	1442.810181	32511.156250	2991.278564	4.984071
535.109619	1447.491333	31856.328125	2962.597900	4.982455
535.457153	1442.364624	31540.615234	2951.452393	5.013872
535.804749	1437.163452	31528.357422	2948.257568	5.021716
536.152344	1432.407837	31373.287109	2939.416016	5.033280
536.499817	1430.030151	31042.708984	2925.966797	5.051676
536.847229	1439.986694	30475.853516	2896.394531	5.015893
537.194641	1436.048462	29748.056641	2860.060547	5.029711
537.542114	1436.643066	28997.228516	2811.317627	4.987828
537.889404	1433.596680	28352.876953	2775.726807	4.985758
538.236694	1435.380005	27965.166016	2762.500732	5.002380
538.583984	1432.036499	28084.646484	2770.228516	5.020867
538.931213	1428.395508	28809.023438	2804.184814	5.024681
539.278381	1427.355347	30225.083984	2858.574219	4.969902
539.625488	1425.720703	32097.361328	2943.651123	4.948970
539.972595	1423.565796	34473.117188	3049.606445	4.920008
540.319641	1428.841309	36831.261719	3167.970703	4.912459
540.666687	1438.129028	38685.785156	3259.734375	4.890523
541.013611	1441.398438	39734.714844	3322.520508	4.912403
541.360596	1442.735962	39920.921875	3333.368408	4.913517
541.707458	1432.928101	39315.058594	3312.563721	4.961801
542.054260	1436.643188	37943.207031	3248.143311	4.962122
542.401062	1425.200562	36264.636719	3170.571533	5.009757
542.747864	1432.556519	34433.218750	3070.336914	4.962871
543.094666	1429.064331	32682.720703	2969.731201	4.929557
543.441284	1440.432617	30946.859375	2873.509033	4.856828
543.787903	1439.095215	29516.234375	2799.800781	4.846312
544.134460	1439.541016	28290.314453	2736.346436	4.829676
544.481079	1435.082642	27491.708984	2692.433350	4.825455
544.827637	1436.568848	26944.468750	2667.764893	4.826725
545.174072	1439.392212	26691.244141	2664.346924	4.850950
545.520508	1437.757690	26589.599609	2665.461426	4.881168
545.866943	1438.277710	26531.570313	2657.882568	4.860282
546.213318	1435.825806	26433.490234	2647.554443	4.847367
546.559631	1437.386230	26054.843750	2625.858154	4.827761
546.905823	1433.076660	25504.259766	2596.434326	4.832989
547.252136	1431.590454	24757.890625	2558.465576	4.830921
547.598389	1440.432495	23886.541016	2521.239990	4.815122
547.944458	1441.992798	22997.658203	2498.503174	4.901312
548.290588	1444.519165	22082.322266	2459.642822	4.918758
548.636658	1441.770020	21309.203125	2410.008789	4.873497
548.982727	1445.336548	20615.216797	2356.436279	4.752767
549.328735	1441.770142	20075.183594	2329.984619	4.766783
549.674622	1437.460571	19641.552734	2313.563721	4.812672
550.020569	1424.606079	19388.625000	2310.814697	4.933242
550.366455	1430.030273	19216.093750	2304.350342	4.915760
550.712280	1424.457397	19154.496094	2302.269775	4.950990
551.058044	1432.630737	19200.787109	2306.281982	4.916949
551.403748	1426.612305	19349.990234	2300.560791	4.876025
551.749512	1433.448120	19512.339844	2310.145752	4.849288
552.095154	1430.104492	19635.681641	2311.929199	4.843706
552.440735	1435.231445	19679.150391	2312.374756	4.807867
552.786316	1436.048828	19656.783203	2311.854736	4.806644
553.131897	1435.602905	19482.470703	2294.096436	4.757022
553.477417	1432.705078	19203.166016	2286.740479	4.805927
553.822815	1429.807251	18803.568359	2261.849121	4.789072
554.168213	1429.732910	18457.689453	2246.468506	4.796439
554.513672	1426.092163	18180.242188	2239.038330	4.852208
554.859009	1428.618530	17923.970703	2238.815430	4.911668
555.204285	1432.110718	17687.167969	2238.295166	4.959591
555.549500	1428.321289	17458.539063	2223.954590	4.963335
555.894714	1430.698853	17355.927734	2198.245850	4.819692
556.239990	1440.135376	17282.070313	2178.853027	4.663052
556.585022	1457.522095	17189.042969	2174.320557	4.556448
556.930115	1447.937012	17097.054688	2181.379395	4.686797
557.275146	1437.757690	16971.410156	2170.010986	4.713980
557.620178	1432.482056	16906.099609	2163.175049	4.722186
557.965149	1434.934204	16794.494141	2154.184570	4.682754
558.310059	1439.615234	16689.060547	2168.896484	4.782346
558.654968	1434.339722	16602.125000	2166.518799	4.827199
558.999756	1436.717407	16593.136719	2163.323730	4.794050
559.344604	1435.825806	16635.488281	2164.215088	4.792141
559.689331	1440.358276	16672.193359	2168.376221	4.779582
560.033997	1438.872192	16706.298828	2174.989258	4.821487
560.378723	1438.277832	16834.544922	2170.828369	4.757975
560.723389	1436.866089	16952.314453	2172.091553	4.738667
561.067932	1437.014648	17038.208984	2172.388672	4.713575
561.412476	1433.299438	16976.240234	2171.571045	4.749884
561.757019	1435.454468	16909.740234	2167.707275	4.732062
562.101501	1439.020874	16848.662109	2173.651611	4.767345
562.445862	1437.460327	16771.833984	2174.617676	4.807222
562.790222	1428.766968	16700.726563	2170.679443	4.858004
563.134644	1425.200562	16620.255859	2158.642578	4.826847
563.478943	1431.664917	16650.421875	2161.911865	4.798335
563.823181	1441.993042	16750.509766	2163.992432	4.716325
564.167358	1440.061035	16983.521484	2175.880859	4.733951
564.511536	1436.494507	17292.992188	2172.388672	4.640963
564.855774	1430.327271	17658.634766	2180.636230	4.623458
565.199768	1437.237427	18040.404297	2196.611572	4.573671
565.543823	1439.986816	18351.359375	2216.524658	4.591808
565.887817	1439.615234	18571.517578	2237.923584	4.659776
566.231812	1432.705078	18559.408203	2240.524170	4.716722
566.575745	1431.144531	18416.896484	2241.118652	4.768550
566.919617	1435.454102	18199.263672	2224.994873	4.709794
567.263428	1435.454102	17941.802734	2205.899170	4.667568
567.607239	1431.664917	17744.083984	2194.233643	4.674774
567.950989	1428.915649	17508.619141	2186.431885	4.711009
568.294678	1430.476074	17424.361328	2176.995605	4.667531
568.638367	1430.698853	17318.478516	2168.747803	4.645388
568.981995	1430.996094	17311.494141	2161.912109	4.602602
569.325623	1441.992798	17325.164063	2167.261719	4.566273
569.669128	1445.113647	17441.003906	2173.428711	4.553139
570.012573	1441.101196	17635.974609	2185.762939	4.598133
570.356140	1432.036255	17925.085938	2190.072510	4.596096
570.699524	1428.544067	18203.794922	2202.332764	4.612680
571.042908	1432.110718	18505.388672	2214.741211	4.583950
571.386230	1424.234497	18696.273438	2222.765869	4.623260
571.729492	1431.367676	18824.000000	2224.549072	4.560445
572.072815	1435.082886	18800.296875	2223.731689	4.541543
572.416016	1444.147827	18703.779297	2229.378906	4.549524
572.759094	1434.339844	18538.974609	2223.434570	4.613338
573.102234	1433.745239	18371.646484	2205.601807	4.556979
573.445374	1429.509888	18180.984375	2192.822021	4.556686
573.788391	1437.534546	18055.562500	2190.964600	4.533812
574.131409	1436.642944	17950.720703	2194.679688	4.590246
574.474365	1442.067017	17861.259766	2190.889893	4.560656
574.817261	1440.506836	17774.250000	2180.190430	4.528562
575.160156	1442.735840	17604.765625	2182.270752	4.575755
575.502930	1442.290039	17349.314453	2163.546631	4.534202
575.845703	1439.392212	17070.751953	2151.509521	4.555696
576.188477	1435.379883	16783.275391	2127.658447	4.510576
576.531250	1436.717407	16512.070313	2116.810303	4.511290
576.873901	1443.330444	16148.285156	2105.590576	4.503653
577.216431	1445.039185	15811.620117	2082.779541	4.439054
577.559082	1443.330200	15493.752930	2067.844971	4.444811
577.901611	1436.420288	15226.114258	2048.674805	4.439943
578.244080	1428.469849	14966.574219	2048.228760	4.577886
578.586487	1427.949829	14734.973633	2034.482910	4.557992
578.928955	1461.237305	14583.246094	2036.043091	4.380471
579.271301	1474.537598	14366.132813	2025.789429	4.276056
579.613647	1475.057617	14193.230469	2021.925659	4.299895
579.955872	1440.581055	13984.812500	2000.229126	4.461398
580.298157	1436.866089	13922.472656	1988.043579	4.414503
580.640320	1440.581055	13838.436523	1986.111694	4.400202
580.982483	1446.228149	13753.507813	1989.306641	4.412661
581.324524	1453.361206	13682.028320	1992.353149	4.407610
581.666626	1447.119751	13631.429688	1987.077637	4.431584
582.008728	1451.503540	13591.231445	1982.248047	4.371964
582.350647	1441.324219	13528.296875	1973.703125	4.404568
582.692566	1441.992798	13473.460938	1978.310059	4.457621
583.034424	1437.980591	13414.242188	1968.724976	4.431636
583.376343	1439.317993	13310.664063	1967.387573	4.448271
583.718201	1442.438843	13271.135742	1959.362793	4.370083
584.059937	1438.797852	13221.500977	1952.304077	4.358136
584.401611	1436.271606	13203.221680	1942.050293	4.298299
584.743347	1433.968262	13211.171875	1938.037964	4.280046
585.085022	1429.361450	13182.789063	1944.056274	4.379104
585.426514	1430.030273	13174.393555	1951.709473	4.441954
585.768127	1431.293335	13138.875000	1953.418457	4.459718
586.109619	1437.163208	13133.377930	1957.728027	4.450712
586.451172	1447.342773	13128.993164	1956.316406	4.357035
586.792542	1445.336548	13142.813477	1958.842773	4.389889
587.133850	1445.559448	13220.906250	1954.830200	4.324890
587.475220	1434.414063	13304.868164	1952.155273	4.361596
587.816589	1434.636841	13377.684570	1946.211060	4.283448
588.157776	1432.482056	13436.531250	1952.824097	4.334721
588.498962	1433.596680	13495.676758	1956.167847	4.332347
588.840210	1433.448120	13553.113281	1964.935547	4.385331
589.181335	1437.311890	13611.515625	1967.313110	4.353477
589.522400	1440.432617	13652.379883	1971.399780	4.347932
589.863403	1440.804077	13624.741211	1975.783569	4.390859
590.204407	1440.432617	13568.344727	1967.833374	4.348652
590.545410	1438.203491	13526.512695	1970.062500	4.399780
590.886353	1433.522461	13419.963867	1953.864258	4.341086
591.227112	1435.825806	13274.405273	1948.663086	4.331916
591.567932	1435.157104	13158.863281	1937.146118	4.281829
591.908752	1442.215820	13117.625000	1942.273071	4.282996
592.249512	1441.621460	13141.625000	1940.044067	4.260021
592.590149	1442.810181	13108.187500	1938.929565	4.252922
592.930786	1448.754517	13189.996094	1936.551758	4.154563
593.271423	1450.537720	13279.828125	1933.431152	4.082184
593.612000	1445.410767	13478.141602	1939.078125	4.102705
593.952576	1437.163086	13604.159180	1950.520874	4.219265
594.292969	1429.658691	13766.362305	1965.827148	4.346124
594.633484	1434.414063	13893.270508	1969.987915	4.298740
594.973877	1431.293335	14123.164063	1968.650513	4.233869
595.314209	1433.670898	14403.805664	1972.811523	4.156785
595.654480	1436.494507	14731.628906	1982.470825	4.106587
595.994812	1441.175659	15043.551758	2002.012573	4.123081
596.335022	1441.992798	15314.608398	2022.891602	4.187378
596.675171	1430.401733	15404.143555	2028.390015	4.279371
597.015320	1426.092163	15337.715820	2023.411621	4.293672
597.355408	1427.280884	15042.882813	2011.448853	4.290431
597.695496	1428.543945	14659.851563	1998.891724	4.310593
598.035461	1428.841309	14159.571289	1978.755859	4.319583
598.375366	1425.051758	13695.848633	1961.963257	4.375523
598.715271	1429.510132	13322.997070	1941.827271	4.307543
599.055176	1435.974243	12961.886719	1928.452759	4.272794
599.395081	1436.940308	12696.403320	1914.781250	4.243905
599.734802	1440.061035	12490.139648	1904.675903	4.204630
600.074524	1433.150879	12420.815430	1902.224121	4.269090
600.414246	1436.197266	12381.359375	1897.394409	4.213708
600.753906	1440.506836	12405.285156	1900.366333	4.193970
601.093506	1443.330444	12481.519531	1900.589233	4.142516
601.433044	1439.838257	12646.471680	1905.344727	4.153847
601.772583	1433.373657	12845.676758	1912.106079	4.194880
602.112122	1432.333618	13132.561523	1918.793457	4.157696
602.451538	1438.723633	13474.874023	1929.195923	4.074993
602.790894	1433.596680	13845.867188	1941.084351	4.088597
603.130310	1432.853638	14244.872070	1952.824219	4.058459
603.469604	1427.057983	14633.104492	1966.644531	4.085905
603.808838	1438.203491	14949.708008	1983.288208	4.034226
604.148010	1446.599609	15160.429688	1996.291138	4.008301
604.487305	1449.720337	15217.495117	1999.486206	3.993135
604.826416	1446.228149	15126.250000	1998.223022	4.035044
605.165527	1441.101196	14836.989258	1986.854858	4.074039
605.504456	1444.444824	14478.405273	1969.839355	4.030966
605.843445	1444.222046	14061.864258	1952.155273	4.025579
606.182434	1445.410767	13670.808594	1930.607544	3.968761
606.521423	1441.770142	13277.674805	1920.874023	4.047886
606.860229	1445.931030	12972.363281	1903.487183	3.969625
607.199036	1446.228149	12808.081055	1896.576782	3.963690
607.537903	1445.039429	12760.155273	1889.295288	3.926216
607.876648	1436.568726	12846.643555	1893.233398	4.002293
608.215271	1433.448120	12982.541992	1901.258179	4.050622
608.553955	1425.794922	13174.094727	1917.010132	4.181160
608.892578	1426.909546	13333.920898	1929.418823	4.220280
609.231140	1426.463745	13442.476563	1938.929565	4.264857
609.569641	1430.773315	13427.096680	1934.842896	4.201867
609.908081	1436.048828	13353.757813	1920.205200	4.062495
610.246521	1433.745483	13177.661133	1911.140259	4.065039
610.584961	1438.277832	12937.143555	1893.381836	3.957817
610.923340	1438.575073	12620.093750	1888.775024	4.026286
611.261597	1440.729858	12267.899414	1868.787720	3.953553
611.599854	1441.398560	11985.473633	1855.784790	3.930039
611.938110	1440.655640	11742.281250	1846.422485	3.938862
612.276245	1441.472778	11548.426758	1840.032349	3.943419
612.614319	1435.231445	11369.504883	1831.933472	3.993267
612.952393	1431.739258	11187.241211	1815.735474	3.936202
613.290466	1433.225220	11066.645508	1806.819214	3.878103
613.628479	1437.906250	10906.969727	1810.311523	3.932863
613.966370	1436.048706	10801.833008	1807.785156	3.969090
614.304260	1442.438843	10691.196289	1804.069946	3.910051
614.642151	1439.764038	10632.644531	1797.531372	3.891787
614.979980	1433.894043	10602.775391	1792.107300	3.906837
615.317749	1435.900024	10544.076172	1783.042358	3.811327
615.655396	1449.869141	10502.540039	1765.209595	3.483397
615.993164	1459.305298	10448.449219	1767.364624	3.427015
616.330811	1446.302368	10446.813477	1773.977539	3.640629
616.668396	1435.528442	10452.833008	1779.698853	3.816777
617.005859	1438.352051	10468.510742	1780.664673	3.790771
617.343445	1442.215820	10475.198242	1779.475952	3.733652
617.680908	1439.986694	10432.325195	1785.791504	3.845549
618.018311	1432.482056	10400.968750	1783.711060	3.916257
618.355652	1428.692749	10364.040039	1784.974243	3.987327
618.692993	1429.658569	10367.681641	1783.265259	3.956207
619.030273	1438.797852	10353.563477	1777.172485	3.795665
619.367554	1443.850464	10318.864258	1773.828735	3.718059
619.704712	1441.472656	10289.291992	1762.832031	3.632074
620.041870	1431.367554	10269.824219	1768.107422	3.809940
620.379028	1429.955933	10238.988281	1770.336548	3.863996
620.716064	1430.773315	10189.354492	1783.636719	4.028774
621.053040	1436.197266	10134.444336	1784.156860	4.000341
621.389954	1433.819702	10071.659180	1777.172485	3.974984
621.726929	1436.643188	10041.790039	1766.547241	3.833799
622.063843	1441.546997	10042.086914	1763.723633	3.746005
622.400635	1442.661499	10090.754883	1768.999390	3.773524
622.737427	1443.850464	10140.091797	1774.126099	3.797913
623.074219	1445.113647	10150.271484	1770.039429	3.732566
623.410889	1440.358276	10164.017578	1768.256226	3.758720
623.747559	1440.952637	10193.887695	1765.506958	3.707948
624.084167	1437.386108	10227.769531	1765.135376	3.728498
624.420715	1441.695679	10326.741211	1761.866211	3.603476
624.757324	1439.838257	10406.765625	1766.770142	3.645974
625.093750	1437.088867	10598.020508	1780.738892	3.751256
625.430176	1436.866089	10768.396484	1793.519043	3.822020
625.766602	1437.237427	10997.545898	1803.772827	3.833929
626.102905	1432.705078	11162.348633	1803.624390	3.812260
626.439209	1436.643066	11304.416992	1807.190796	3.755130
626.775452	1437.906250	11370.916992	1814.918335	3.795547
627.111694	1435.157104	11374.929688	1813.209351	3.803430
627.447876	1436.717407	11296.093750	1813.655273	3.823141
627.783997	1435.379883	11152.688477	1799.389038	3.745987
628.120056	1443.924805	10997.545898	1797.605835	3.702063
628.456055	1442.438843	10814.166992	1788.689453	3.694629
628.792053	1451.206543	10652.260742	1781.556274	3.590346
629.128052	1444.519165	10465.538086	1778.435547	3.701537
629.463928	1433.968384	10337.365234	1772.565796	3.803014
629.799744	1421.485352	10220.338867	1768.776245	3.947002
630.135559	1425.943481	10132.810547	1759.637085	3.832534
630.471375	1425.423462	10035.399414	1744.925171	3.710832
630.807068	1424.903320	9958.718750	1740.318359	3.696061
631.142700	1423.714355	9890.583008	1745.445313	3.799881
631.478333	1437.088867	9813.085938	1754.881714	3.794090
631.813965	1442.513062	9737.891602	1751.240845	3.721684
632.149475	1446.079590	9684.764648	1739.872559	3.566017
632.484924	1445.708008	9686.995117	1730.733276	3.458504
632.820435	1447.862793	9711.885742	1729.470093	3.407629
633.155884	1447.045532	9732.690430	1733.110962	3.452543
633.491150	1440.581055	9777.569336	1737.494751	3.561402
633.826477	1431.664673	9818.583984	1733.705444	3.601332
634.161804	1427.578125	9845.184570	1735.042603	3.652636
634.497009	1423.565796	9798.522461	1737.717651	3.751086
634.832153	1430.475952	9694.795898	1738.535156	3.727581
635.167297	1431.590454	9573.163086	1730.139038	3.666965
635.502380	1433.968262	9436.222656	1721.371094	3.591523
635.837463	1436.345825	9327.295898	1728.727051	3.705273
636.172424	1439.392212	9262.280273	1725.383423	3.655826
636.507324	1438.203491	9225.796875	1727.538208	3.715329
636.842224	1431.293335	9182.849609	1723.377319	3.768069
637.177124	1430.996094	9082.987305	1719.959351	3.776314
637.511963	1427.132446	8990.406250	1719.959351	3.871695
637.846741	1429.435669	8887.050781	1715.649902	3.837879
638.181396	1427.280762	8800.339844	1720.553833	3.977631
638.516113	1433.447876	8740.081055	1703.538574	3.696514
638.850769	1432.110718	8694.458008	1700.194824	3.691425
639.185303	1433.819702	8648.614258	1693.730469	3.602469
639.519836	1436.345825	8569.852539	1703.092651	3.739351
639.854370	1435.528687	8504.318359	1696.925415	3.697899
640.188843	1434.339844	8430.015625	1689.941040	3.653703
640.523254	1433.448242	8368.195313	1685.408691	3.633304
640.857605	1437.534790	8296.493164	1684.665527	3.603036
641.191895	1435.900024	8261.050781	1684.071167	3.636127
641.526184	1435.157104	8249.534180	1678.869995	3.576452
641.860413	1435.082642	8237.719727	1677.086792	3.557505
642.194580	1436.494507	8218.995117	1681.470581	3.611884
642.528748	1437.757690	8190.091309	1681.544922	3.610415
642.862793	1439.169312	8162.228027	1678.201172	3.555403
643.196838	1435.528442	8126.042969	1667.873169	3.472748
643.530823	1426.463501	8064.965332	1666.684204	3.618598
643.864746	1430.475952	8019.343750	1667.501587	3.597365
644.198669	1434.116699	8019.937988	1673.000000	3.627236
644.532532	1448.605835	8011.021973	1674.486206	3.442031
644.866333	1433.893921	8018.378418	1674.783569	3.658444
645.200073	1431.442017	7987.468262	1674.560425	3.708320
645.533813	1428.915649	7994.006348	1678.646973	3.803928
645.867554	1433.893921	8012.210938	1676.640747	3.690105
646.201172	1437.980469	8031.900879	1677.161133	3.627291
646.534729	1437.757446	8051.442871	1675.452148	3.593982
646.868225	1434.042480	8047.653809	1679.167358	3.706370
647.201782	1429.807251	8038.588379	1675.006226	3.710200
647.535217	1427.058105	8044.310059	1671.588257	3.695343
647.868591	1435.602905	8023.876953	1674.263184	3.622501
648.201965	1430.475952	8002.255371	1680.950562	3.811367
648.535278	1435.454102	7956.484375	1686.448853	3.849005
648.868591	1435.231323	7963.765625	1681.173462	3.767188
649.201782	1446.748413	7938.799316	1682.139526	3.625836
649.534912	1441.324219	7971.418457	1673.817383	3.560334
649.868103	1447.491333	7972.161621	1677.903931	3.531406
650.201172	1448.457397	8008.941406	1677.086792	3.484947
650.534180	1452.469604	8008.867188	1676.715210	3.420256
650.867188	1440.061035	7991.629395	1678.869751	3.645062
651.200134	1433.893921	7986.576660	1676.046387	3.695471
651.533020	1428.989868	7974.763184	1682.659546	3.875320
651.865845	1438.129028	7966.291504	1680.430298	3.711630
652.198608	1440.655396	7948.681641	1682.956665	3.723114
652.531433	1443.107422	7907.369629	1680.504761	3.672458
652.864136	1438.352173	7883.443848	1678.126953	3.720269
653.196777	1568.753418	7996.013184	1810.162720	3.756022
653.529358	1573.137207	7955.963379	1819.822266	3.864825
653.861938	1568.158813	7883.667480	1826.880859	4.096614
654.194519	1428.246704	7643.669434	1691.427124	4.234313
654.526978	1418.364624	7602.356934	1682.213501	4.266643
654.859375	1424.011597	7581.923828	1672.999878	4.043388
655.191833	1430.327271	7600.277344	1665.272461	3.807894
655.524170	1429.361450	7583.410156	1664.529419	3.821354
655.856445	1426.166382	7572.859375	1667.353149	3.923846
656.188660	1430.327515	7575.162109	1676.492310	4.006044
656.520874	1432.853882	7617.589355	1681.916382	4.027052
656.853088	1435.082886	7701.773926	1683.105103	3.957786
657.185181	1427.949707	7795.544434	1689.420898	4.106279
657.517212	1421.708374	7921.636230	1688.157837	4.099268
657.849243	1422.971558	8088.519531	1693.507690	4.058723
658.181274	1429.361450	8289.210938	1702.498169	3.981672
658.513123	1436.271606	8438.040039	1714.981079	3.980558
658.844971	1428.767090	8590.434570	1723.897461	4.120973
659.176819	1428.544312	8701.516602	1720.702515	4.017040
659.508667	1429.435913	8775.522461	1721.742554	3.979080
659.840393	1442.067383	8756.204102	1720.776733	3.810557
660.172058	1438.872192	8674.842773	1728.132813	3.997537
660.503662	1442.141602	8559.822266	1722.188477	3.934524
660.835266	1428.989868	8396.504883	1721.742676	4.201682
661.166931	1430.773071	8192.840820	1707.328003	4.089798
661.498413	1425.720703	8028.557129	1704.207397	4.217683
661.829773	1432.705078	7816.794434	1687.860718	3.996743
662.161194	1430.921875	7665.439941	1684.516968	4.067597
662.492615	1431.293335	7499.670410	1674.560425	4.008767
662.823975	1425.646362	7387.696777	1678.944336	4.248505
663.155212	1432.259277	7281.815918	1683.551147	4.295913
663.486450	1434.711304	7192.131348	1682.139282	4.297550
663.817627	1440.655396	7141.085938	1679.538696	4.190619
664.148743	1437.237427	7084.839355	1673.817383	4.189034
664.479858	1435.825806	7041.222656	1673.148560	4.233826
664.810913	1430.921875	7015.143066	1672.925659	4.333707
665.141907	1429.807251	6995.898438	1671.216797	4.337147
665.472778	1425.646362	6963.948730	1673.743164	4.479654
665.803711	1439.912476	6950.499512	1676.938110	4.301278
666.134583	1434.859863	6943.440918	1683.625366	4.515964
666.465454	1443.924805	6952.654785	1688.677856	4.443003
666.796143	1433.076538	6956.221191	1683.030884	4.525580
667.126831	1437.163086	6946.115723	1677.086548	4.355155
667.457458	1439.169312	6934.747559	1671.662476	4.230550
667.788147	1438.872070	6901.236816	1673.594360	4.297082
668.118774	1442.067261	6884.593262	1683.551147	4.436982
668.449219	1435.379883	6897.596191	1682.808105	4.529814
668.779663	1439.466675	6908.221191	1684.962891	4.489070
669.110107	1435.008423	6940.097168	1677.755371	4.409501
669.440552	1431.070435	6940.617188	1682.510864	4.563723
669.770874	1427.578125	6939.725098	1683.253906	4.638406
670.101135	1428.098267	6898.933594	1675.898071	4.529469
670.431396	1433.002319	6857.175293	1677.384155	4.505421
670.761597	1435.231323	6786.364746	1675.898071	4.497491
671.091797	1435.602905	6752.259277	1675.006348	4.502895
671.421875	1437.237427	6725.510254	1679.390137	4.579051
671.751892	1433.002319	6720.161621	1677.383789	4.622169
672.081909	1437.980469	6682.118652	1678.498413	4.586415
672.411865	1438.946411	6648.830566	1674.783203	4.526719
672.741821	1440.358276	6606.626465	1673.297241	4.508844
673.071716	1436.866089	6605.363281	1676.789429	4.642033
673.401550	1433.819702	6546.738770	1666.238403	4.545714
673.731262	1439.169312	6533.810059	1667.575806	4.483270
674.060974	1435.231445	6483.730469	1667.576050	4.602251
674.390625	1436.940430	6474.888184	1674.040405	4.706281
674.720276	1434.859863	6410.021484	1677.161011	4.870216
675.049927	1435.305664	6388.548340	1683.402344	5.008773
675.379395	1430.476074	6363.062500	1683.253906	5.124651
675.708923	1425.720703	6345.229004	1691.352905	5.399568
676.038330	1428.915649	6350.728027	1688.380859	5.271741
676.367737	1432.928101	6360.610840	1692.170288	5.260935
676.697083	1436.345825	6406.603516	1687.191772	5.046940
677.026428	1444.444824	6394.343750	1691.055664	4.982139
677.355652	1446.228149	6412.324707	1685.928711	4.826740
677.684875	1446.748413	6431.197754	1681.990723	4.719525
678.013977	1435.008423	6472.807129	1683.625366	4.935031
678.343079	1431.070435	6524.001953	1702.943970	5.338252
678.672180	1431.144897	6587.084473	1720.553711	5.613115
679.001221	1422.822876	6682.043457	1723.303101	5.713398
679.330139	1427.578247	6766.303223	1723.823242	5.548984
679.659058	1426.092163	6849.225098	1721.594116	5.448916
679.987976	1442.958984	6928.431641	1733.631226	5.298946
680.316772	1444.816406	6968.035156	1733.185181	5.221027
680.645630	1444.890625	6965.880371	1728.578491	5.138351
680.974304	1438.575073	6894.623535	1723.674438	5.225382
681.302979	1434.191040	6851.082520	1723.451538	5.339972
681.631653	1432.407837	6803.008301	1727.315430	5.491148
681.960266	1433.225098	6785.250000	1719.290649	5.344996
682.288757	1429.658691	6724.916504	1718.993530	5.464037
682.617249	1429.658569	6638.502441	1720.182251	5.577508
682.945679	1432.779297	6531.878418	1721.816895	5.668405
683.274109	1440.506836	6429.712402	1720.999634	5.621993
683.602478	1447.491211	6341.812012	1717.804688	5.523003
683.930725	1445.708008	6229.242676	1713.494995	5.598099
684.259033	1445.336426	6133.466309	1704.875977	5.536100
684.587280	1443.627563	6059.832520	1699.972046	5.553144
684.915344	1444.593384	6035.238281	1703.389771	5.637473
685.243469	1439.020874	6004.849121	1705.693237	5.840613
685.571533	1435.751587	5995.040527	1700.863403	5.814762
685.899536	1439.317993	5974.087402	1693.730469	5.610262
686.227539	1446.079590	5980.997559	1692.913208	5.442956
686.555420	1444.296265	6013.318848	1696.405396	5.517791
686.883301	1441.621460	6051.585449	1704.207153	5.696047
687.211121	1431.962036	6067.634766	1696.256836	5.701325
687.538940	1437.906250	6057.752441	1699.674683	5.666172
687.866638	1432.407837	6027.584473	1698.263062	5.785528
688.194336	1430.401733	6032.191406	1717.210327	6.232545
688.521973	1421.931030	5980.700684	1718.176147	6.498357
688.849609	1422.599976	5932.255371	1722.411499	6.648214
689.177063	1425.869141	5844.354980	1714.238159	6.526422
689.504578	1427.875366	5776.144531	1717.507324	6.660856
689.832031	1431.590454	5745.160645	1718.621948	6.654151
690.159485	1439.912476	5684.307129	1724.640503	6.708331
690.486816	1437.460327	5644.109375	1716.318481	6.628986
690.814087	1436.568726	5591.354004	1700.492188	6.352277
691.141296	1433.076538	5566.314453	1691.873047	6.261351
691.468506	1432.259277	5538.450684	1689.718140	6.270016
691.795715	1431.144653	5488.073730	1698.708618	6.595234
692.122803	1427.578247	5434.278320	1692.764526	6.618570
692.449829	1430.550293	5404.111328	1689.420898	6.514826
692.776855	1428.469727	5370.154785	1688.752319	6.603333
693.103821	1425.051880	5351.802246	1684.145508	6.598169
693.430664	1426.314941	5309.152344	1688.752319	6.758907
693.757568	1427.355103	5291.690918	1690.387085	6.806654
694.084351	1436.345825	5274.229980	1699.749023	6.863240
694.411133	1438.426392	5273.189941	1687.712036	6.500678
694.737854	1443.999023	5252.979980	1688.306519	6.413986
695.064575	1440.209595	5236.558105	1686.225952	6.480341
695.391174	1444.890625	5234.849609	1704.058594	6.838279
695.717773	1451.578003	5259.146484	1700.194946	6.529546
696.044250	1455.813110	5304.917480	1709.185547	6.582633
696.370789	1456.333374	5354.700195	1711.860352	6.554719
696.697205	1448.011597	5430.414551	1724.566040	6.944412
697.023621	1438.426392	5544.246094	1723.525879	6.943789
697.349915	1439.615234	5696.343750	1734.894165	6.936758
697.676208	1435.454224	5880.837402	1747.451538	7.018457
698.002380	1438.649292	6093.640625	1767.215942	7.058373
698.328674	1426.315063	6305.998047	1784.677124	7.343962
698.654724	1430.252930	6484.101563	1800.503540	7.326112
698.980896	1435.157104	6578.465332	1818.410522	7.451497
699.306946	1437.460449	6579.283203	1829.630249	7.627058
699.632935	1441.398438	6490.119629	1834.831421	7.792726
699.958862	1435.677246	6353.923340	1823.908813	7.893700
700.284729	1439.763794	6181.317871	1805.258789	7.708337
700.610596	1432.927856	6018.445801	1779.550171	7.559065
700.936340	1439.243652	5856.763184	1762.906250	7.326795
701.262146	1430.624512	5706.077637	1750.497681	7.481620
701.587830	1427.206665	5549.075684	1742.844604	7.657641
701.913513	1425.720703	5378.476563	1736.157227	7.853673
702.239075	1436.940308	5238.787598	1735.191406	7.844900
702.564697	1445.559570	5135.358887	1734.299805	7.825364
702.890137	1438.352051	5061.204590	1722.782837	7.851017
703.215698	1427.132324	5000.127441	1717.953247	8.139416
703.541016	1423.268555	4914.679199	1707.625122	8.144461
703.866455	1424.977539	4848.921387	1708.665405	8.285413
704.191711	1425.051758	4804.562500	1701.829468	8.189876
704.517029	1426.240723	4785.763672	1707.179321	8.362455
704.842163	1427.280884	4771.274902	1715.278320	8.612379
705.167419	1436.643188	4738.358887	1708.813965	8.243313
705.492493	1437.163452	4725.652832	1713.717896	8.409772
705.817566	1439.838257	4705.442871	1707.328003	8.191125
706.142578	1443.330444	4692.217285	1716.541504	8.409375
706.467590	1440.061035	4684.786621	1711.265991	8.358333
706.792480	1439.540894	4678.916992	1714.609497	8.491407
707.117371	1437.088867	4685.455566	1715.649780	8.575415
707.442200	1439.095093	4687.907227	1712.751953	8.423290
707.766907	1439.615234	4694.742676	1708.368164	8.256295
708.091675	1438.575073	4702.545410	1703.984375	8.131487
708.416321	1439.020874	4724.835938	1701.458008	7.986972
708.741028	1437.386108	4743.188965	1711.043091	8.278080
709.065552	1431.590454	4744.303223	1710.820190	8.429035
709.390137	1426.612305	4733.900879	1725.977905	9.051693
709.714600	1422.971558	4760.798340	1731.030396	9.229324
710.039063	1424.531738	4807.162598	1743.587769	9.432186
710.363403	1424.977539	4856.277344	1744.850952	9.322223
710.687744	1421.336914	4911.261230	1751.686646	9.465814
711.012085	1426.315063	4972.115234	1754.881714	9.266361
711.336304	1427.280884	4998.641113	1763.055054	9.401856
711.660461	1436.048462	4993.662598	1762.237671	9.168763
711.984619	1434.042480	4960.821289	1766.918823	9.438538
712.308716	1432.407837	4928.945313	1768.256226	9.605170
712.632751	1429.212891	4890.159668	1770.262329	9.854223
712.956726	1431.144653	4834.283691	1770.039429	9.958299
713.280701	1442.884644	4794.605957	1761.271606	9.499207
713.604553	1442.587402	4747.721191	1753.618530	9.410545
713.928467	1439.169434	4727.510742	1750.646484	9.472163
714.252258	1435.008423	4718.668457	1751.612305	9.641798
714.575989	1439.540894	4709.529297	1748.714478	9.454884
714.899719	1439.169312	4726.916016	1750.646484	9.473880
715.223267	1436.494507	4723.646973	1759.785522	9.834988
715.546936	1440.283813	4723.721191	1767.958862	9.979634
715.870422	1440.655273	4702.544922	1764.020874	9.913444
716.193970	1438.649048	4673.344238	1754.361450	9.760190
716.517395	1436.643066	4660.117676	1755.773315	9.900194
716.840820	1437.906250	4613.456543	1751.166504	9.864755
717.164124	1438.500610	4564.416016	1744.404907	9.786071
717.487488	1433.299438	4511.661133	1738.312134	9.908279
717.810730	1430.698853	4461.729980	1737.346313	10.116935
718.133972	1428.321289	4395.674805	1736.008789	10.369088
718.457092	1433.671021	4325.161621	1726.200806	10.116920
718.780212	1433.819702	4258.140137	1720.256470	10.141795
719.103210	1432.556519	4226.338867	1714.238159	10.082448
719.426208	1429.881470	4169.720215	1710.671509	10.248414
719.749207	1433.745239	4129.819824	1711.637573	10.307294
720.072083	1437.014648	4075.727295	1710.894531	10.379299
720.394958	1434.414063	4054.104736	1713.123657	10.639027
720.717773	1425.126343	4028.247803	1702.201050	10.643940
721.040527	1419.999390	4005.213867	1702.201172	10.915992
721.363281	1422.153931	3971.926514	1696.405396	10.755919
721.685913	1431.961914	3950.824219	1692.913208	10.359887
722.008545	1438.054810	3929.499268	1696.479614	10.372490
722.331055	1439.689575	3916.867920	1692.987427	10.225258
722.653503	1437.906250	3897.029297	1698.040039	10.578316
722.976013	1438.277710	3898.366455	1686.671753	10.096954
723.298401	1436.568848	3894.651611	1686.448853	10.165647
723.620789	1430.030273	3895.691650	1696.033813	10.788324
723.943115	1428.098267	3889.747314	1705.024414	11.249619
724.265381	1425.943481	3891.010742	1706.659180	11.387750
724.587585	1429.955933	3878.602295	1694.696411	10.811707
724.909790	1431.219116	3892.645264	1693.582031	10.658979
725.231873	1432.036499	3902.899170	1704.355835	11.021225
725.553894	1435.825806	3936.558350	1709.111328	10.928219
725.875916	1478.475586	3989.313232	1754.881714	11.008523
726.197937	1479.515747	3995.628906	1757.556519	11.050407
726.519775	1479.590210	3989.981689	1763.055054	11.291658
726.841675	1438.797852	3943.542725	1719.885132	11.222192
727.163513	1442.587402	3960.855469	1714.683716	10.804898
727.485291	1437.534790	4000.310303	1720.330688	11.034752
727.806946	1440.061157	4044.000000	1728.801147	11.088585
728.128662	1436.643188	4076.321533	1731.476196	11.169278
728.450256	1446.376831	4080.928467	1731.996460	10.841299
728.771790	1442.438843	4074.240967	1732.219360	11.010725
729.093323	1443.776245	4059.305908	1745.668335	11.542293
729.414795	1440.061157	4040.804932	1753.841675	12.065031
729.736145	1439.169434	4026.018799	1755.327637	12.221747
730.057495	1437.609009	4027.653564	1750.423706	12.077580
730.378845	1424.977539	4056.111328	1749.829102	12.346448
730.700134	1423.640015	4084.049072	1748.937500	12.227348
731.021301	1422.822754	4102.476074	1746.336792	12.072981
731.342468	1435.751465	4113.324219	1751.389282	11.788207
731.663574	1433.968140	4125.509766	1756.293457	11.975492
731.984680	1434.488403	4143.119629	1750.572144	11.669500
732.305664	1432.036499	4149.732910	1743.141968	11.447396
732.626648	1432.259277	4147.131836	1746.039673	11.557832
732.947571	1434.562622	4138.810059	1758.745483	11.987914
733.268433	1437.014648	4142.971191	1765.358398	12.134110
733.589233	1439.986694	4128.705078	1759.339844	11.877523
733.909973	1431.962036	4100.172363	1752.429565	12.010579
734.230713	1428.321289	4038.278564	1748.491577	12.267262
734.551331	1424.903320	3999.492432	1748.565918	12.571427
734.871948	1426.389282	3950.229736	1753.841431	12.974360
735.192505	1424.903320	3903.865234	1740.912720	12.747650
735.513062	1427.132324	3851.555908	1735.711548	12.727942
735.833435	1432.779297	3803.556396	1721.371216	12.172883
736.153931	1438.797852	3778.887695	1724.714844	12.218205
736.474304	1448.902954	3753.550537	1719.587769	11.745173
736.794617	1444.073608	3744.931396	1721.296875	12.048692
737.114807	1445.113770	3734.008789	1718.101929	11.926635
737.434998	1440.432617	3735.272217	1724.343262	12.371699
737.755188	1446.451172	3733.860596	1719.290527	11.927876
738.075256	1437.683228	3746.417725	1717.581665	12.123458
738.395325	1434.859863	3768.485596	1714.758179	11.994139
738.715271	1437.609009	3804.893799	1719.662109	11.914625
739.035278	1444.370728	3823.915283	1727.092407	11.881336
739.355164	1437.683472	3810.094971	1732.665161	12.433832
739.675049	1432.630737	3793.079834	1736.008789	12.852555
739.994873	1429.955933	3767.593750	1738.683594	13.206822
740.314636	1435.900024	3754.962158	1729.841675	12.675023
740.634277	1433.745239	3717.141846	1727.315430	12.856733
740.953979	1433.819702	3678.579102	1717.730347	12.647710
741.273499	1433.373657	3641.055908	1716.095581	12.806278
741.593140	1434.191040	3606.802734	1712.380493	12.804379
741.912598	1427.875366	3585.031982	1706.659180	12.923670
742.232117	1433.819702	3555.013672	1701.012085	12.596321
742.551453	1433.670898	3529.453369	1707.550903	13.068151
742.870850	1441.026978	3501.961670	1709.854370	13.043956
743.190063	1433.893921	3475.361084	1714.089478	13.725205
743.509338	1437.088867	3456.414063	1707.104858	13.371595
743.828552	1436.940308	3446.457275	1703.092651	13.244593
744.147705	1442.513062	3435.832031	1695.588013	12.696159
744.466797	1440.655396	3424.017578	1687.489136	12.445218
744.785828	1443.850586	3402.172607	1689.272461	12.532253
745.104858	1443.255981	3372.080078	1681.544922	12.354104
745.423706	1444.444824	3353.727539	1682.362305	12.461092
745.742615	1439.392212	3325.046875	1672.554321	12.365048
746.061401	1436.048706	3325.715576	1684.145508	13.129129
746.380249	1428.395508	3321.926025	1679.093140	13.239694
746.698975	1429.435669	3327.424561	1685.185913	13.474802
747.017639	1429.361328	3330.396729	1678.126953	13.085796
747.336304	1435.305664	3344.291260	1686.300293	13.148063
747.654907	1433.522461	3358.854492	1688.455078	13.240969
747.973389	1435.157104	3374.978271	1698.857422	13.594053
748.291931	1436.940308	3364.278564	1696.033813	13.443074
748.610352	1440.432617	3347.040283	1703.464233	13.795792
748.928711	1439.243774	3330.694092	1700.046265	13.788493
749.247070	1435.900024	3326.161377	1703.687134	14.166671
749.565308	1438.946655	3338.421143	1697.297241	13.601161
749.883545	1439.095093	3329.133545	1701.755249	13.897080
750.201782	1446.228149	3309.740479	1706.733398	13.979260
750.519836	1439.763672	3290.198486	1706.064819	14.391274
750.837952	1434.339722	3294.508545	1698.411499	14.196119
751.155884	1428.692749	3302.755859	1696.554077	14.293079
751.473877	1430.475952	3301.269531	1697.594238	14.278341
751.791809	1433.076538	3292.724854	1693.359009	13.996327
752.109619	1437.460449	3286.409424	1685.928833	13.438358
752.427490	1438.649292	3288.861328	1678.349976	12.955309
752.745300	1441.175659	3287.746826	1678.498413	12.852077
753.062988	1435.677246	3283.734619	1682.362305	13.348344
753.380615	1436.123047	3271.920166	1685.037109	13.558909
753.698303	1438.872192	3258.768799	1688.529297	13.718203
754.015808	1438.649414	3260.998047	1684.368530	13.483650
754.333374	1431.739136	3265.307373	1688.380737	13.996840
754.650757	1428.692749	3267.759521	1686.003052	13.991352
754.968262	1426.389282	3259.511719	1683.551147	14.028625
755.285583	1427.429688	3260.700439	1687.191772	14.169325
755.602905	1429.361450	3251.338623	1693.804688	14.514081
755.920105	1430.847534	3239.226807	1695.513672	14.635544
756.237305	1434.934204	3223.846436	1690.609741	14.292234
756.554443	1433.819702	3225.703857	1686.151733	14.081939
756.871582	1435.751465	3239.673096	1693.210449	14.272182
757.188599	1434.562622	3252.527344	1701.978149	14.709610
757.505615	1431.739136	3271.697266	1714.015259	15.341443
757.822510	1428.841309	3284.625977	1710.597290	15.182579
758.139465	1431.813477	3307.139893	1712.157593	14.949083
758.456238	1429.435669	3328.687500	1713.123535	14.936822
758.773010	1428.989868	3350.309570	1716.169922	14.947021
759.089783	1426.017944	3361.826416	1715.798462	14.969482
759.406433	1432.333496	3357.665771	1721.148315	15.000778
759.723145	1441.472656	3358.557373	1727.835571	14.937416
760.039673	1443.850464	3370.594482	1737.420532	15.236589
760.356201	1444.964966	3387.683838	1736.974609	15.030978
760.672668	1443.553345	3393.405273	1732.219360	14.804509
760.989136	1441.769897	3378.544922	1719.216309	14.325175
761.305481	1436.420288	3361.603516	1710.597290	14.241606
761.621826	1438.352051	3367.622070	1714.238159	14.300026
761.938049	1442.067261	3392.141846	1724.937500	14.505611
762.254333	1442.141602	3437.838623	1736.305786	14.739922
762.570496	1434.414063	3501.664307	1745.742554	15.060029
762.886597	1422.748657	3606.505615	1760.528809	15.467846
763.202637	1419.553345	3780.076416	1779.996094	15.269614
763.518677	1424.828979	3993.176758	1814.844116	15.185450
763.834656	1431.219116	4212.221191	1851.178101	15.100996
764.150574	1430.327515	4344.405762	1879.264526	15.405799
764.466370	1422.674194	4385.569824	1883.128296	15.540680
764.782288	1425.720581	4319.812012	1865.295410	15.188700
765.097961	1435.900024	4190.153809	1851.995239	15.107366
765.413696	1445.039429	4029.882080	1834.682739	15.074159
765.729309	1443.924805	3863.072510	1813.134888	15.261991
766.044861	1437.757813	3736.460938	1790.101074	15.327915
766.360474	1429.807251	3613.861328	1772.342773	15.683472
766.675903	1431.590454	3528.487549	1761.271851	15.722346
766.991394	1428.098267	3449.429688	1746.485352	15.751355
767.306763	1437.683228	3407.894531	1731.327759	14.904215
767.622131	1443.404663	3373.046631	1724.789063	14.582208
767.937378	1450.760620	3339.015625	1707.179321	13.579665
768.252625	1454.921509	3296.514404	1707.625122	13.722013
768.567810	1448.680176	3251.561279	1696.182617	13.728162
768.882996	1449.200195	3220.428467	1700.789185	14.204210
769.197998	1444.296265	3195.314453	1692.913086	14.198415
769.513062	1442.141602	3163.661377	1687.191895	14.234532
769.828064	1442.364380	3126.138428	1691.501465	14.796349
770.142944	1436.271606	3075.835693	1681.619141	14.964193
770.457825	1440.209595	3051.241211	1689.049438	15.445993
770.772705	1438.872192	3020.034180	1680.281738	15.267857
771.087402	1438.575073	3005.842529	1682.585083	15.569137
771.402100	1435.677124	2978.647461	1674.114624	15.453149
771.716736	1435.900024	2976.492920	1668.690430	15.110442
772.031372	1438.352051	2970.548584	1667.353027	14.945927
772.345947	1440.135376	2959.848877	1670.473999	15.156713
772.660461	1438.575073	2942.536377	1667.873413	15.246292
772.974854	1441.324097	2929.905029	1672.777222	15.548575
773.289246	1437.163208	2932.579834	1670.027954	15.571898
773.603638	1436.123047	2925.075195	1666.238647	15.454868
773.917908	1422.674194	2911.552002	1653.978516	15.535480
774.232178	1422.228516	2886.511963	1652.492554	15.725373
774.546265	1422.674194	2871.056885	1652.789673	15.887754
774.860474	1431.961914	2869.571045	1651.229492	15.252239
775.174561	1434.265259	2873.657471	1648.034302	14.851341
775.488586	1433.299438	2870.537109	1647.737183	14.920131
775.802551	1429.584351	2852.184326	1651.526733	15.601180
776.116516	1427.578247	2827.367188	1646.994141	15.674927
776.430359	1425.423340	2811.540283	1645.879517	15.904587
776.744202	1432.853638	2812.209229	1649.074585	15.675505
777.057922	1436.345825	2810.351563	1656.059082	15.990709
777.371704	1440.283813	2804.407471	1665.495483	16.509623
777.685303	1439.763672	2786.946533	1649.891968	15.597608
777.998962	1432.705078	2784.494385	1648.108521	15.934690
778.312500	1433.225098	2780.779297	1641.495728	15.455455
778.626038	1432.705078	2781.151123	1652.715332	16.315836
778.939453	1441.546997	2784.643311	1648.480103	15.407168
779.252869	1444.667847	2789.918701	1652.492554	15.448770
779.566223	1443.181763	2783.974609	1652.195313	15.588802
779.879578	1435.677246	2785.832031	1652.863892	16.086056
780.192749	1431.664917	2772.383057	1644.913696	15.905563
780.505920	1435.157104	2776.321045	1645.285156	15.667589
780.819031	1441.770020	2764.729736	1637.409058	14.787981
781.132141	1444.890625	2767.479248	1636.294434	14.471908
781.445190	1438.203491	2758.117188	1638.449219	15.171123
781.758118	1432.556274	2747.640625	1649.223267	16.475521
782.071045	1434.265259	2732.111328	1649.891968	16.614197
782.383911	1435.156860	2713.386719	1639.712524	16.003042
782.696838	1435.825806	2699.715088	1629.532837	15.326266
783.009583	1431.887695	2693.844971	1620.988159	14.984696
783.322266	1429.510132	2689.238281	1618.833374	15.028896
783.634888	1432.110718	2680.173584	1611.700195	14.389458
783.947510	1434.488403	2669.473877	1611.402954	14.325233
784.260132	1434.488281	2658.922852	1608.653931	14.224170
784.572571	1436.346069	2657.585205	1616.975952	14.790706
784.885010	1437.757690	2653.275635	1615.712524	14.640247
785.197449	1435.677246	2652.086914	1623.142944	15.411395
785.509766	1431.739136	2644.359619	1616.381470	15.226721
785.822083	1431.516235	2634.254395	1615.043945	15.259157
786.134277	1443.330444	2622.366211	1607.687988	13.939997
786.446533	1444.221802	2609.734619	1607.539429	14.012512
786.758606	1434.042480	2609.139893	1611.105957	15.067983
787.070740	1425.943359	2618.947754	1620.319702	16.293011
787.382690	1427.652466	2637.523438	1632.356445	16.919489
787.694641	1438.649414	2662.786621	1638.598022	16.333839
788.006653	1440.804077	2704.247803	1646.027954	16.243216
788.318481	1440.729858	2742.662109	1649.445923	16.031254
788.630310	1435.602905	2783.379883	1652.269531	16.075851
788.942017	1438.574829	2797.868896	1641.272827	14.912004
789.253784	1442.364380	2814.141357	1639.712402	14.386305
789.565430	1447.045532	2793.261963	1639.489624	14.295182
789.877014	1440.952637	2775.429443	1645.062134	15.295095
790.188538	1435.231323	2729.881836	1639.192383	15.754141
790.500061	1430.104492	2697.262939	1636.963379	16.324627
790.811462	1435.900024	2666.873291	1629.755981	15.748186
791.122925	1439.986694	2649.560791	1620.913696	14.957910
791.434204	1438.203491	2635.666260	1616.901489	14.923053
791.745483	1438.723633	2609.214600	1614.449341	15.012991
792.056702	1436.643066	2585.214600	1615.118164	15.538876
792.367920	1444.296265	2568.273438	1614.152222	15.112047
792.678955	1451.206421	2567.158936	1612.889160	14.488317
792.990112	1444.964966	2563.220947	1612.814819	15.009967
793.301086	1433.596680	2556.459473	1602.635376	15.054261
793.612122	1423.342896	2544.645264	1603.229614	16.042660
793.922974	1429.287231	2538.180908	1603.081177	15.672733
794.233826	1435.900024	2534.614502	1612.814819	16.101980
794.544556	1431.442017	2533.277100	1611.774536	16.366562
794.855286	1431.144653	2531.048096	1612.220581	16.462893
795.166016	1431.590454	2538.032471	1608.133789	15.955950
795.476624	1439.986694	2542.118896	1607.465210	15.195865
795.787292	1440.878418	2562.923828	1604.195679	14.555317
796.097778	1439.689575	2579.418701	1611.254517	15.053133
796.408264	1434.116821	2597.102783	1618.907593	15.889338
796.718689	1432.630737	2613.152100	1627.972656	16.547089
797.029053	1430.996094	2625.412354	1636.294556	17.188185
797.339355	1434.711304	2630.019287	1630.350220	16.367239
797.649658	1434.488281	2619.839600	1633.768188	16.811886
797.959839	1435.602905	2595.988525	1624.629028	16.289940
798.270020	1434.488281	2576.669922	1622.102905	16.425989
798.580078	1433.745483	2560.397217	1613.632202	15.966489
798.890137	1435.305664	2554.230225	1607.390747	15.379507
799.200195	1431.367554	2552.892822	1606.424805	15.608855
799.510071	1430.698853	2537.586426	1602.561157	15.526627
799.820007	1430.773071	2520.274170	1597.583008	15.310672
800.129883	1426.983765	2502.887451	1601.149414	16.187847
800.439575	1431.739258	2500.063721	1605.904785	16.302681
800.749329	1432.556519	2490.552979	1613.334961	17.086866
801.058960	1436.048828	2478.739014	1606.647827	16.361427
801.368591	1435.008423	2462.466553	1611.551636	17.182522
801.678162	1434.191040	2462.169189	1607.093628	16.819675
801.987671	1439.541016	2456.373535	1605.235962	16.295206
802.297119	1431.664673	2453.624268	1598.177246	16.293459
802.606506	1429.732910	2436.832031	1592.307251	16.142834
802.915894	1421.113892	2432.002441	1595.948242	17.295116
803.225159	1426.760864	2427.990234	1592.976074	16.601112
803.534424	1430.253052	2430.070557	1597.137085	16.691450
803.843628	1430.996094	2428.510010	1594.462280	16.387360
804.152771	1427.875488	2423.457275	1592.233032	16.508694
804.461792	1425.423462	2425.538086	1586.288696	16.084681
804.770874	1433.002319	2429.698975	1584.876953	15.237799
805.079773	1439.392212	2445.748291	1591.489868	15.113702
805.388733	1438.054688	2456.745117	1602.858276	16.177986
805.697571	1434.042480	2468.336182	1606.424805	16.666670
806.006470	1429.138550	2474.800537	1601.372192	16.471254
806.315125	1432.407837	2485.500488	1599.143188	15.832923
806.623901	1425.794922	2480.373535	1599.514648	16.472904
806.932495	1426.166504	2473.686279	1599.886108	16.583897
807.241150	1428.172485	2461.872070	1599.365845	16.561230
807.549622	1440.209595	2452.138428	1594.982056	15.294797
807.858154	1445.410767	2442.924805	1583.836792	13.877101
808.166565	1438.426392	2434.157227	1584.728516	14.692939
808.474915	1439.615234	2424.052002	1583.316772	14.597336
808.783264	1441.026978	2403.247314	1583.539551	14.810804
809.091492	1444.519165	2386.231689	1573.359985	13.681544
809.399719	1443.553345	2371.742920	1579.304321	14.625350
809.707825	1438.575073	2368.919189	1579.601563	15.158529
810.015930	1439.392456	2364.460938	1581.979126	15.413634
810.323975	1430.921875	2364.906982	1573.583008	15.274455
810.632080	1436.643188	2351.904053	1574.251587	15.034883
810.939880	1433.225220	2329.539063	1573.731567	15.676022
811.247864	1435.825806	2310.369141	1571.799805	15.548000
811.555664	1438.055054	2302.195557	1572.765625	15.588966
811.863464	1442.810181	2291.421631	1568.456055	14.806054
812.171143	1445.931030	2292.536133	1565.335327	14.103895
812.478882	1438.277710	2283.768555	1562.289063	14.667379
812.786438	1435.231445	2299.743408	1556.567749	14.035237
813.094055	1427.875366	2299.149170	1562.066040	15.401665
813.401489	1430.550293	2302.864258	1559.242554	14.752975
813.708984	1430.401733	2295.433838	1569.496460	16.079718
814.016357	1437.163208	2291.124512	1573.137207	15.922735
814.323730	1429.287109	2290.381348	1578.709961	17.352671
814.630981	1424.234497	2287.855225	1574.103149	17.353527
814.938232	1420.370728	2275.372314	1559.688477	16.294443
815.245361	1427.652466	2263.558105	1550.400513	14.684438
815.552490	1426.240723	2254.121582	1546.833984	14.566500
815.859619	1423.640137	2262.294922	1560.877319	16.363966
816.166565	1422.302734	2272.994385	1568.307617	17.163080
816.473572	1422.822754	2287.334961	1577.521118	17.894295
816.780457	1426.315063	2298.183350	1577.521118	17.342764
817.087341	1423.714478	2304.201660	1577.669556	17.485214
817.394043	1430.327515	2299.594971	1569.645020	16.027000
817.700806	1432.630737	2298.257568	1567.044312	15.527889
818.007507	1433.819702	2302.715576	1569.124878	15.572082
818.314209	1428.692749	2315.421387	1574.548950	16.448797
818.620667	1434.711304	2328.870361	1578.486938	16.079426
818.927246	1438.054810	2362.009033	1587.774902	16.204275
819.233704	1441.101196	2388.386719	1594.090454	16.150280
819.540161	1427.801147	2420.782959	1601.966797	17.539661
819.846497	1423.268555	2459.494385	1602.932617	17.338312
820.152832	1425.943359	2541.153076	1608.802368	16.396828
820.458984	1432.333618	2633.288330	1621.433960	15.745834
820.765259	1439.838257	2731.145264	1638.746460	15.403634
821.071350	1441.398438	2821.497314	1661.334473	15.936252
821.377502	1444.816406	2971.217529	1690.981323	16.127144
821.683472	1437.906250	3265.084717	1752.801147	17.233944
821.989441	1432.259277	3880.088135	1864.478149	17.657234
822.295349	1433.150879	4863.855957	2045.405273	17.846313
822.601196	1431.367554	6172.921875	2269.204834	17.670097
822.907043	1442.067383	7423.808105	2475.469482	17.275942
823.212769	1439.466675	8235.045898	2599.406494	17.069036
823.518494	1444.742065	8256.666992	2602.601563	16.997538
823.824097	1435.008423	7614.691406	2510.986084	17.411535
824.129700	1431.887695	6611.529785	2351.978271	17.763594
824.435242	1434.934082	5621.372559	2189.849854	18.032410
824.740723	1436.197388	4806.791504	2050.086426	18.213079
825.046082	1437.386108	4215.341797	1943.610718	18.222919
825.351501	1438.203491	3809.203369	1862.249023	17.884670
825.656799	1437.311890	3543.422607	1809.791382	17.685656
825.962036	1438.055054	3366.878906	1775.240601	17.481407
826.267212	1426.983765	3294.433838	1763.872437	18.040037
826.572449	1432.036255	3311.969482	1758.596802	17.370859
826.877502	1433.968140	3444.971436	1787.203491	17.565130
827.182495	1439.243774	3691.061768	1827.104004	17.224316
827.487488	1433.968262	4019.702881	1884.762695	17.433901
827.792419	1429.584473	4332.962891	1928.081421	17.169548
828.097290	1425.200562	4443.822754	1949.183105	17.358335
828.402100	1419.330566	4321.148926	1935.808716	17.798431
828.706848	1424.531616	4009.226318	1890.855469	18.041737
829.011597	1429.955688	3645.737305	1831.562012	18.124815
829.316223	1444.296265	3308.477295	1760.677246	16.971581
829.620789	1449.868774	3019.068359	1709.854370	16.568039
829.925354	1450.240601	2803.441650	1664.901245	15.863174
830.229797	1439.020874	2642.650635	1646.102539	17.204765
830.534302	1433.893921	2540.261475	1628.046875	17.548685
830.838562	1430.030151	2467.593506	1613.260742	17.659702
831.142944	1433.522339	2404.584717	1601.149414	17.262236
831.447144	1430.624390	2359.408447	1590.895508	17.256016
831.751404	1431.887573	2332.288086	1590.969849	17.667946
832.055542	1437.609009	2336.226318	1591.787109	17.157259
832.359619	1443.553223	2336.077637	1590.449707	16.458540
832.663635	1442.141602	2354.653320	1587.997681	15.984022
832.967651	1439.540894	2390.690186	1595.353882	16.381550
833.271545	1440.209595	2493.673584	1611.031616	16.215269
833.575439	1441.175659	2657.659668	1640.678345	16.399942
833.879211	1443.033203	2885.174805	1669.136353	15.678290
834.183044	1443.033203	3120.120117	1710.151367	15.927508
834.486694	1443.033081	3303.276123	1752.058105	16.612078
834.790344	1439.763794	3353.579102	1772.045532	17.362268
835.093933	1434.488281	3293.468018	1768.033203	17.942364
835.397522	1440.432617	3132.751221	1741.581421	17.795042
835.700928	1438.872192	2949.149170	1702.869751	17.480076
836.004395	1441.770020	2754.327393	1668.764771	17.294083
836.307739	1429.881470	2605.276367	1637.929321	17.700251
836.611023	1428.321289	2479.184326	1620.616699	18.298807
836.914307	1428.098267	2379.544434	1599.811890	18.047646
837.217529	1438.426392	2290.083984	1582.945313	16.969133
837.520691	1436.197266	2229.378906	1563.180664	16.009373
837.823730	1433.745239	2181.973633	1554.710327	16.166866
838.126831	1430.996094	2141.107178	1552.109497	17.055557
838.429749	1435.454224	2118.667725	1546.685425	16.280592
838.732727	1427.132446	2097.640137	1536.357300	16.289873
839.035522	1426.909546	2088.723877	1529.818726	15.549555
839.338379	1432.407837	2072.302979	1534.722656	15.989310
839.641113	1438.723633	2067.176270	1543.564819	16.682432
839.943848	1435.602905	2089.689941	1543.341797	16.471645
840.246460	1427.206665	2134.791504	1548.765991	17.179470
840.549072	1431.961914	2215.038330	1554.858765	15.694107
840.851563	1440.060913	2258.802490	1565.335571	15.300879
841.154053	1446.005249	2272.400146	1564.220825	14.304975
841.456482	1441.695679	2234.877197	1559.094116	14.800955
841.758850	1434.934204	2186.282959	1555.453125	16.040344
842.061157	1433.671021	2127.732666	1545.645142	16.133167
842.363403	1430.773071	2080.847656	1535.465820	16.104729
842.665588	1431.887695	2035.299927	1525.657837	15.539980
842.967712	1437.757690	2002.384155	1520.976563	14.738748
843.269775	1440.506836	1955.944824	1514.289429	14.314543
843.571777	1441.621460	1934.842896	1507.825073	13.422696
843.873840	1433.745239	1914.335327	1505.075806	14.842288
844.175659	1446.376587	1917.976196	1505.001587	12.431096
844.477600	1455.367310	1904.601563	1504.332886	10.899787
844.779297	1462.500488	1895.090820	1502.846802	9.326679
845.081116	1454.401733	1877.332520	1499.874634	10.751854
845.382751	1447.342773	1874.657715	1500.840698	12.519554
845.684387	1444.296387	1863.586548	1503.441284	14.105959
845.985962	1437.832031	1855.636108	1498.685913	14.565172
846.287537	1436.420288	1837.208984	1490.066772	13.385229
846.588989	1431.070313	1825.840820	1481.299194	12.723565
846.890381	1431.293335	1813.878052	1484.865601	14.002720
847.191711	1435.008423	1810.608887	1483.602539	12.937715
847.493042	1432.036499	1816.627319	1483.379517	13.350038
847.794250	1437.163208	1821.902710	1479.144165	10.911528
848.095459	1435.008423	1815.438354	1475.726196	10.703094
848.396606	1444.370605	1805.556030	1472.308472	7.735048
848.697693	1443.181763	1799.686157	1471.491211	7.940841
848.998657	1441.621460	1797.902954	1476.840820	9.885262
849.299622	1438.649292	1797.605835	1481.596191	11.964373
849.600464	1437.980469	1794.187866	1487.317749	13.850718
849.901367	1442.364380	1799.537720	1489.769653	13.272344
850.202087	1440.135254	1793.370483	1486.797485	13.209960
850.502808	1438.352051	1788.912476	1483.899536	12.992764
850.803467	1434.414063	1779.921753	1472.234009	10.946196
851.104065	1436.123047	1780.813354	1473.422974	10.821287
851.404663	1435.454468	1780.441895	1462.574707	7.861226
851.705139	1432.928101	1780.590454	1468.370483	10.194484
852.005615	1429.138550	1779.773071	1475.949219	13.350274
852.306030	1430.178711	1779.178589	1486.425781	16.116644
852.606384	1438.574829	1779.178589	1485.014160	13.634416
852.906616	1441.844238	1781.704956	1481.447632	11.652830
853.206909	1439.838013	1778.138306	1475.354858	10.498615
853.506958	1434.265503	1774.274536	1484.196899	14.685315
853.807129	1439.243774	1767.513062	1479.218628	12.177458
854.107178	1447.342651	1765.729858	1480.630371	10.455106
854.407166	1440.804077	1769.370728	1476.023438	10.719091
854.707092	1437.534790	1761.494629	1473.497070	11.100845
855.007019	1439.317993	1756.590820	1477.138062	11.920362
855.306763	1451.578003	1751.017944	1471.193848	6.550845
855.606567	1446.525391	1751.761108	1472.234253	8.422626
855.906250	1439.615234	1757.705078	1472.085449	10.207875
856.205933	1431.813477	1748.937500	1472.680054	12.886623
856.505493	1438.054810	1745.593750	1478.624023	13.191569
856.805054	1439.317993	1733.333984	1471.565430	10.967919
857.104492	1436.494507	1738.906616	1483.602539	15.577429
857.403931	1431.664673	1735.191406	1482.933716	16.891113
857.703308	1427.355103	1739.649536	1487.986328	19.414764
858.002563	1428.024048	1732.442261	1477.435425	16.231413
858.301819	1428.915649	1741.878784	1470.748047	13.366557
858.601013	1430.476074	1744.999512	1465.992676	11.292195
858.900208	1438.946411	1747.228516	1462.277466	7.568086
859.199219	1442.661621	1752.875488	1464.060913	6.898238
859.498291	1441.918579	1750.497681	1467.181641	8.186900
859.797302	1430.996094	1752.949829	1470.822388	12.370192
860.096191	1430.698853	1743.662109	1472.011230	13.200393
860.395020	1428.024048	1739.649780	1472.011230	14.115389
860.693787	1433.893921	1731.773438	1465.695313	10.675924
860.992554	1433.671021	1721.371094	1464.580933	10.743797
861.291260	1435.900024	1713.346558	1462.649048	9.641146
861.589844	1431.516235	1711.934570	1461.163086	10.572365
861.888428	1428.469727	1714.832397	1465.398438	12.895783
862.186890	1433.893921	1720.628052	1468.519043	12.075689
862.485413	1436.048706	1716.541382	1474.834839	13.827859
862.783813	1435.008423	1710.002808	1470.450806	12.888402
863.082153	1434.042480	1703.389771	1467.404297	12.386171
863.380371	1433.448120	1705.321655	1468.816284	13.009050
863.678589	1439.838013	1707.550781	1477.063843	13.905138
863.976746	1435.677124	1710.448608	1478.847046	15.711209
864.274902	1437.757690	1712.900513	1473.645874	13.043474
864.572937	1432.630859	1716.244263	1467.478638	12.287070
864.870911	1436.346069	1716.838745	1463.392090	9.642326
865.168884	1434.637085	1717.804565	1471.788208	13.119841
865.466736	1431.590454	1716.912964	1471.045288	13.828154
865.764587	1430.030151	1716.987183	1469.113403	13.619897
866.062317	1432.705078	1711.711792	1460.642944	10.013331
866.360107	1438.797852	1716.615845	1462.797729	8.638705
866.657715	1438.351929	1714.609375	1459.751343	7.746185
866.955322	1436.643066	1715.649780	1464.581055	10.013375
867.252808	1430.698853	1711.265991	1459.974121	10.434319
867.550293	1428.766968	1708.591187	1468.518921	14.206044
867.847717	1427.280884	1710.894531	1464.655273	13.177923
868.145081	1421.113892	1707.328003	1464.358032	15.109017
868.442383	1423.788696	1706.436157	1465.769897	14.852849
868.739624	1426.909546	1705.544556	1466.290039	14.133362
869.036804	1433.522461	1709.036743	1463.763672	10.976277
869.333984	1426.909546	1710.225586	1458.339478	11.093595
869.631042	1426.166504	1714.089478	1460.940063	12.077383
869.928101	1430.104492	1717.061523	1466.438477	12.661820
870.224976	1435.900024	1719.885132	1473.794434	13.343801
870.521851	1435.305664	1718.324585	1476.320679	14.491969
870.818726	1429.807251	1721.445313	1475.131836	15.541382
871.115479	1433.893921	1715.426758	1466.810059	11.691758
871.412231	1434.488281	1712.380493	1461.831665	9.839564
871.708862	1434.116821	1712.009155	1461.683228	9.919815
872.005493	1431.293335	1710.522949	1468.741821	13.411359
872.302063	1432.036255	1706.956421	1476.320801	16.108147
872.598572	1439.169312	1698.931641	1473.125610	13.072064
872.895020	1440.655396	1705.396118	1470.302246	11.198447
873.191406	1437.609009	1712.157593	1468.741821	11.339637
873.487671	1436.865845	1718.250366	1476.989624	14.259413
873.783997	1439.466431	1721.965454	1479.589966	14.203071
874.080200	1436.717407	1720.182129	1472.382690	12.581912
874.376343	1433.745483	1715.129517	1471.565430	13.440686
874.672424	1425.274780	1712.454712	1474.166016	17.024601
874.968445	1427.206665	1712.454712	1479.812988	18.442308
875.264465	1426.092163	1710.002930	1479.069946	18.660011
875.560364	1432.036255	1711.340210	1478.772827	16.733231
875.856201	1431.441895	1712.974976	1479.589966	17.102100
876.152039	1427.280884	1722.114258	1478.178345	17.263128
876.447754	1424.828979	1718.399048	1466.884399	14.325514
876.743469	1427.578125	1718.027466	1458.785278	10.744439
877.039063	1433.150879	1714.683960	1453.881348	7.363422
877.334595	1434.859863	1715.946899	1461.683228	9.542726
877.630127	1436.940308	1718.176147	1465.026733	9.986788
877.925537	1438.723633	1716.095703	1464.060913	9.134763
878.221008	1439.838257	1720.999634	1465.175293	9.011563
878.516296	1440.284058	1721.371094	1469.707886	10.467871
878.811646	1440.804077	1734.819946	1473.720215	11.195361
879.106812	1433.968140	1743.884888	1475.354858	13.354140
879.401978	1435.825806	1763.500977	1477.806641	12.811723
879.697083	1439.169434	1788.392212	1479.218628	11.468093
879.992126	1445.039429	1818.113403	1485.459961	10.834455
880.287109	1445.336548	1865.295532	1489.918335	10.615747
880.582031	1440.284058	1927.338257	1504.778687	13.241776
880.876892	1436.940308	2058.631104	1522.388306	13.744452
881.171753	1429.807251	2292.015869	1566.004272	15.796295
881.466492	1430.401733	2681.139404	1635.997437	16.437956
881.761230	1432.779419	3212.626953	1728.281250	16.602648
882.055786	1432.705078	3747.829346	1813.135132	16.432381
882.350403	1431.813477	4101.807129	1867.375977	16.313242
882.644958	1433.076538	4141.633301	1870.273804	16.141336
882.939453	1434.116821	3912.781250	1837.208984	16.262474
883.233826	1434.116821	3554.716553	1780.441772	16.331463
883.528137	1424.605957	3176.589844	1724.046021	17.091484
883.822449	1424.234375	2843.490479	1671.588379	17.428427
884.116577	1436.791626	2568.273438	1625.223511	16.653549
884.410828	1449.125977	2359.854248	1580.195923	14.391773
884.704956	1453.138306	2213.106689	1550.103394	12.759095
884.999023	1445.633789	2098.680420	1534.202637	13.562407
885.292969	1439.540894	2024.377808	1530.041626	15.474524
885.586914	1438.352051	1965.529907	1520.159302	15.517961
885.880798	1431.219116	1926.520874	1506.190430	15.136493
886.174622	1435.825806	1900.217773	1502.178101	14.287993
886.468384	1431.962280	1877.109741	1489.546509	12.935989
886.762085	1433.671021	1862.917969	1487.911987	12.636308
887.055664	1429.212891	1832.453735	1481.967773	13.082723
887.349304	1429.807251	1817.444702	1490.066772	15.545330
887.642822	1432.705078	1795.228027	1485.682983	14.613669
887.936340	1431.739258	1784.676880	1488.283569	16.021049
888.229736	1437.386108	1763.649414	1484.048218	14.301979
888.523071	1427.578125	1746.336914	1477.806763	15.757569
888.816284	1430.550171	1736.083008	1473.794434	14.153720
889.109619	1426.983765	1722.114258	1468.741821	14.149014
889.402710	1437.980469	1712.454712	1466.735718	10.476483
889.695862	1442.067017	1694.622070	1458.710938	6.590215
889.988892	1442.661621	1686.820313	1456.036133	5.477795
890.281921	1434.859863	1686.077393	1458.042236	9.228007
>>>>>End Processed Spectral Data<<<<<
