Jaz Data File
++++++++++++++++++++++++++++++++++++
Date: Fri Jun 04 12:02:15 2021
User: jaz
Dark Spectrum Present: Yes
Reference Spectrum Present: Yes
Processed Spectrum Present: Yes
Spectrometers: JAZA3586
Integration Time (usec): 23600 (JAZA3586)
Spectra Averaged: 10 (JAZA3586)
Boxcar Smoothing: 1 (JAZA3586)
Correct for Electrical Dark: No (JAZA3586)
Strobe/Lamp Enabled: Yes (JAZA3586)
Correct for Detector Non-linearity: No (JAZA3586)
Correct for Stray Light: No (JAZA3586)
Number of Pixels in Processed Spectrum: 2048
>>>>>Begin Processed Spectral Data<<<<<
W	D	R	S	P
191.335022	0.000000	0.000000	0.000000	0.000000
191.713211	332.876190	332.950470	338.077362	7002.136230
192.091385	669.244568	678.309509	677.343567	89.344193
192.469528	1008.436523	1024.337280	1016.461182	50.467148
192.847641	1020.176270	1034.219604	1025.377563	37.037457
193.225739	1031.247437	1039.792236	1031.173218	-0.868584
193.603790	1047.445435	1044.027466	1046.702393	21.739286
193.981842	1053.241089	1053.909668	1054.578491	200.036514
194.359863	1060.151245	1059.556763	1069.662109	-1599.856323
194.737854	1054.578613	1067.209961	1067.284302	100.588539
195.115829	1059.259644	1068.398804	1062.900391	39.836781
195.493774	1058.368042	1066.244019	1052.349365	-76.418167
195.871704	1065.798218	1066.169800	1053.761230	-3239.388916
196.249603	1068.398804	1072.708374	1056.064575	-286.205536
196.627457	1071.816772	1069.959106	1058.665161	707.964233
197.005310	1070.330688	1067.209961	1060.671265	309.524750
197.383133	1065.798340	1068.770264	1061.637329	-140.010681
197.760910	1060.671509	1070.182007	1057.699219	-31.252728
198.138687	1054.355713	1072.931274	1057.550781	17.200386
198.516449	1057.996460	1068.993164	1055.172974	-25.675751
198.894180	1062.008789	1072.782715	1058.442383	-33.102200
199.271866	1062.751831	1063.940674	1051.532104	-943.751953
199.649536	1057.699219	1058.516602	1051.457642	-763.605164
200.027191	1056.956177	1058.070801	1048.485718	-759.938660
200.404816	1063.494995	1068.324585	1050.120239	-276.933563
200.782410	1061.785889	1072.782715	1053.092407	-79.054459
201.159988	1061.265869	1075.829102	1051.977905	-63.776802
201.537537	1051.086304	1080.807251	1049.748779	-4.500275
201.915070	1049.971802	1089.203613	1045.810791	-10.606216
202.292557	1044.324829	1097.153931	1044.250366	-0.140951
202.670029	1048.411377	1091.729858	1047.891235	-1.200738
203.047485	1048.337036	1088.237549	1038.306274	-25.139431
203.424911	1046.256714	1081.847656	1040.163818	-17.119230
203.802292	1046.330933	1088.088989	1035.482788	-25.978567
204.179688	1045.216431	1085.191162	1039.643677	-13.940691
204.557037	1043.656128	1093.364502	1038.380493	-10.613171
204.934357	1039.643677	1090.689575	1039.420776	-0.436667
205.311661	1042.318604	1090.912598	1039.569336	-5.657629
205.688934	1040.312500	1084.893921	1039.940796	-0.833765
206.066177	1036.745850	1083.259277	1041.649780	10.543043
206.443390	1029.167114	1081.550293	1045.513550	31.205505
206.820587	1028.498291	1078.132446	1052.869507	49.101704
207.197769	1038.083374	1074.120117	1052.646606	40.412178
207.574921	1039.495117	1074.120117	1049.154419	27.896900
207.952042	1038.603394	1069.587646	1041.649780	9.832048
208.329147	1033.922363	1065.723877	1037.563232	11.448730
208.706223	1047.073975	1073.897095	1044.399048	-9.972466
209.083267	1058.516479	1079.321289	1047.445435	-53.213871
209.460297	1060.745605	1083.705200	1050.566162	-44.336338
209.837280	1047.519653	1081.030273	1040.089478	-22.172600
210.214264	1037.191772	1080.956055	1038.454712	2.885777
210.591217	1033.699463	1083.928101	1030.355835	-6.656816
210.968124	1034.962524	1086.008667	1032.882202	-4.075376
211.345016	1036.820190	1089.797974	1031.024536	-10.939782
211.721893	1035.259766	1086.231567	1038.157593	5.685157
212.098724	1032.584839	1081.699097	1041.426880	18.003002
212.475555	1038.380493	1079.990112	1044.101807	13.749978
212.852356	1040.758179	1084.151001	1043.358765	5.993124
213.229126	1043.730225	1084.299683	1039.049194	-11.538311
213.605865	1037.117310	1084.225464	1030.355835	-14.353087
213.982590	1034.814087	1081.773315	1028.052368	-14.399127
214.359283	1029.092773	1084.671143	1028.795410	-0.535034
214.735931	1026.937866	1086.825928	1030.058594	5.210934
215.112579	1023.668640	1087.048828	1025.897705	3.516974
215.489197	1034.219604	1082.144897	1029.761353	-9.302504
215.865799	1041.947144	1073.302856	1034.293823	-24.408056
216.242355	1040.535278	1072.485474	1034.368164	-19.302275
216.618896	1030.950195	1077.612305	1024.560181	-13.694226
216.995407	1027.532227	1086.157227	1018.393066	-15.589186
217.371902	1035.334106	1093.959106	1023.297058	-20.532278
217.748367	1042.169922	1095.593628	1027.755249	-26.981791
218.124802	1033.996704	1095.667969	1027.383789	-10.722846
218.501236	1036.151489	1094.627808	1025.451782	-18.297504
218.877609	1033.030762	1093.290283	1032.436401	-0.986334
219.253983	1046.628296	1088.906372	1029.835693	-39.719410
219.630295	1043.433105	1087.494751	1028.721191	-33.389389
220.006592	1043.730347	1089.723755	1021.365173	-48.626911
220.382889	1037.934692	1097.897095	1029.761353	-13.630774
220.759140	1038.900635	1103.023926	1029.984253	-13.905060
221.135391	1035.482788	1107.704956	1033.476563	-2.777853
221.511581	1040.089478	1107.036255	1031.024658	-13.540338
221.887772	1039.346436	1109.191040	1024.931763	-20.638205
222.263931	1051.680786	1100.348999	1025.303223	-54.198750
222.640060	1055.395874	1098.862915	1027.755249	-63.589848
223.016159	1053.018188	1099.754517	1035.779907	-36.884117
223.392212	1047.742676	1101.092163	1037.860352	-18.523746
223.768265	1044.399048	1101.537842	1038.603516	-10.142902
224.144302	1051.309204	1101.612061	1041.649902	-19.202293
224.520294	1045.810791	1106.887573	1038.083374	-12.651972
224.896286	1043.655884	1108.893921	1041.872681	-2.733380
225.272217	1040.535278	1103.321167	1046.628052	9.704049
225.648148	1041.278320	1103.469727	1048.188477	11.111111
226.024048	1036.671509	1106.218872	1047.519653	15.598211
226.399902	1034.665405	1110.974243	1039.197876	5.939641
226.775772	1038.231934	1114.243530	1047.296875	11.925735
227.151581	1044.844849	1113.129028	1042.392944	-3.590735
227.527374	1038.306274	1121.450928	1048.634399	12.421875
227.903137	1040.089478	1130.664429	1035.854248	-4.675939
228.278870	1036.894531	1151.915161	1035.334106	-1.356648
228.654572	1044.250366	1160.682861	1030.652954	-11.678366
229.030273	1037.934692	1170.713745	1037.414551	-0.391735
229.405930	1039.643677	1175.543335	1037.860352	-1.312237
229.781555	1034.293823	1182.304932	1038.083252	2.560233
230.157181	1031.618896	1178.664063	1033.625122	1.364360
230.532761	1029.464233	1168.113159	1035.334106	4.233623
230.908325	1035.185425	1159.865356	1037.711792	2.026282
231.283859	1036.597168	1160.162720	1036.968872	0.300815
231.659332	1038.603394	1159.865479	1038.380493	-0.183817
232.034821	1030.504395	1153.475464	1038.157593	6.223576
232.410263	1031.916138	1146.936890	1043.878906	10.400531
232.785690	1026.863647	1142.850098	1037.711792	9.352942
233.161087	1033.179321	1145.450684	1034.591064	1.257438
233.536469	1028.126709	1156.744751	1031.098877	2.310848
233.911804	1029.464233	1166.403931	1036.374390	5.046131
234.287140	1028.275391	1162.688965	1036.225708	5.914817
234.662430	1041.501343	1156.373169	1035.779907	-4.980712
235.037704	1047.296997	1154.887085	1033.550781	-12.776470
235.412933	1051.160645	1174.354370	1033.179199	-14.596072
235.788162	1045.885132	1184.682495	1036.225708	-6.959371
236.163345	1046.330933	1188.769165	1034.516724	-8.294269
236.538513	1045.885132	1182.082031	1035.408325	-7.692397
236.913635	1047.965698	1184.236694	1029.910034	-13.249822
237.288742	1043.284546	1191.890015	1038.603516	-3.149972
237.663834	1052.498047	1201.326416	1040.609619	-7.988012
238.038879	1060.076904	1202.218140	1042.467285	-12.388818
238.413910	1062.083130	1205.115845	1035.482788	-18.597383
238.788910	1046.999634	1204.075562	1035.705688	-7.190118
239.163879	1038.603516	1205.115845	1043.433228	2.900513
239.538834	1041.649780	1206.304565	1046.033691	2.662486
239.913757	1041.649780	1222.056763	1048.337036	3.706761
240.288651	1043.433105	1243.901733	1045.290649	0.926601
240.663528	1033.328003	1266.044067	1045.364990	5.172392
241.038361	1046.108032	1284.025269	1045.885254	-0.093637
241.413177	1041.129761	1313.820679	1051.383545	3.760222
241.787979	1049.377319	1341.981445	1056.064575	2.285428
242.162735	1029.984375	1374.674683	1051.383423	6.208195
242.537476	1035.854248	1396.742554	1047.148315	3.129519
242.912170	1031.693237	1413.683594	1050.937622	5.037924
243.286865	1038.603394	1415.838379	1052.200806	3.604494
243.661514	1038.083374	1396.816895	1052.498047	4.018212
244.036148	1036.448730	1379.950195	1045.142090	2.530807
244.410751	1043.581787	1369.027710	1048.559937	1.529639
244.785339	1043.135864	1368.136108	1045.959473	0.868802
245.159882	1045.959351	1387.231812	1048.560059	0.762062
245.534378	1038.677612	1406.624878	1046.702515	2.180993
245.908890	1037.414551	1460.345703	1042.913086	1.300102
246.283356	1037.488892	1513.174927	1040.609741	0.656073
246.657791	1040.609619	1593.050415	1043.581787	0.538007
247.032196	1042.318604	1644.616577	1047.965698	0.937591
247.406586	1040.089478	1684.591187	1050.269043	1.579447
247.780960	1042.392944	1695.588257	1051.309204	1.365022
248.155289	1040.906860	1689.718262	1050.268921	1.442956
248.529602	1040.163696	1656.876465	1054.355591	2.301216
248.903870	1043.358887	1600.926392	1057.030396	2.451992
249.278122	1033.996704	1551.515015	1058.665161	4.766683
249.652344	1038.380493	1511.094360	1048.634399	2.169157
250.026550	1032.956421	1490.438354	1038.900757	1.299360
250.400711	1045.364990	1467.255859	1047.742676	0.563578
250.774857	1043.953247	1468.890625	1049.302979	1.258946
251.148987	1049.005737	1479.515747	1046.628052	-0.552295
251.523071	1041.947144	1506.859375	1036.448608	-1.182704
251.897125	1043.953247	1519.639282	1044.919189	0.203063
252.271164	1042.169922	1524.097290	1050.863403	1.803899
252.645187	1041.426880	1522.388306	1051.086304	2.008357
253.019165	1042.615723	1513.694946	1045.885132	0.694025
253.393112	1039.123657	1494.599243	1046.925415	1.712882
253.767044	1035.557129	1473.497192	1049.674683	3.223627
254.140930	1035.036743	1459.454102	1055.618774	4.849479
254.514801	1036.522949	1451.875122	1058.070801	5.187851
254.888657	1039.717896	1445.559570	1061.785889	5.437587
255.262466	1030.578735	1443.627563	1063.123413	7.879136
255.636276	1034.962524	1466.512695	1061.562988	6.163933
256.010010	1036.077148	1491.404175	1059.408203	5.124022
256.383759	1036.968750	1527.961060	1054.950073	3.662241
256.757446	1029.910034	1558.053711	1055.247192	4.797399
257.131134	1030.801758	1603.229858	1053.686890	3.997905
257.504791	1025.154663	1639.712402	1052.275024	4.412988
257.878418	1029.166992	1687.191895	1061.488647	4.911920
258.252014	1030.652954	1750.720703	1064.312134	4.674446
258.625580	1047.519775	1845.530884	1064.980835	2.188072
258.999115	1048.114136	1967.387329	1066.615601	2.012619
259.372650	1044.844849	2079.658936	1066.244019	2.067924
259.746124	1035.705688	2176.846924	1069.513306	2.962615
260.119598	1032.510620	2233.762695	1070.553589	3.166943
260.493042	1033.476440	2257.316650	1078.206909	3.654927
260.866425	1038.826294	2221.056885	1082.664917	3.708128
261.239838	1034.368164	2145.639648	1086.008545	4.646964
261.613159	1040.981079	2043.324829	1083.630981	4.255018
261.986511	1035.036987	1961.814819	1079.618530	4.810381
262.359802	1045.885132	1899.400391	1066.169800	2.376603
262.733063	1038.752075	1864.849609	1060.299805	2.608376
263.106293	1046.182251	1841.592896	1062.157349	2.008409
263.479523	1036.300049	1828.144165	1065.872559	3.734638
263.852692	1039.197876	1818.782227	1065.723999	3.402598
264.225861	1030.430054	1814.546875	1059.556763	3.714588
264.598969	1028.572510	1811.277344	1056.584595	3.578882
264.972076	1025.600464	1831.487915	1051.978027	3.273108
265.345154	1032.436279	1867.673340	1060.745728	3.389391
265.718201	1041.203979	1914.112305	1060.819946	2.247197
266.091217	1048.560059	1966.272827	1067.730103	2.088894
266.464203	1045.736450	2006.321899	1062.380249	1.732672
266.837158	1038.900635	2048.600342	1065.575317	2.641843
267.210114	1037.637451	2066.804443	1059.333862	2.108153
267.583038	1042.467163	2088.649414	1066.169800	2.265632
267.955902	1049.748901	2101.132568	1064.089233	1.363949
268.328766	1043.953247	2119.633545	1069.959106	2.417620
268.701569	1040.238159	2127.435547	1065.129517	2.289498
269.074371	1041.872803	2149.652100	1062.454712	1.857943
269.447144	1048.039917	2176.921143	1066.987183	1.678411
269.819885	1052.943848	2236.809326	1077.835327	2.102560
270.192596	1049.600220	2309.477295	1083.630981	2.701118
270.565277	1044.993530	2418.330811	1094.256226	3.587079
270.937927	1044.176147	2520.273926	1091.952759	3.236683
271.310577	1037.860352	2609.363037	1094.702026	3.617027
271.683136	1040.386597	2676.086670	1090.615356	3.070781
272.055725	1038.454956	2691.987305	1087.271729	2.952272
272.428284	1044.250488	2677.870117	1098.417114	3.315743
272.800812	1050.491821	2610.105957	1095.296387	2.872798
273.173279	1051.086304	2557.648438	1099.160156	3.190964
273.545776	1051.606445	2520.645752	1093.364624	2.842550
273.918152	1041.352661	2505.116455	1094.776245	3.649741
274.290558	1039.792358	2496.125488	1091.284058	3.535709
274.662964	1034.888306	2479.258545	1090.466675	3.847931
275.035278	1037.340210	2478.961426	1089.500854	3.618193
275.407593	1041.055298	2495.976807	1082.516357	2.849711
275.779907	1046.256470	2541.078857	1085.934326	2.654353
276.152161	1052.275146	2595.468506	1089.723755	2.426696
276.524384	1049.228882	2642.799072	1097.079712	3.002744
276.896606	1049.005737	2662.861084	1086.603027	2.329657
277.268799	1040.609497	2668.062012	1085.711304	2.771313
277.640930	1039.643677	2674.006104	1091.804199	3.191491
278.013031	1041.055420	2686.712158	1101.983765	3.702373
278.385162	1041.501343	2685.746094	1100.051880	3.560938
278.757233	1039.940918	2688.346680	1103.915527	3.880999
279.129272	1030.653076	2707.962646	1095.890869	3.889431
279.501282	1029.166992	2754.401611	1093.438843	3.725398
279.873230	1024.857422	2820.977295	1081.253052	3.139859
280.245178	1031.544678	2899.589600	1082.664917	2.736564
280.617126	1031.098755	3000.195313	1082.664917	2.618773
280.988983	1034.665405	3104.590820	1093.215942	2.828630
281.360870	1033.848022	3212.032227	1095.742188	2.841549
281.732697	1033.848022	3280.316406	1100.348877	2.960240
282.104492	1035.779907	3309.517334	1098.045532	2.738471
282.476288	1035.259888	3317.616211	1108.002075	3.187153
282.848053	1037.043091	3302.235596	1111.048706	3.267079
283.219757	1032.361938	3302.532959	1110.528442	3.443199
283.591461	1034.591064	3273.034912	1109.413940	3.342629
283.963135	1040.535278	3293.171143	1109.413940	3.057692
284.334747	1051.234863	3342.582275	1111.197266	2.616906
284.706360	1043.358887	3414.135986	1102.429565	2.491617
285.077942	1035.185425	3507.237061	1104.138550	2.789308
285.449524	1030.504395	3572.846436	1098.268433	2.665418
285.821014	1039.494995	3608.883545	1107.704956	2.654716
286.192535	1044.473267	3647.223389	1109.636841	2.503643
286.563995	1038.826416	3638.307373	1108.670898	2.686863
286.935425	1037.711792	3633.254639	1102.800903	2.507726
287.306824	1032.510620	3557.019775	1101.240601	2.722508
287.678223	1039.420776	3493.416748	1114.912231	3.076266
288.049561	1039.940918	3447.125977	1123.011353	3.450937
288.420898	1044.844849	3433.825439	1118.998901	3.104004
288.792145	1040.981079	3459.682861	1116.918457	3.139593
289.163452	1035.259766	3535.843750	1114.020630	3.149699
289.534668	1031.990601	3649.823975	1119.444824	3.340710
289.905914	1027.309448	3771.383545	1114.095093	3.162657
290.277039	1035.779907	3861.215088	1117.735840	2.900648
290.648193	1039.123535	3889.301758	1122.268311	2.917178
291.019318	1049.823120	3887.518311	1135.345459	3.013796
291.390381	1045.810791	3833.871826	1128.435303	2.963511
291.761475	1048.931519	3776.138672	1125.314575	2.800780
292.132507	1043.507446	3726.653076	1116.621216	2.724927
292.503510	1043.953125	3729.625000	1117.735840	2.747272
292.874481	1042.318481	3774.726807	1113.723511	2.613264
293.245422	1043.284546	3854.379150	1112.906128	2.476671
293.616364	1032.362183	3959.146240	1119.370483	2.972829
293.987213	1029.687134	4076.841553	1128.732544	3.250423
294.358093	1030.801636	4187.701172	1138.020508	3.396335
294.728943	1046.108032	4299.229004	1140.175293	2.891600
295.099731	1049.154419	4392.256348	1140.621094	2.735982
295.470490	1050.269043	4482.460449	1143.221680	2.708259
295.841248	1039.346313	4557.431641	1146.045288	3.032871
296.211975	1040.906860	4656.551758	1144.038940	2.852384
296.582642	1034.962769	4767.262695	1138.540527	2.775172
296.953308	1040.832520	4819.571777	1142.032837	2.678150
297.323883	1036.077271	4811.621582	1145.227905	2.890990
297.694519	1039.718018	4707.003418	1144.336304	2.852745
298.065063	1040.535278	4593.543457	1146.268188	2.975870
298.435608	1037.563232	4461.878906	1145.302246	3.146293
298.806122	1036.745972	4307.403320	1148.868652	3.428139
299.176575	1038.380493	4158.352051	1135.940063	3.126938
299.547028	1043.061523	4058.489014	1127.915283	2.813988
299.917450	1043.135864	4026.687500	1125.166138	2.749417
300.287872	1038.529175	4027.356201	1120.410645	2.739585
300.658234	1032.807739	4006.179932	1122.193970	3.006224
301.028564	1031.916138	3978.985107	1123.531372	3.108690
301.398865	1032.733521	3939.381592	1129.401367	3.325750
301.769135	1035.928589	3901.487061	1133.487915	3.404548
302.139374	1032.213379	3858.911865	1123.159790	3.217407
302.509583	1028.126831	3827.035889	1121.599609	3.339615
302.879791	1024.708862	3779.333740	1114.095093	3.244951
303.249939	1030.578735	3754.145264	1115.283813	3.110080
303.620087	1030.504395	3714.541748	1116.695557	3.211251
303.990173	1036.745850	3713.650146	1126.280640	3.344714
304.360260	1036.448608	3702.207275	1124.645996	3.308528
304.730286	1043.581665	3699.160889	1116.546997	2.747624
305.100281	1044.622070	3683.780273	1113.946289	2.626755
305.470276	1050.789185	3688.832764	1125.686157	2.839111
305.840179	1045.736572	3707.780273	1137.054565	3.430372
306.210144	1037.860474	3729.847900	1128.658325	3.372893
306.579987	1026.789429	3758.677490	1128.212524	3.712564
306.949890	1034.516724	3786.243408	1125.091797	3.291572
307.319702	1038.603394	3849.772461	1132.893555	3.354126
307.689484	1046.628052	3937.152588	1126.875122	2.776212
308.059265	1039.792358	4054.105469	1125.314697	2.837208
308.429016	1047.074097	4150.252930	1132.670654	2.758351
308.798737	1047.891235	4218.908691	1140.621094	2.924294
309.168396	1053.984009	4255.019531	1143.667480	2.801702
309.538055	1050.789063	4263.415527	1138.689209	2.736084
309.907684	1041.203979	4255.019531	1138.763428	3.035627
310.277313	1037.117432	4277.161621	1141.809937	3.231206
310.646851	1033.402344	4276.566895	1136.311523	3.173110
311.016388	1038.826416	4261.706543	1131.853394	2.886455
311.385895	1033.996704	4211.329590	1134.379639	3.159346
311.755371	1040.386719	4171.577637	1129.995728	2.861819
312.124817	1037.191772	4123.280762	1133.487915	3.120330
312.494232	1040.906860	4063.318359	1125.834839	2.809941
312.863617	1035.928589	4037.015625	1125.909058	2.998263
313.232971	1039.866577	4060.346436	1121.376587	2.698578
313.602295	1039.272217	4130.190918	1118.033081	2.548138
313.971619	1034.293945	4208.654785	1123.605835	2.813539
314.340820	1031.693359	4238.152344	1123.457153	2.861842
314.710083	1023.519958	4234.660156	1128.435425	3.267234
315.079285	1030.578735	4169.720215	1125.983521	3.039200
315.448486	1035.111206	4113.175781	1122.342651	2.833971
315.817596	1048.114258	4015.913330	1112.237427	2.160630
316.186707	1042.541626	3934.700439	1113.649170	2.458632
316.555786	1044.473511	3848.583740	1114.838013	2.509334
316.924866	1041.278320	3794.491455	1127.618164	3.135967
317.293884	1050.714844	3779.556396	1123.085693	2.652072
317.662872	1048.782837	3791.370361	1123.011353	2.706514
318.031830	1048.485596	3829.933594	1116.101074	2.430945
318.400757	1042.690063	3850.812744	1124.274536	2.905303
318.769684	1039.792114	3885.438232	1127.320923	3.075885
319.138550	1042.615723	3881.574219	1131.704712	3.138087
319.507416	1055.172852	3854.528076	1130.887451	2.704716
319.876190	1060.002563	3818.342529	1129.549927	2.521349
320.244995	1058.442261	3764.027344	1126.577759	2.518328
320.613770	1046.851074	3738.615967	1126.280640	2.950836
320.982483	1047.222534	3720.485596	1124.274536	2.882320
321.351166	1043.656128	3756.374023	1129.104126	3.149904
321.719818	1043.656006	3813.289795	1132.299194	3.200538
322.088440	1037.340210	3912.855469	1135.865601	3.426356
322.457062	1043.358765	4059.603516	1133.116455	2.975809
322.825623	1044.101807	4206.054199	1133.116577	2.815184
323.194183	1046.776733	4325.904785	1138.614868	2.800688
323.562653	1042.392944	4377.395996	1142.627197	3.005522
323.931183	1040.535278	4400.949707	1148.274292	3.206123
324.299591	1033.848145	4369.148926	1145.450806	3.346105
324.668060	1038.454956	4327.984863	1144.782104	3.232290
325.036407	1038.974976	4261.112793	1141.884277	3.193821
325.404755	1046.925415	4197.212402	1135.717163	2.818529
325.773102	1039.197876	4136.507324	1132.373413	3.008273
326.141388	1039.792358	4058.042969	1132.001953	3.055068
326.509674	1033.030762	3998.155029	1129.252808	3.245127
326.877899	1034.516724	3927.121826	1129.178345	3.272539
327.246124	1035.334106	3899.183838	1126.949341	3.199024
327.614288	1035.705566	3859.580811	1133.265137	3.454812
327.982422	1033.922363	3845.166016	1135.345581	3.607770
328.350525	1029.835693	3859.580811	1138.391968	3.836256
328.718628	1028.646851	3886.180908	1140.546753	3.915960
329.086700	1031.470337	3941.982422	1149.760376	4.064234
329.454712	1030.504395	3972.074951	1152.732422	4.155196
329.822693	1035.928589	4011.009521	1152.658081	3.923573
330.190674	1038.900635	4054.030518	1147.382690	3.597923
330.558563	1039.346313	4091.181641	1149.388794	3.605780
330.926483	1042.095703	4153.447754	1153.475464	3.579787
331.294312	1038.454834	4217.793457	1159.270996	3.800041
331.662231	1045.810913	4315.798828	1160.385620	3.503827
332.029999	1037.563354	4419.080078	1163.803467	3.733239
332.397766	1039.866577	4477.259277	1169.747803	3.778481
332.765503	1038.008911	4521.023438	1173.983032	3.903920
333.133240	1050.046021	4516.490723	1185.648560	3.911862
333.500916	1056.807617	4523.697754	1182.825073	3.634885
333.868561	1059.185425	4501.927246	1183.493652	3.610734
334.236176	1052.498047	4483.129395	1177.921021	3.655973
334.603790	1046.108032	4454.968262	1180.744507	3.949604
334.971344	1037.637451	4432.603027	1192.855957	4.572020
335.338867	1035.036987	4421.086426	1195.085083	4.726691
335.706360	1028.349731	4408.529297	1193.896118	4.897562
336.073853	1035.705688	4428.070801	1188.769165	4.511999
336.441284	1033.476563	4444.714355	1199.691772	4.872578
336.808655	1032.139160	4477.927734	1206.230347	5.052289
337.176086	1029.984375	4515.673340	1209.722656	5.156464
337.543396	1027.383667	4534.843750	1208.979614	5.177421
337.910706	1040.386597	4550.596191	1211.208618	4.866434
338.277954	1044.324829	4539.970215	1206.973267	4.652887
338.645264	1047.519775	4523.326660	1213.140503	4.764958
339.012421	1042.690063	4476.812988	1216.781250	5.069451
339.379669	1041.352539	4394.783203	1219.307617	5.306657
339.746796	1043.953247	4311.415527	1203.258179	4.875494
340.113953	1037.043091	4252.196289	1203.704102	5.183610
340.481018	1033.848022	4224.778320	1200.657715	5.227620
340.848114	1035.854248	4239.119141	1208.756714	5.397695
341.215118	1040.981079	4283.700684	1205.041504	5.059346
341.582153	1044.101807	4399.093262	1221.016602	5.273182
341.949066	1042.095703	4558.769043	1230.007202	5.343445
342.316010	1041.724121	4764.958984	1249.920288	5.591809
342.682922	1035.185547	4975.161133	1260.099731	5.708517
343.049835	1030.207153	5239.382324	1280.087280	5.936558
343.416656	1030.132935	5514.970215	1301.114868	6.042180
343.783478	1031.916260	5748.875488	1316.272705	6.028385
344.150269	1034.070923	5870.955078	1327.195313	6.060190
344.516998	1036.299927	5871.921387	1321.994141	5.908118
344.883728	1032.436157	5791.525391	1321.845337	6.081188
345.250427	1040.163696	5676.431152	1314.563843	5.918557
345.617065	1037.340210	5548.332520	1314.860962	6.152100
345.983704	1034.516724	5445.200684	1308.619507	6.214519
346.350281	1026.343628	5330.774414	1307.802124	6.538809
346.716827	1027.978149	5216.497070	1298.588623	6.460767
347.083405	1032.361938	5098.949707	1292.347168	6.393203
347.449860	1037.711792	5033.786621	1287.963257	6.262432
347.816376	1040.163696	5014.021484	1290.786865	6.306798
348.182770	1041.724121	5046.046387	1301.263550	6.481482
348.549194	1040.238159	5086.764160	1303.864136	6.514872
348.915558	1028.943970	5149.996094	1311.071533	6.846008
349.281921	1028.646851	5210.032715	1309.288330	6.711686
349.648193	1029.464233	5262.712891	1311.888794	6.671580
350.014526	1042.838745	5294.588867	1312.334595	6.338469
350.380737	1044.101929	5319.777832	1320.582153	6.466352
350.746948	1041.278320	5361.238770	1324.668823	6.560025
351.113159	1035.408325	5432.940918	1335.739990	6.829549
351.479309	1036.151367	5490.599609	1341.312744	6.850711
351.845428	1037.860352	5589.421875	1350.377686	6.866157
352.211517	1043.284546	5660.678223	1357.139160	6.797225
352.577576	1037.563110	5800.739746	1370.067871	6.980735
352.943604	1042.318481	5911.673340	1391.392578	7.168796
353.309601	1036.002808	6061.393066	1406.996216	7.382380
353.675537	1043.804565	6195.212402	1414.649414	7.198903
354.041473	1034.516724	6322.715332	1424.308960	7.370983
354.407379	1031.247437	6450.292969	1431.219116	7.380851
354.773254	1027.903809	6572.520996	1448.011353	7.576854
355.139038	1029.166992	6717.857422	1450.463501	7.405861
355.504913	1039.866577	6918.400391	1466.290039	7.253909
355.870636	1038.603394	7145.470215	1481.744751	7.256444
356.236389	1042.912964	7414.519531	1509.162598	7.317615
356.602081	1035.482544	7658.604004	1530.115845	7.468280
356.967804	1035.334106	7848.744629	1550.103394	7.555236
357.333405	1035.036987	7952.025879	1557.756470	7.557038
357.699036	1041.649780	7952.917480	1564.963867	7.571898
358.064606	1038.008911	7895.035156	1556.716309	7.564611
358.430176	1028.052368	7830.837402	1555.601929	7.754906
358.795654	1025.005981	7852.683105	1563.700806	7.889870
359.161163	1035.928589	8027.294434	1589.335327	7.915574
359.526581	1043.358765	8363.291016	1616.827148	7.834340
359.892029	1044.473389	8861.342773	1650.412109	7.751680
360.257416	1042.912964	9358.724609	1687.637695	7.752998
360.622772	1039.792236	9785.296875	1732.442261	7.920069
360.988098	1038.306274	10053.455078	1761.494629	8.021924
361.353394	1031.619019	10151.311523	1768.553345	8.080693
361.718658	1038.009155	10008.576172	1762.534790	8.076698
362.083893	1035.259888	9605.038086	1738.015015	8.200389
362.449097	1036.597168	9077.266602	1699.897583	8.249318
362.814209	1037.711670	8498.225586	1661.260254	8.357985
363.179382	1034.962524	7971.121094	1625.817871	8.518481
363.544434	1029.464111	7564.610840	1605.756226	8.818351
363.909546	1026.566284	7309.232422	1574.474731	8.720955
364.274536	1033.476440	7183.066895	1563.849487	8.624526
364.639587	1039.643677	7059.501465	1558.871094	8.625244
365.004517	1039.643677	6999.093750	1560.059937	8.732622
365.369507	1034.665405	6943.886719	1559.465454	8.881036
365.734344	1038.008911	6946.561035	1563.626343	8.895875
366.099274	1039.272217	6936.158691	1575.514771	9.093656
366.464081	1038.752075	6905.248535	1575.812012	9.154696
366.828918	1035.779907	6833.546875	1572.319946	9.254253
367.193665	1034.219604	6740.817871	1570.239380	9.392982
367.558411	1037.934692	6690.291504	1567.192993	9.363498
367.923126	1031.247437	6649.721191	1558.945313	9.392193
368.287781	1030.355835	6606.552246	1549.954712	9.318160
368.652435	1029.389771	6560.187012	1546.016602	9.340911
369.017059	1036.968628	6569.549316	1553.149780	9.329844
369.381653	1041.278320	6599.122559	1563.106323	9.389036
369.746185	1038.677734	6653.140625	1579.155762	9.626532
370.110687	1038.603516	6725.361816	1586.288696	9.630885
370.475220	1042.690063	6814.303223	1597.137085	9.606448
370.839661	1047.296875	6864.531250	1605.087402	9.588586
371.204041	1044.770630	6892.246094	1618.164673	9.805839
371.568451	1038.974976	6887.192871	1617.793335	9.897346
371.932770	1036.820190	6884.740723	1616.381348	9.910551
372.297150	1036.894531	6851.899902	1613.632202	9.918094
372.661377	1037.637573	6856.580566	1617.198608	9.959903
373.025696	1042.170044	6889.274902	1622.994141	9.933533
373.389862	1045.290649	6954.512207	1628.864258	9.875643
373.754059	1041.278320	7044.864746	1641.569946	9.998883
374.118225	1035.705566	7167.910156	1655.910522	10.113898
374.482361	1038.306152	7307.300781	1670.176636	10.079295
374.846436	1034.293823	7468.389160	1685.705688	10.124374
375.210510	1029.687012	7707.792480	1697.742798	10.003673
375.574524	1021.216553	8023.430176	1724.268921	10.040430
375.938538	1025.303223	8340.554688	1753.395508	9.953073
376.302460	1029.910034	8571.709961	1783.859741	9.996946
376.666412	1042.838745	8714.891602	1803.252563	9.911478
377.030304	1042.615845	8734.730469	1805.630493	9.919439
377.394196	1047.371094	8628.105469	1802.955566	9.967167
377.757996	1034.665405	8408.244141	1789.432251	10.236099
378.121796	1043.210205	8146.550781	1777.320923	10.334724
378.485565	1039.197876	7887.679688	1753.692871	10.432896
378.849304	1045.216431	7684.238281	1733.110962	10.361383
379.212982	1034.219604	7537.862793	1714.460938	10.459389
379.576630	1039.866577	7466.383301	1711.860352	10.456579
379.940277	1038.974976	7448.402344	1715.278320	10.551697
380.303864	1037.860352	7454.271973	1710.225708	10.478838
380.667450	1029.984253	7478.123535	1706.510620	10.491808
381.030945	1034.442383	7480.054688	1711.191772	10.499381
381.394501	1042.764526	7527.236816	1719.885132	10.442185
381.757935	1051.160645	7580.289063	1732.888062	10.441323
382.121399	1046.033691	7652.957520	1743.513306	10.556798
382.484741	1048.114136	7784.250000	1766.324341	10.662050
382.848145	1045.587891	7929.957520	1787.129028	10.771373
383.211487	1046.405273	8068.681152	1805.407593	10.808495
383.574768	1039.569336	8134.364746	1821.605469	11.022674
383.938019	1043.061646	8164.605469	1826.880859	11.006310
384.301270	1051.680664	8175.082520	1821.679688	10.809428
384.664459	1058.070679	8204.060547	1819.079102	10.649447
385.027649	1049.823120	8215.354492	1821.456909	10.768689
385.390778	1037.340210	8317.891602	1837.803589	10.994543
385.753876	1031.544800	8376.740234	1854.744629	11.207324
386.116943	1035.928467	8468.726563	1868.193359	11.197195
386.479980	1040.015137	8503.500977	1879.487305	11.247723
386.842987	1040.683960	8549.866211	1878.818359	11.161461
387.205994	1038.900757	8574.534180	1886.174438	11.243563
387.568909	1037.563354	8558.261719	1882.607910	11.236251
387.931793	1039.346558	8501.494141	1879.115723	11.253719
388.294678	1040.832520	8450.225586	1873.171509	11.233565
388.657471	1046.033569	8456.763672	1879.338745	11.244576
389.020294	1050.788940	8512.788086	1886.843262	11.204160
389.383057	1048.931396	8696.463867	1906.979126	11.219930
389.745819	1044.399048	8866.766602	1921.096680	11.207574
390.108521	1045.067749	9122.219727	1952.378296	11.233050
390.471191	1045.439331	9359.690430	1987.746460	11.333638
390.833801	1043.953247	9584.159180	2021.034058	11.440951
391.196442	1043.061646	9737.519531	2040.872925	11.476406
391.558960	1046.405273	9751.786133	2045.776733	11.479928
391.921509	1052.200806	9703.711914	2036.266113	11.374491
392.284027	1042.615845	9644.270508	2029.950317	11.478425
392.646484	1039.346436	9623.317383	2022.000000	11.447541
393.008911	1034.219482	9638.623047	2027.869751	11.548160
393.371307	1033.476440	9630.375000	2030.916382	11.602324
393.733673	1032.584839	9590.772461	2033.071167	11.690400
394.096008	1034.293823	9503.467773	2026.978149	11.721148
394.458344	1037.563110	9393.796875	2014.346680	11.689281
394.820587	1036.671631	9189.612305	1996.365356	11.771136
395.182831	1032.659302	8961.131836	1964.118164	11.748276
395.545013	1033.922363	8728.265625	1938.632324	11.758118
395.907196	1034.293945	8580.625977	1912.700684	11.640182
396.269287	1038.900635	8509.444336	1901.257935	11.543434
396.631409	1039.717896	8461.000000	1893.679199	11.506924
396.993469	1039.792236	8423.921875	1891.821655	11.538657
397.355530	1034.739624	8430.386719	1902.000977	11.726646
397.717499	1037.711792	8494.287109	1911.660522	11.720511
398.079468	1036.077148	8550.682617	1909.208374	11.619123
398.441376	1034.739746	8550.163086	1904.973145	11.579300
398.803284	1035.408325	8493.246094	1892.341675	11.490373
399.165131	1036.671509	8471.030273	1897.765747	11.582629
399.526978	1043.804688	8443.910156	1900.440552	11.575995
399.888763	1041.872681	8431.650391	1904.824585	11.677644
400.250519	1043.878906	8426.747070	1898.137329	11.570821
400.612244	1044.176147	8482.770508	1901.257935	11.522094
400.973938	1047.148315	8580.106445	1919.684937	11.582922
401.335602	1046.553833	8665.555664	1935.362793	11.665688
401.697205	1048.485718	8786.222656	1948.365845	11.629759
402.058807	1042.392944	8935.422852	1954.607300	11.557214
402.420349	1037.191772	9167.395508	1979.201538	11.586546
402.781860	1031.841919	9383.320313	2008.179688	11.690598
403.143341	1040.015259	9583.788086	2030.544800	11.593585
403.504822	1049.525879	9764.864258	2037.752075	11.338931
403.866241	1048.188354	9900.541016	2044.736694	11.257441
404.227631	1040.981079	9987.251953	2057.442383	11.361844
404.588959	1034.665405	10003.523438	2070.891357	11.553599
404.950287	1036.522949	9973.952148	2061.826172	11.472014
405.311554	1034.516724	9879.586914	2055.510742	11.543085
405.672821	1040.089478	9780.616211	2040.427124	11.444821
406.034027	1032.361938	9621.310547	2025.492188	11.562885
406.395203	1033.996704	9473.225586	2001.343750	11.462505
406.756348	1028.869751	9356.942383	1983.956909	11.468287
407.117493	1038.603394	9332.571289	1970.359375	11.234140
407.478516	1038.529175	9359.393555	1970.285156	11.197827
407.839600	1035.631226	9398.179688	1979.201660	11.283288
408.200592	1036.894409	9518.252930	1999.411743	11.348622
408.561554	1039.866455	9651.328125	2005.058960	11.208231
408.922485	1047.593872	9789.753906	2015.089844	11.067013
409.283417	1042.838623	9857.444336	2025.269165	11.145485
409.644257	1046.033813	9963.920898	2037.900757	11.122220
410.005096	1047.445435	10029.159180	2030.693359	10.947220
410.365906	1062.083130	10023.065430	2026.829712	10.766081
410.726715	1057.996460	9961.320313	2017.616089	10.778217
411.087433	1056.287476	9863.983398	2012.934937	10.861495
411.448120	1050.937622	9818.361328	1993.764771	10.753754
411.808807	1053.463989	9780.987305	1993.690552	10.773120
412.169434	1048.559937	9788.492188	1994.879517	10.827538
412.530029	1038.900757	9847.710938	2006.990845	10.990021
412.890564	1037.340332	9958.050781	2017.096069	10.982933
413.251099	1036.745972	10108.290039	2025.417969	10.898608
413.611572	1037.786133	10253.999023	2042.210327	10.898448
413.972076	1043.953369	10367.310547	2052.241211	10.814643
414.332489	1048.337158	10471.631836	2063.535156	10.773280
414.692871	1045.587891	10665.338867	2080.030273	10.753318
415.053223	1033.922363	10846.117188	2083.150879	10.693107
415.413574	1032.139160	11113.754883	2110.791748	10.699204
415.773834	1036.522949	11340.156250	2128.475830	10.597747
416.134094	1036.225708	11598.133789	2171.868652	10.752252
416.494263	1035.036987	11843.184570	2204.413086	10.819394
416.854462	1039.494995	12150.797852	2242.084717	10.823121
417.214630	1045.736450	12566.225586	2271.136963	10.636705
417.574738	1044.473267	12969.243164	2296.177002	10.496671
417.934784	1035.705688	13400.125000	2327.755615	10.449742
418.294861	1033.922485	13876.627930	2369.216553	10.397296
418.654846	1035.111206	14445.860352	2413.352295	10.277138
419.014832	1039.940918	15045.409180	2474.206543	10.240754
419.374756	1042.170044	15692.065430	2532.013916	10.169655
419.734680	1042.764404	16339.911133	2601.338135	10.188657
420.094543	1046.330933	16862.779297	2645.771240	10.112513
420.454376	1047.371094	17171.435547	2688.421143	10.177645
420.814148	1048.337036	17331.630859	2706.625244	10.183985
421.173920	1045.810913	17449.029297	2714.724121	10.174303
421.533691	1043.804688	17542.203125	2706.476563	10.077778
421.893341	1039.197876	17542.500000	2698.600342	10.054972
422.253021	1036.151489	17495.912109	2679.727539	9.985419
422.612640	1027.606567	17437.361328	2665.015625	9.978267
422.972260	1034.442505	17490.638672	2663.603760	9.899987
423.331757	1043.210327	17601.423828	2676.681152	9.865019
423.691315	1050.269043	17741.632813	2680.470947	9.766739
424.050781	1051.977905	17733.830078	2667.616455	9.685007
424.410248	1044.027466	17560.705078	2645.920166	9.698638
424.769653	1041.575562	17247.593750	2615.158691	9.709868
425.128998	1042.912964	16888.117188	2573.400635	9.658997
425.488373	1038.380493	16481.978516	2525.103760	9.626794
425.847656	1036.597290	16090.996094	2478.441650	9.577562
426.206940	1027.829590	15691.842773	2440.101318	9.630868
426.566193	1028.349609	15322.632813	2400.423828	9.598762
426.925385	1033.179321	14944.284180	2365.872803	9.580070
427.284576	1039.420776	14571.506836	2324.709229	9.498081
427.643677	1041.352661	14274.295898	2299.297607	9.506162
428.002777	1040.163940	14065.950195	2275.372070	9.482791
428.361847	1043.804565	13909.989258	2268.684814	9.520151
428.720856	1044.399048	13727.426758	2249.737549	9.503555
429.079865	1040.312378	13582.239258	2238.072266	9.550047
429.438812	1033.105103	13515.144531	2214.815430	9.467286
429.797760	1033.476563	13506.674805	2207.459473	9.412044
430.156616	1033.922363	13421.968750	2196.611328	9.385571
430.515503	1032.882080	13336.520508	2192.822021	9.427617
430.874268	1030.058594	13318.762695	2184.574463	9.394936
431.233093	1028.423950	13426.577148	2187.992188	9.352750
431.591827	1029.612915	13595.614258	2207.162354	9.370916
431.950562	1037.563110	13743.921875	2196.388428	9.120043
432.309204	1042.764404	13872.614258	2199.137695	9.013147
432.667877	1043.061646	14041.801758	2199.286377	8.894898
433.026459	1038.380493	14130.742188	2219.793701	9.023684
433.385010	1043.210083	14191.225586	2225.960938	8.995661
433.743561	1045.067871	14165.963867	2209.762939	8.876642
434.102051	1051.680786	14172.500977	2212.289063	8.845547
434.460510	1045.067871	14220.278320	2206.047607	8.811850
434.818939	1051.383545	14207.348633	2205.602051	8.773348
435.177338	1040.758301	14189.813477	2192.598877	8.759873
435.535675	1043.507446	14132.750000	2188.066650	8.744274
435.894012	1039.792236	14139.808594	2184.202881	8.735948
436.252289	1043.878906	14298.148438	2187.917725	8.631474
436.610535	1044.399048	14387.161133	2194.753662	8.621563
436.968719	1043.433105	14664.905273	2212.289307	8.580982
437.326935	1043.730347	14928.605469	2241.341553	8.625294
437.685028	1049.228760	15248.329102	2252.561279	8.474710
438.043152	1044.176147	15443.820313	2270.765381	8.518191
438.401215	1041.575562	15696.301758	2276.115234	8.424174
438.759277	1036.671509	16031.257813	2315.272705	8.527085
439.117249	1039.866577	16562.671875	2359.854248	8.503538
439.475250	1048.782959	16915.980469	2387.866455	8.439320
439.833130	1040.981201	17284.966797	2405.624756	8.400916
440.191071	1042.764282	17360.310547	2403.469971	8.338911
440.548889	1039.866577	17477.115234	2416.324463	8.374017
440.906708	1046.925415	17437.064453	2397.302979	8.238964
441.264496	1038.752075	17308.298828	2368.250732	8.171700
441.622223	1034.368164	17058.271484	2337.415039	8.131894
441.979950	1038.306152	16753.705078	2318.096436	8.143543
442.337616	1041.352661	16506.720703	2305.613525	8.174787
442.695251	1042.987305	16287.528320	2285.254395	8.148931
443.052887	1039.123535	16227.863281	2272.771729	8.122123
443.410461	1039.643677	16313.682617	2283.619873	8.144382
443.768005	1040.163818	16520.912109	2297.662842	8.122986
444.125458	1038.157715	16745.232422	2313.861084	8.121840
444.482941	1037.265991	17081.750000	2338.901123	8.112664
444.840393	1035.111206	17566.947266	2374.566406	8.102278
445.197754	1038.157593	18046.421875	2395.222412	7.978856
445.555084	1046.330933	18420.314453	2409.637207	7.846826
445.912415	1042.244263	18651.990234	2416.993164	7.806750
446.269714	1042.912964	18753.857422	2442.627686	7.903106
446.626953	1038.974976	18763.591797	2444.187988	7.928030
446.984161	1048.708618	18590.912109	2428.658936	7.866459
447.341309	1038.974976	18385.466797	2394.850830	7.816427
447.698456	1043.135986	18100.662109	2369.959717	7.778524
448.055542	1038.677734	17912.974609	2351.829834	7.781966
448.412598	1043.730347	17577.720703	2323.446045	7.739908
448.769653	1040.461060	17199.966797	2299.892090	7.793747
449.126617	1040.015137	16741.220703	2263.855469	7.794563
449.483582	1039.718018	16456.714844	2235.768799	7.758001
449.840515	1045.736572	16219.690430	2191.261475	7.549284
450.197388	1053.166626	16081.041992	2164.364014	7.394242
450.554230	1052.572266	15944.324219	2156.710693	7.414429
450.911041	1045.216187	15918.020508	2150.172119	7.429372
451.267822	1039.940918	15943.655273	2156.933594	7.494727
451.624573	1038.232056	16013.424805	2160.871826	7.496664
451.981262	1036.820313	15955.395508	2160.054443	7.529098
452.337921	1035.408447	15804.485352	2150.023438	7.546951
452.694580	1042.615845	15497.541992	2128.921143	7.515122
453.051147	1044.473389	15309.778320	2109.231201	7.463968
453.407715	1046.033691	14998.078125	2089.466797	7.478711
453.764221	1044.919067	14879.863281	2071.857178	7.422784
454.120728	1044.993408	14568.608398	2051.498047	7.442571
454.477142	1039.792114	14513.476563	2051.869385	7.511511
454.833557	1040.906860	14430.627930	2037.380493	7.442079
455.189911	1045.513550	14429.885742	2030.098999	7.356232
455.546265	1051.755127	14458.268555	2013.232300	7.171717
455.902557	1052.646729	14497.129883	2023.411621	7.220544
456.258820	1042.764404	14765.585938	2037.231934	7.246815
456.615051	1042.021362	15039.242188	2052.018311	7.215696
456.971252	1037.117432	15385.567383	2061.603271	7.140045
457.327393	1041.278442	15886.218750	2103.584229	7.156013
457.683502	1039.643677	16527.673828	2151.063721	7.175993
458.039612	1046.182251	17378.662109	2215.038330	7.156636
458.395630	1050.343262	18231.212891	2266.455811	7.078295
458.751648	1049.228638	18951.652344	2313.415039	7.061538
459.107605	1047.148315	19606.927734	2355.990479	7.052035
459.463562	1044.250488	19848.189453	2364.312500	7.020135
459.819458	1047.594116	19786.964844	2346.702881	6.932510
460.175323	1044.844849	19273.607422	2304.201416	6.908624
460.531158	1035.408325	18571.445313	2255.533203	6.957814
460.886932	1034.516724	17821.134766	2210.654541	7.006402
461.242676	1035.482666	17114.814453	2165.998779	7.030865
461.598419	1047.445435	16613.791016	2131.076416	6.961370
461.954102	1045.587891	16108.829102	2093.404785	6.956119
462.309723	1047.519775	15706.851563	2068.661865	6.965816
462.665344	1046.330933	15365.356445	2053.652832	7.034850
463.020905	1053.686890	15202.559570	2045.182251	7.007593
463.376373	1049.526001	15220.096680	2028.390015	6.907725
463.731873	1042.021362	15234.511719	2016.278687	6.864597
464.087341	1035.854248	15262.299805	2003.275513	6.800161
464.442749	1033.625122	15343.958008	2021.256836	6.901528
464.798126	1038.826416	15478.891602	2026.309570	6.838495
465.153503	1041.649902	15656.178711	2042.136108	6.845832
465.508820	1048.039917	15805.081055	2039.386719	6.717789
465.864105	1046.108032	15876.335938	2050.903564	6.775321
466.219330	1045.364868	16097.386719	2054.916016	6.707080
466.574524	1041.352661	16118.117188	2052.464111	6.706422
466.929657	1041.649902	16039.875977	2046.296875	6.698439
467.284790	1039.643677	15833.242188	2037.306152	6.743880
467.639893	1037.488892	15606.915039	2024.080444	6.771657
467.994934	1042.467041	15429.183594	2008.699707	6.716145
468.349945	1037.117310	15211.625000	1988.192261	6.709756
468.704926	1038.900513	15096.381836	1964.192383	6.582202
469.059875	1033.625122	14967.168945	1952.972656	6.598088
469.414764	1041.798462	14951.789063	1955.350464	6.567596
469.769653	1044.027466	14928.977539	1960.923218	6.603522
470.124451	1043.730347	15029.434570	1961.814819	6.564449
470.479248	1035.334106	15034.785156	1958.991211	6.597809
470.834015	1033.402222	15056.555664	1977.790039	6.734490
471.188721	1026.789185	15185.174805	1991.015747	6.810286
471.543365	1031.173096	15440.700195	2016.278687	6.836488
471.898010	1038.603394	15705.067383	2016.055664	6.664539
472.252625	1042.095581	15985.561523	2028.835571	6.603154
472.607178	1046.256592	16237.151367	2032.922363	6.495113
472.961700	1044.844849	16357.743164	2040.575562	6.502562
473.316193	1055.172852	16412.060547	2042.581665	6.429746
473.670654	1054.058350	16316.579102	2041.318726	6.468528
474.025055	1046.108032	16361.383789	2042.582031	6.506406
474.379456	1042.244141	16385.236328	2040.278442	6.504822
474.733795	1039.792358	16537.779297	2042.284668	6.468532
475.088104	1042.838745	16797.318359	2064.426758	6.484429
475.442383	1043.433105	17105.228516	2089.243896	6.511170
475.796570	1040.758179	17385.349609	2100.983643	6.486705
476.150787	1037.340332	17748.541016	2115.621338	6.452445
476.504944	1033.030884	18150.595703	2135.980225	6.443378
476.859070	1028.126831	18500.189453	2164.809570	6.505716
477.213135	1027.606567	18744.642578	2176.103760	6.482446
477.567200	1034.739624	18969.410156	2191.484375	6.449769
477.921173	1046.553833	19233.037109	2214.889893	6.424201
478.275146	1049.005737	19462.705078	2232.053711	6.424825
478.629089	1049.526001	19731.533203	2244.165039	6.394597
478.983002	1050.491821	20151.939453	2263.112549	6.348319
479.336823	1048.857178	20675.103516	2290.307129	6.325458
479.690643	1046.999634	21295.009766	2325.006592	6.311766
480.044403	1040.906860	22064.044922	2359.928711	6.274143
480.398163	1043.581665	23130.068359	2425.166504	6.255340
480.751862	1041.352661	24670.289063	2514.849854	6.235986
481.105499	1042.690063	26757.228516	2638.638184	6.206404
481.459137	1044.399048	29772.802734	2818.079346	6.173960
481.812744	1043.210083	33706.167969	3065.284424	6.190726
482.166290	1041.055542	38574.925781	3395.559814	6.273013
482.519806	1039.866577	43548.972656	3729.476318	6.327138
482.873291	1036.225708	47876.363281	4024.235107	6.379164
483.226715	1035.408447	50716.511719	4226.636230	6.423424
483.580139	1033.625122	51804.078125	4304.059570	6.441610
483.933502	1037.043091	51193.234375	4256.580078	6.419022
484.286804	1032.807739	49064.167969	4086.575439	6.357862
484.640106	1038.752075	45994.277344	3869.166016	6.296032
484.993347	1034.739624	42920.519531	3660.300781	6.268383
485.346558	1036.300171	40714.996094	3514.221680	6.244967
485.699738	1029.538452	39857.316406	3450.618408	6.235433
486.052887	1033.402222	40126.957031	3472.166260	6.238277
486.405975	1035.036743	41175.667969	3525.812500	6.205123
486.759064	1036.077026	42253.730469	3594.765381	6.207749
487.112061	1041.129517	42804.312500	3618.245117	6.170784
487.464996	1044.176147	42516.312500	3612.746826	6.193486
487.817963	1042.021362	41406.082031	3546.691650	6.205199
488.170868	1037.265991	39661.300781	3435.088867	6.208110
488.523743	1040.758179	37625.261719	3294.656982	6.160802
488.876587	1041.426880	35739.535156	3165.741455	6.122277
489.229401	1044.993530	34548.761719	3090.844482	6.106331
489.582153	1041.872681	34256.750000	3070.114014	6.106424
489.934845	1045.587891	34858.601563	3119.451172	6.133328
490.287537	1040.981201	35990.828125	3179.710938	6.119425
490.640198	1041.798584	37249.886719	3268.502686	6.149742
490.992798	1038.380615	37949.003906	3303.350586	6.136363
491.345337	1037.488892	37822.683594	3296.440430	6.140926
491.697876	1033.996704	36619.054688	3230.608154	6.172847
492.050354	1039.866577	34732.433594	3117.964844	6.167824
492.402832	1044.547607	32272.570313	2969.953857	6.165636
492.755219	1048.485718	29708.755859	2805.447998	6.130306
493.107605	1041.501343	27349.494141	2657.734131	6.143505
493.459930	1037.043091	25530.562500	2561.809082	6.225181
493.812225	1035.779907	24250.994141	2484.608643	6.240859
494.164490	1041.129639	23516.587891	2437.574951	6.213201
494.516724	1039.940796	23226.289063	2404.956299	6.152502
494.868896	1043.135864	23259.427734	2405.773438	6.133506
495.221039	1045.513672	23466.580078	2417.067627	6.117256
495.573120	1048.039917	23635.025391	2442.181885	6.172324
495.925201	1048.411499	23849.835938	2455.853516	6.172606
496.277222	1050.640625	24016.125000	2463.209229	6.150833
496.629211	1053.984253	24120.000000	2462.540771	6.106631
496.981140	1048.634277	24036.187500	2454.070313	6.113900
497.333069	1043.581665	23821.750000	2435.049072	6.108777
497.684967	1040.683960	23430.990234	2406.813721	6.101434
498.036804	1042.541382	22989.335938	2374.863770	6.070692
498.388580	1042.764404	22525.759766	2365.873047	6.158864
498.740326	1040.238159	22115.164063	2338.826660	6.161770
499.092072	1033.699585	21631.380859	2305.464600	6.174312
499.443756	1036.894531	21190.466797	2273.291748	6.134879
499.795410	1041.575562	20804.242188	2259.099854	6.160729
500.147003	1047.891235	20545.964844	2264.598145	6.240139
500.498566	1037.563110	20280.630859	2253.972900	6.321288
500.850098	1034.516724	20113.226563	2232.425049	6.278770
501.201599	1033.104980	20005.708984	2217.044678	6.240260
501.553009	1043.284546	19971.900391	2209.540283	6.161337
501.904449	1038.677734	19961.724609	2220.239746	6.244037
502.255859	1041.129761	20024.285156	2221.354248	6.217219
502.607178	1036.745972	20122.216797	2233.242676	6.269150
502.958405	1039.420776	20182.847656	2221.800049	6.176424
503.309692	1038.083374	20192.656250	2228.412842	6.214336
503.660919	1040.832520	20205.361328	2236.586182	6.239410
504.012115	1045.885132	20202.611328	2255.236084	6.312931
504.363251	1048.560059	20192.208984	2243.199219	6.240395
504.714294	1046.033813	20140.867188	2221.651367	6.156731
505.065369	1041.204102	20110.033203	2200.252197	6.078235
505.416443	1041.426880	20015.519531	2202.258301	6.117981
505.767395	1042.095703	19976.287109	2209.837158	6.167369
506.118317	1038.529175	19904.361328	2223.211670	6.279514
506.469238	1031.470337	20017.152344	2219.422119	6.257093
506.820160	1035.482788	20142.798828	2218.753662	6.192763
507.170929	1039.123657	20416.234375	2223.434326	6.111905
507.521729	1040.461060	20603.773438	2239.186768	6.127417
507.872498	1034.516724	20871.412109	2252.338135	6.139174
508.223236	1033.625122	21098.853516	2275.818115	6.190774
508.573883	1036.225708	21327.779297	2297.440186	6.215466
508.924500	1034.591187	21498.228516	2315.198486	6.257966
509.275116	1035.185669	21651.515625	2321.737061	6.240448
509.625702	1030.950317	21831.849609	2326.492432	6.228299
509.976196	1031.619019	22013.962891	2339.198242	6.231807
510.326660	1035.705688	22231.820313	2355.619141	6.227148
510.677124	1040.683960	22425.453125	2375.680908	6.242746
511.027557	1041.798462	22580.150391	2386.380615	6.242735
511.377869	1042.615845	22685.734375	2388.163818	6.216978
511.728180	1044.324707	22677.859375	2381.551025	6.181266
512.078430	1045.959473	22638.107422	2390.690186	6.227869
512.428650	1036.671509	22535.943359	2385.860352	6.275509
512.778931	1035.259888	22452.720703	2385.637451	6.305031
513.129028	1037.488892	22303.744141	2369.736572	6.264608
513.479126	1040.163818	22130.841797	2363.941162	6.276599
513.829285	1043.507446	22008.166016	2350.640869	6.234938
514.179382	1040.461060	21940.849609	2333.105713	6.184788
514.529297	1044.176147	21919.896484	2328.424561	6.151876
514.879272	1045.067871	21994.197266	2333.997070	6.152662
515.229187	1048.931519	22089.974609	2347.446045	6.171341
515.579163	1045.439331	22454.357422	2373.749268	6.204470
515.928955	1042.392944	22938.289063	2405.550781	6.225632
516.278748	1040.683960	23720.994141	2446.788818	6.199672
516.628540	1043.953247	24509.494141	2491.815918	6.170166
516.978333	1042.392944	25374.677734	2548.063232	6.187953
517.327942	1039.494995	26187.546875	2586.552002	6.151796
517.677612	1038.752075	26846.539063	2619.170898	6.123806
518.027222	1037.191772	27290.125000	2638.043701	6.097802
518.376831	1035.928589	27356.703125	2657.288086	6.159999
518.726379	1031.916138	27185.507813	2643.170654	6.160739
519.075867	1029.241333	26637.822266	2612.186768	6.181309
519.425293	1029.464233	26017.693359	2574.069336	6.181331
519.774658	1035.408447	25323.630859	2543.902344	6.210804
520.124084	1038.974976	24772.525391	2512.397949	6.208186
520.473389	1037.191650	24276.482422	2490.404297	6.253257
520.822693	1035.259766	23965.896484	2468.930908	6.252208
521.171997	1035.854126	23787.197266	2463.803955	6.276332
521.521240	1044.176147	23740.982422	2446.416992	6.178142
521.870361	1044.547729	23769.068359	2452.881592	6.197419
522.219482	1044.101929	23957.875000	2454.516357	6.155313
522.568604	1040.683960	24341.275391	2486.837891	6.206511
522.917664	1038.826294	24831.226563	2508.979736	6.179089
523.266724	1043.358765	25444.669922	2546.577148	6.160400
523.615662	1036.002808	26258.656250	2588.260986	6.154222
523.964600	1040.089478	27349.271484	2656.916748	6.145487
524.313538	1030.727417	28557.208984	2721.114258	6.140947
524.662354	1036.225708	29827.490234	2799.503662	6.124351
525.011169	1034.739746	31003.037109	2868.456299	6.118855
525.359985	1045.142090	32208.224609	2962.895264	6.153926
525.708740	1041.798462	33392.160156	3046.485596	6.196800
526.057434	1042.690063	34896.941406	3133.271484	6.175241
526.406067	1038.454834	36826.062500	3242.570557	6.158879
526.754700	1044.696289	39531.644531	3404.550537	6.131570
527.103333	1043.284546	42735.355469	3614.678711	6.167585
527.451782	1047.222534	46206.332031	3848.435303	6.202985
527.800293	1045.364868	48911.175781	4040.656250	6.257684
528.148743	1051.309082	50532.019531	4160.357910	6.283355
528.497131	1046.256714	50529.863281	4156.197266	6.284790
528.845642	1046.256714	49179.339844	4040.730469	6.221238
529.193909	1044.176147	46635.511719	3847.617920	6.149067
529.542175	1040.683838	43236.832031	3637.192139	6.153425
529.890503	1043.210205	39785.617188	3429.144531	6.158457
530.238770	1032.287720	36717.656250	3244.948242	6.200470
530.586914	1031.990479	34703.457031	3101.916016	6.147418
530.934998	1019.433289	33575.394531	3035.043701	6.191217
531.283142	1032.807739	33496.261719	3027.018555	6.142941
531.631226	1041.575562	34091.949219	3060.900635	6.109840
531.979248	1053.761230	35300.109375	3130.373779	6.063749
532.327148	1048.708618	36574.847656	3218.199219	6.106745
532.675110	1049.080078	37553.859375	3280.539307	6.112786
533.023071	1041.426880	37777.140625	3291.164795	6.124116
533.370850	1040.683838	37094.742188	3236.329346	6.089870
533.718689	1038.529175	35764.207031	3159.351563	6.107360
534.066467	1052.423706	34082.136719	3058.076904	6.072269
534.414246	1047.445435	32527.203125	2979.093018	6.136158
534.761963	1045.587891	31382.421875	2914.003906	6.158903
535.109619	1032.361938	30783.541016	2878.413330	6.204969
535.457153	1035.779907	30620.892578	2868.753906	6.195596
535.804749	1035.482788	30570.888672	2851.069580	6.147153
536.152344	1036.374268	30472.882813	2836.283447	6.114547
536.499817	1037.117310	30126.484375	2812.506592	6.103224
536.847229	1034.516724	29634.080078	2788.432617	6.132667
537.194641	1036.077026	28914.013672	2744.668213	6.128829
537.542114	1035.928467	28186.812500	2691.987549	6.099466
537.889404	1039.569336	27550.484375	2652.012695	6.082187
538.236694	1039.049316	27120.123047	2635.963135	6.122884
538.583984	1039.049194	27230.388672	2640.570068	6.114696
538.931213	1038.306152	27969.773438	2682.699951	6.105845
539.278381	1041.575562	29426.330078	2753.733154	6.031962
539.625488	1038.603394	31258.783203	2853.670654	6.006143
539.972595	1039.420776	33566.921875	2986.375000	5.985563
540.319641	1038.157593	35846.082031	3138.918701	6.035295
540.666687	1040.386719	37726.238281	3267.387939	6.070464
541.013611	1035.557007	38787.207031	3333.368408	6.086652
541.360596	1034.219604	38926.304688	3336.415039	6.075663
541.707458	1037.934692	38242.871094	3299.041016	6.077436
542.054260	1038.900757	36782.667969	3217.679443	6.095549
542.401062	1040.312378	35048.515625	3111.352295	6.089825
542.747864	1038.454834	33161.898438	2992.988037	6.084445
543.094666	1039.272217	31410.583984	2877.818604	6.053563
543.441284	1042.541504	29675.615234	2780.259033	6.068917
543.787903	1037.191772	28313.794922	2703.281494	6.108128
544.134460	1040.832520	27131.564453	2647.628906	6.158495
544.481079	1034.516724	26410.677734	2597.548828	6.159451
544.827637	1040.535278	25851.552734	2557.648193	6.114674
545.174072	1038.529175	25592.751953	2517.078857	6.021570
545.520508	1046.108032	25506.562500	2505.859131	5.967800
545.866943	1044.250488	25454.552734	2493.005127	5.935013
546.213318	1040.461060	25386.343750	2508.979980	6.031898
546.559631	1036.077271	25102.654297	2504.224609	6.100358
546.905823	1042.318604	24590.556641	2483.791260	6.121361
547.252136	1046.405273	23819.521484	2425.537842	6.055967
547.598389	1047.742676	22931.750000	2361.711914	6.004244
547.944458	1043.730347	22069.244141	2305.613525	6.001676
548.290588	1041.798462	21199.162109	2264.375244	6.065162
548.636658	1035.854248	20333.460938	2208.722656	6.077792
548.982727	1030.281616	19597.492188	2165.924316	6.116388
549.328735	1034.516846	19080.642578	2132.933838	6.086720
549.674622	1041.798462	18697.314453	2119.708008	6.105228
550.020569	1049.674561	18492.310547	2109.082764	6.073670
550.366455	1043.581665	18342.962891	2089.169678	6.044078
550.712280	1041.501221	18351.433594	2093.181885	6.075591
551.058044	1034.293823	18417.861328	2096.600098	6.110980
551.403748	1039.123535	18592.623047	2108.562744	6.092456
551.749512	1034.739624	18766.638672	2099.869141	6.006855
552.095154	1039.494995	18908.705078	2090.061279	5.879198
552.440735	1026.863525	18950.166016	2093.404785	5.950584
552.786316	1028.423950	18902.462891	2100.166260	5.996084
553.131897	1024.783081	18732.087891	2105.516357	6.103319
553.477417	1028.275269	18475.222656	2096.897217	6.124979
553.822815	1033.625122	18115.523438	2076.612305	6.105803
554.168213	1036.968750	17732.267578	2049.194580	6.062939
554.513672	1043.804688	17361.052734	2014.941284	5.951595
554.859009	1048.039917	17054.851563	1998.520386	5.937975
555.204285	1052.423828	16883.955078	1986.706177	5.901402
555.549500	1049.674561	16781.935547	1983.734009	5.937223
555.894714	1040.683960	16719.226563	1974.520508	5.956144
556.239990	1029.166992	16586.818359	1960.551636	5.986666
556.585022	1037.860474	16474.919922	1952.749878	5.926578
556.930115	1044.621948	16396.158203	1939.895508	5.831818
557.275146	1047.891235	16301.941406	1930.013306	5.782871
557.620178	1039.346313	16190.933594	1930.681763	5.882786
557.965149	1038.454712	16067.666992	1929.864624	5.931182
558.310059	1048.039917	16014.614258	1925.703491	5.864158
558.654968	1053.984131	15952.497070	1910.694336	5.750307
558.999756	1044.993530	15981.252930	1909.431274	5.787511
559.344604	1037.786133	16034.675781	1911.734863	5.827533
559.689331	1037.711914	16106.450195	1910.991699	5.795308
560.033997	1050.194702	16150.734375	1910.100098	5.694534
560.378723	1050.120361	16198.437500	1920.799683	5.747696
560.723389	1047.371094	16243.317383	1926.520996	5.785424
561.067932	1042.095581	16297.708008	1929.121582	5.814424
561.412476	1041.798462	16295.627930	1924.366211	5.785877
561.757019	1047.371216	16254.612305	1918.942017	5.731288
562.101501	1042.318481	16194.574219	1918.124878	5.780040
562.445862	1045.290649	16106.229492	1916.192993	5.782524
562.790222	1036.300171	16049.015625	1924.812012	5.918395
563.134644	1042.021362	16032.000000	1924.440430	5.886727
563.478943	1041.055420	16102.069336	1925.703613	5.873763
563.823181	1047.371094	16263.156250	1913.963867	5.695354
564.167358	1045.290649	16446.240234	1913.146484	5.635080
564.511536	1044.770508	16708.750000	1919.610962	5.585046
564.855774	1037.488770	17031.818359	1941.604492	5.652727
565.199768	1035.779907	17398.279297	1961.443359	5.657226
565.543823	1038.603394	17721.572266	1980.093262	5.643419
565.887817	1041.352661	17959.191406	1988.935425	5.601087
566.231812	1033.253662	17992.107422	1992.650391	5.657203
566.575745	1032.956421	17879.611328	1988.489380	5.671945
566.919617	1035.334106	17639.837891	1968.799194	5.621758
567.263428	1039.420776	17328.359375	1954.235718	5.616173
567.607239	1035.036987	17089.998047	1945.022339	5.667939
567.950989	1036.671509	16870.580078	1947.697266	5.753638
568.294678	1042.467163	16769.976563	1944.576538	5.735869
568.638367	1040.683960	16645.220703	1930.979126	5.705361
568.981995	1036.002808	16579.166016	1922.062866	5.700642
569.325623	1033.253540	16629.023438	1920.428101	5.688559
569.669128	1035.334106	16756.080078	1922.880249	5.645700
570.012573	1041.649780	17006.851563	1932.093750	5.577405
570.356140	1038.083374	17264.533203	1938.186523	5.547135
570.699524	1038.083374	17529.052734	1944.873657	5.498708
571.042908	1035.482666	17823.291016	1953.418457	5.467872
571.386230	1048.114136	18026.953125	1965.158203	5.401100
571.729492	1052.275024	18180.761719	1976.006470	5.392954
572.072815	1056.064575	18149.406250	1974.372070	5.372311
572.416016	1043.804565	18069.976563	1966.347290	5.418380
572.759094	1041.872681	17881.765625	1953.121216	5.411249
573.102234	1037.265991	17669.261719	1947.994507	5.475762
573.445374	1044.250488	17487.591797	1940.712891	5.451826
573.788391	1046.182373	17375.468750	1936.031738	5.449408
574.131409	1047.073975	17301.611328	1928.898560	5.425098
574.474365	1035.854248	17220.322266	1923.103027	5.482100
574.817261	1034.368164	17131.382813	1911.809082	5.450954
575.160156	1036.225708	16973.416016	1893.604980	5.379739
575.502930	1039.123657	16752.291016	1880.453125	5.354296
575.845703	1039.940918	16483.835938	1869.307739	5.370192
576.188477	1037.711792	16213.226563	1860.019897	5.418651
576.531250	1042.987305	15918.690430	1832.305054	5.306087
576.873901	1041.427002	15561.664063	1815.587036	5.331594
577.216431	1039.123657	15240.304688	1786.014526	5.259357
577.559082	1040.758179	14915.973633	1765.804199	5.225476
577.901611	1038.157593	14655.468750	1746.559937	5.202219
578.244080	1037.340332	14346.518555	1736.008789	5.249524
578.586487	1042.838745	14123.536133	1718.696289	5.166831
578.928955	1061.785767	13929.234375	1730.287476	5.195293
579.271301	1069.884888	13784.641602	1718.250366	5.099315
579.613647	1059.482544	13579.120117	1713.792358	5.226268
579.955872	1040.386719	13441.362305	1678.424194	5.145059
580.298157	1035.259888	13337.487305	1679.538696	5.237091
580.640320	1038.529175	13304.942383	1674.783569	5.186964
580.982483	1040.015137	13219.567383	1671.662720	5.186131
581.324524	1042.689941	13137.092773	1663.860840	5.136020
581.666626	1039.940796	13034.778320	1668.021851	5.236261
582.008728	1038.603394	12960.921875	1662.077637	5.229472
582.350647	1030.207397	12930.160156	1657.099243	5.268020
582.692566	1032.956421	12874.656250	1647.588501	5.190404
583.034424	1035.111206	12803.993164	1645.285156	5.184638
583.376343	1039.420776	12700.340820	1639.192383	5.143433
583.718201	1042.021362	12680.874023	1632.356445	5.072107
584.059937	1041.947144	12673.518555	1632.653687	5.078476
584.401611	1036.745850	12627.598633	1633.025024	5.144394
584.743347	1038.974976	12580.043945	1635.848755	5.171737
585.085022	1042.690063	12495.786133	1629.161499	5.120637
585.426514	1046.628052	12467.773438	1620.542358	5.025015
585.768127	1042.244263	12484.195313	1610.214233	4.963926
586.109619	1041.278320	12524.987305	1617.570190	5.018342
586.451172	1039.792236	12578.039063	1618.313110	5.013941
586.792542	1038.009155	12578.411133	1621.731323	5.058074
587.133850	1029.835571	12600.627930	1608.876831	5.004335
587.475220	1031.619019	12683.176758	1599.737671	4.875903
587.816589	1029.538452	12755.547852	1598.251465	4.850013
588.157776	1037.265991	12829.554688	1602.784058	4.795660
588.498962	1042.244263	12868.637695	1616.827148	4.858479
588.840210	1039.940918	12960.475586	1621.879761	4.881818
589.181335	1037.191772	13063.458008	1620.765259	4.852491
589.522400	1033.327881	13113.910156	1622.102661	4.873729
589.863403	1041.723999	13093.328125	1616.827148	4.772005
590.204407	1038.826294	13000.375000	1619.947876	4.858247
590.545410	1035.259766	12904.450195	1619.947876	4.926099
590.886353	1032.584839	12762.086914	1616.158569	4.975265
591.227112	1034.293823	12687.635742	1601.223633	4.864955
591.567932	1036.448608	12609.915039	1587.403320	4.760499
591.908752	1033.105103	12580.268555	1588.517700	4.809948
592.249512	1033.253662	12590.967773	1587.477539	4.795272
592.590149	1033.402222	12616.230469	1591.192749	4.815668
592.930786	1038.083374	12678.793945	1592.753052	4.764913
593.271423	1038.009033	12749.159180	1601.000610	4.807312
593.612000	1040.981079	12902.519531	1599.440430	4.708153
593.952576	1044.473267	13051.421875	1602.486816	4.647422
594.292969	1044.770508	13197.054688	1604.790161	4.608349
594.633484	1044.473267	13357.846680	1614.672363	4.630730
594.973877	1042.912964	13591.528320	1627.229492	4.656423
595.314209	1038.529053	13852.850586	1645.879517	4.739623
595.654480	1037.934570	14163.362305	1657.396484	4.719556
595.994812	1038.009033	14491.928711	1672.405640	4.715329
596.335022	1040.981201	14748.792969	1676.417969	4.635581
596.675171	1033.179321	14817.894531	1685.482910	4.732079
597.015320	1026.863647	14714.242188	1678.498413	4.760844
597.355408	1034.070923	14428.846680	1660.739868	4.678458
597.695496	1045.216431	14053.393555	1633.619507	4.523333
598.035461	1054.355591	13546.872070	1606.722046	4.421579
598.375366	1045.439331	13107.742188	1591.192749	4.524455
598.715271	1042.838745	12713.864258	1572.468384	4.537987
599.055176	1038.900635	12388.343750	1551.143555	4.513375
599.395081	1046.925293	12140.172852	1533.013672	4.381840
599.734802	1040.832520	11946.464844	1528.035522	4.467443
600.074524	1035.408325	11862.950195	1518.896118	4.465352
600.414246	1025.228882	11822.454102	1522.611328	4.606576
600.753906	1030.727295	11840.137695	1521.348145	4.538831
601.093506	1033.179321	11935.617188	1529.372925	4.551217
601.433044	1043.953369	12110.674805	1527.961060	4.373542
601.772583	1046.182495	12336.554688	1524.097290	4.232941
602.112122	1049.600220	12603.301758	1539.032227	4.236149
602.451538	1044.844849	12911.879883	1562.512085	4.362229
602.790894	1042.541504	13257.536133	1590.747070	4.487972
603.130310	1045.587891	13692.952148	1602.041016	4.399755
603.469604	1040.683960	14090.395508	1617.644531	4.421251
603.808838	1038.603394	14461.984375	1624.554688	4.365154
604.148010	1035.482788	14639.046875	1633.322266	4.394727
604.487305	1041.947144	14699.901367	1627.898315	4.290183
604.826416	1042.392822	14588.670898	1614.523804	4.223529
605.165527	1043.061523	14329.206055	1607.167847	4.245824
605.504456	1040.906738	13954.570313	1589.186523	4.245734
605.843445	1043.284546	13515.664063	1581.384766	4.314335
606.182434	1044.176147	13075.049805	1552.629761	4.226240
606.521423	1041.352661	12677.010742	1536.208862	4.252928
606.860229	1038.752075	12336.778320	1531.230469	4.358977
607.199036	1042.912964	12158.823242	1523.205688	4.320768
607.537903	1047.594116	12120.854492	1516.592896	4.235417
607.876648	1054.875732	12236.023438	1504.630249	4.022436
608.215271	1046.553833	12423.340820	1515.998413	4.126337
608.553955	1051.457886	12673.221680	1514.215210	3.981817
608.892578	1053.835449	12836.686523	1521.793945	3.971522
609.231140	1056.584595	12939.819336	1525.732056	3.947978
609.569641	1051.903564	12911.657227	1534.128296	4.066060
609.908081	1042.912964	12817.961914	1525.806274	4.100988
610.246521	1043.433105	12603.895508	1515.849976	4.086487
610.584961	1035.259888	12308.914063	1500.171875	4.123880
610.923340	1033.104980	12033.622070	1490.884155	4.161433
611.261597	1035.185425	11684.252930	1477.806763	4.156433
611.599854	1042.912964	11389.121094	1464.432251	4.074143
611.938110	1047.891235	11089.979492	1449.646118	4.000710
612.276245	1039.792358	10909.050781	1434.488281	3.999246
612.614319	1041.501099	10721.288086	1430.921753	4.023029
612.952393	1040.758179	10538.726563	1424.680298	4.042150
613.290466	1047.296875	10410.331055	1427.280884	4.058342
613.628479	1049.451782	10266.926758	1428.544067	4.112756
613.966370	1045.439331	10197.676758	1432.779297	4.232189
614.304260	1040.238159	10080.650391	1424.160156	4.246731
614.642151	1044.993530	10044.018555	1407.442017	4.027642
614.979980	1047.891357	9968.527344	1399.045898	3.936430
615.317749	1055.692993	9929.444336	1391.021118	3.778877
615.655396	1047.073975	9863.686523	1389.237915	3.880900
615.993164	1047.891235	9864.354492	1387.603149	3.853154
616.330811	1041.278320	9870.669922	1382.030640	3.859296
616.668396	1040.015137	9870.819336	1388.940796	3.951233
617.005859	1040.238037	9878.545898	1381.361938	3.859607
617.343445	1039.494995	9868.664063	1387.677612	3.943549
617.680908	1036.597290	9876.020508	1375.343384	3.832220
618.018311	1033.773804	9866.732422	1384.259644	3.967932
618.355652	1036.002930	9863.166016	1384.408203	3.946968
618.692993	1047.594116	9855.067383	1385.968750	3.841903
619.030273	1051.160645	9823.414063	1375.343384	3.695547
619.367554	1051.532104	9773.111328	1375.491821	3.714462
619.704712	1043.135864	9741.680664	1376.978027	3.837908
620.041870	1041.872681	9720.801758	1374.005859	3.826891
620.379028	1038.603516	9721.321289	1361.002808	3.713115
620.716064	1041.203979	9688.406250	1359.071045	3.675953
621.053040	1038.231812	9651.403320	1364.123657	3.783645
621.389954	1041.649780	9618.041992	1365.683960	3.778211
621.726929	1038.306274	9579.850586	1364.272339	3.816243
622.063843	1045.364990	9558.227539	1358.996704	3.684210
622.400635	1047.668335	9553.695313	1359.145386	3.661839
622.737427	1052.720947	9604.518555	1362.117310	3.617910
623.074219	1053.166748	9610.090820	1359.591187	3.581012
623.410889	1056.510376	9636.691406	1359.739868	3.534069
623.747559	1056.213257	9673.249023	1363.900757	3.570688
624.084167	1051.011963	9763.229492	1370.662476	3.668991
624.420715	1044.993530	9880.924805	1370.662476	3.685734
624.757324	1042.615723	10027.671875	1364.495239	3.582387
625.093750	1044.696289	10204.067383	1366.947266	3.518265
625.430176	1042.838745	10357.501953	1372.445679	3.538581
625.766602	1041.427002	10503.729492	1379.207031	3.569745
626.102905	1037.414673	10698.774414	1380.767578	3.553878
626.439209	1034.070923	10833.188477	1389.015137	3.622206
626.775452	1032.139160	10918.635742	1390.872681	3.628520
627.111694	1032.956421	10878.735352	1386.711792	3.592965
627.447876	1035.557007	10780.582031	1379.132813	3.525653
627.783997	1035.185547	10609.387695	1374.971802	3.548977
628.120056	1037.563232	10408.028320	1375.863647	3.610284
628.456055	1041.055542	10255.039063	1381.659180	3.696595
628.792053	1043.730347	10093.875977	1376.383667	3.675668
629.128052	1042.467163	9939.624023	1364.346680	3.617779
629.463928	1039.940796	9847.191406	1354.167114	3.567814
629.799744	1035.482788	9776.752930	1356.990601	3.678044
630.135559	1036.820190	9721.619141	1361.448730	3.737894
630.471375	1037.786133	9613.880859	1357.584961	3.728956
630.807068	1044.027466	9518.921875	1340.792603	3.501697
631.142700	1040.089478	9420.248047	1338.414917	3.559902
631.478333	1040.981079	9307.902344	1327.046509	3.460362
631.813965	1036.225708	9221.859375	1334.848389	3.648131
632.149475	1033.402222	9172.670898	1326.154907	3.596794
632.484924	1036.448608	9165.388672	1328.532593	3.593138
632.820435	1033.476563	9177.054688	1328.606934	3.624087
633.155884	1044.027466	9204.174805	1330.761719	3.513837
633.491150	1050.789185	9244.967773	1328.235474	3.385895
633.826477	1052.349487	9268.818359	1329.572876	3.373997
634.161804	1049.154419	9286.874023	1331.133179	3.423020
634.497009	1040.609619	9234.490234	1327.566772	3.502091
634.832153	1043.358765	9176.756836	1318.501831	3.382880
635.167297	1048.039917	9076.968750	1319.467651	3.380622
635.502380	1039.495117	8988.176758	1320.136353	3.530664
635.837463	1038.603394	8862.754883	1326.006348	3.673280
636.172424	1039.866577	8758.507813	1325.932129	3.706165
636.507324	1045.662231	8673.875977	1328.829956	3.712111
636.842224	1044.250366	8615.177734	1321.845337	3.666591
637.177124	1032.882202	8509.295898	1311.220093	3.722880
637.511963	1034.962524	8417.235352	1306.316284	3.675748
637.846741	1035.036865	8335.799805	1295.691040	3.570232
638.181396	1035.557007	8283.043945	1280.087402	3.374003
638.516113	1035.705566	8247.602539	1275.777710	3.328835
638.850769	1035.854126	8216.469727	1278.006836	3.372311
639.185303	1035.631348	8177.906250	1290.489624	3.568307
639.519836	1035.036865	8105.312500	1288.557739	3.585728
639.854370	1037.637573	8015.554688	1284.322510	3.535223
640.188843	1042.838745	7955.963379	1289.820923	3.572656
640.523254	1043.284546	7906.403809	1300.223267	3.743760
640.857605	1043.656128	7861.896973	1298.662964	3.740068
641.191895	1044.919067	7791.457520	1297.474121	3.743476
641.526184	1046.330933	7741.972168	1284.471069	3.556644
641.860413	1045.959351	7711.730469	1285.139771	3.588188
642.194580	1044.547729	7711.433594	1271.245239	3.400351
642.528748	1034.516724	7683.570313	1275.034668	3.617326
642.862793	1040.461060	7676.065918	1270.576538	3.467890
643.196838	1044.547607	7636.313965	1274.143066	3.483064
643.530823	1051.755005	7627.396973	1267.678711	3.283690
643.864746	1043.656128	7587.422363	1273.028442	3.505203
644.198669	1037.117310	7562.457031	1262.774658	3.458170
644.532532	1037.265991	7545.218750	1263.592163	3.477686
644.866333	1041.278320	7541.875000	1259.059448	3.350171
645.200073	1043.210205	7563.125000	1264.780884	3.398368
645.533813	1040.906738	7572.338379	1263.740601	3.411716
645.867554	1048.634155	7600.573730	1268.570435	3.356812
646.201172	1050.120239	7613.428223	1277.486694	3.464205
646.534729	1053.389648	7642.926270	1283.802490	3.496647
646.868225	1042.838745	7628.511719	1283.728149	3.657780
647.201782	1036.300049	7623.384766	1274.811768	3.620899
647.535217	1034.739746	7627.471191	1272.211182	3.602019
647.868591	1037.711792	7633.639160	1269.462036	3.513535
648.201965	1032.733521	7614.097168	1274.217407	3.669207
648.535278	1026.566406	7566.766113	1274.514526	3.791140
648.868591	1025.600464	7535.039063	1272.136841	3.787368
649.201782	1032.807861	7525.007813	1270.205078	3.656653
649.534912	1035.557007	7524.041504	1265.969849	3.551104
649.868103	1034.665405	7511.931152	1271.245239	3.652465
650.201172	1036.968750	7535.410156	1269.759277	3.582252
650.534180	1039.940796	7531.992188	1273.697266	3.600657
650.867188	1045.810791	7554.506348	1276.595093	3.545784
651.200134	1047.148315	7552.128906	1283.653809	3.635760
651.533020	1043.061646	7543.732422	1283.876831	3.704467
651.865845	1038.974976	7520.029785	1278.304077	3.692749
652.198608	1036.968872	7484.290527	1271.839722	3.642921
652.531433	1041.501221	7453.974609	1271.022339	3.579291
652.864136	1039.940796	7412.885254	1273.251465	3.660956
653.196777	1098.491333	7429.900391	1326.303589	3.598129
653.529358	1101.909302	7387.845215	1329.349976	3.618247
653.861938	1096.856689	7332.563965	1334.625488	3.813021
654.194519	1034.442505	7231.066406	1284.768433	4.039715
654.526978	1037.043091	7215.388184	1273.920044	3.833987
654.859375	1039.123535	7213.233887	1271.988159	3.771631
655.191833	1044.919312	7186.931152	1269.164673	3.651008
655.524170	1034.368286	7158.918457	1275.257446	3.933173
655.856445	1036.151489	7130.089355	1272.211304	3.873682
656.188660	1038.529175	7141.978027	1282.167725	3.991818
656.520874	1042.467285	7162.336426	1278.006714	3.848766
656.853088	1049.971802	7237.902344	1282.019165	3.750000
657.185181	1042.244263	7300.910645	1273.548706	3.695746
657.517212	1044.027466	7432.203613	1280.607300	3.703402
657.849243	1038.008911	7591.731934	1284.173950	3.756110
658.181274	1040.535278	7798.516113	1299.926147	3.838289
658.513123	1040.683960	7975.431152	1313.672241	3.936528
658.844971	1038.974976	8160.890625	1321.994019	3.973917
659.176819	1043.507446	8300.208008	1328.532593	3.927751
659.508667	1039.940918	8378.894531	1331.133301	3.967764
659.840393	1048.411499	8345.756836	1337.003174	3.954749
660.172058	1042.615845	8230.140625	1331.058960	4.013108
660.503662	1044.919067	8040.148438	1327.269409	4.036327
660.835266	1044.844971	7839.829590	1321.399536	4.069981
661.166931	1044.919312	7663.062500	1309.808472	4.002470
661.498413	1043.358765	7507.695801	1304.235718	4.035634
661.829773	1032.287720	7347.053223	1292.718750	4.124160
662.161194	1035.779907	7180.688965	1294.056152	4.203093
662.492615	1033.253784	7037.062500	1279.418457	4.100142
662.823975	1037.860474	6950.201660	1278.452515	4.069319
663.155212	1034.070923	6855.020020	1273.102905	4.106409
663.486450	1037.488892	6785.695801	1267.084351	3.994210
663.817627	1040.312378	6696.384277	1264.335083	3.960747
664.148743	1045.587891	6647.715332	1262.328979	3.868907
664.479858	1048.857300	6583.740723	1270.873657	4.011220
664.810913	1046.033813	6550.156250	1266.787109	4.010690
665.141907	1045.439331	6512.039063	1268.718872	4.084432
665.472778	1041.649902	6498.292969	1268.050171	4.149076
665.803711	1041.278320	6485.066895	1265.152466	4.112470
666.134583	1040.015259	6481.648926	1265.746948	4.148234
666.465454	1039.420776	6480.162598	1268.496216	4.210371
666.796143	1039.643677	6467.457031	1273.251465	4.303902
667.126831	1039.197876	6473.253418	1274.811890	4.335878
667.457458	1040.758301	6463.742188	1275.034790	4.320066
667.788147	1038.752075	6474.218750	1276.966553	4.382595
668.118774	1039.272217	6466.416504	1273.251343	4.311275
668.449219	1041.649902	6485.958984	1276.892212	4.320885
668.779663	1051.383423	6501.414063	1288.557739	4.351798
669.110107	1048.114136	6525.191406	1290.638184	4.427983
669.440552	1047.668457	6534.998535	1290.340942	4.422415
669.770874	1029.092773	6492.571777	1279.790039	4.588601
670.101135	1031.098755	6426.962402	1280.310181	4.618564
670.431396	1027.383667	6346.343750	1280.607422	4.760776
670.761597	1036.299927	6284.672363	1277.189575	4.589797
671.091797	1036.002808	6232.957520	1273.251465	4.565148
671.421875	1039.569336	6186.221191	1266.341309	4.406204
671.751892	1045.216431	6161.850098	1267.158569	4.337659
672.081909	1041.501221	6126.333496	1268.347290	4.461230
672.411865	1036.225708	6124.178223	1272.656860	4.646882
672.741821	1028.349731	6111.027344	1272.136841	4.796431
673.071716	1030.281616	6111.473145	1278.526855	4.885571
673.401550	1028.423950	6069.046875	1274.291626	4.877724
673.731262	1034.145386	6043.709473	1277.189331	4.851599
674.060974	1036.151489	6026.395996	1275.703369	4.800404
674.390625	1045.216431	6020.229004	1280.458740	4.728477
674.720276	1040.386597	6001.133301	1278.304077	4.796001
675.049927	1036.671509	5957.220703	1279.046997	4.925781
675.379395	1022.033875	5942.657715	1279.567261	5.233755
675.708923	1020.324890	5919.028809	1282.390625	5.349695
676.038330	1023.891418	5927.202637	1275.703491	5.135551
676.367737	1037.563110	5924.230469	1277.932495	4.918881
676.697083	1037.934692	5940.725098	1276.595093	4.867848
677.026428	1040.535278	5957.740234	1283.653931	4.944245
677.355652	1038.603394	5976.167969	1286.848755	5.027689
677.684875	1042.244263	6013.616699	1296.508179	5.114562
678.013977	1042.541504	6035.089844	1297.251221	5.101798
678.343079	1043.581665	6093.863281	1294.799194	4.974327
678.672180	1048.411499	6137.999512	1285.808594	4.664368
679.001221	1038.826416	6219.212402	1293.610474	4.918245
679.330139	1036.522949	6286.901855	1302.303711	5.062125
679.659058	1035.111206	6365.291504	1309.734131	5.152226
679.987976	1041.352661	6446.281250	1319.987915	5.155207
680.316772	1039.643677	6465.005371	1315.380981	5.082376
680.645630	1032.064819	6463.890625	1317.312866	5.251421
680.974304	1029.761353	6433.798340	1308.768188	5.162933
681.302979	1031.841797	6428.299316	1322.142578	5.379469
681.631653	1040.312378	6398.652832	1320.879517	5.236083
681.960266	1039.866577	6349.019043	1324.297363	5.357367
682.288757	1037.117310	6271.149902	1320.136353	5.407285
682.617249	1035.928589	6213.416016	1317.238647	5.433331
682.945679	1034.962524	6117.416504	1311.591675	5.442826
683.274109	1038.826294	6031.597656	1303.789795	5.306942
683.602478	1042.244263	5904.540527	1307.207764	5.449349
683.930725	1051.680786	5827.265625	1302.749634	5.257342
684.259033	1054.207153	5738.177246	1306.687744	5.390312
684.587280	1051.309204	5683.044434	1297.399902	5.313142
684.915344	1051.978027	5630.363281	1298.588623	5.386410
685.243469	1048.782837	5592.171387	1290.786865	5.326509
685.571533	1045.142090	5589.942871	1291.232788	5.414774
685.899536	1041.649780	5559.849609	1292.347290	5.548615
686.227539	1045.959351	5559.923828	1294.501953	5.506083
686.555420	1050.343262	5546.400879	1299.257324	5.536274
686.883301	1044.473511	5566.462891	1302.452271	5.704984
687.211121	1040.015259	5582.810059	1303.789795	5.806437
687.538940	1039.643799	5582.958496	1304.755737	5.835210
687.866638	1045.216431	5578.053223	1302.080811	5.666747
688.194336	1051.086304	5570.400391	1299.182983	5.489698
688.521973	1051.977905	5520.915527	1305.796021	5.679608
688.849609	1048.782837	5476.854004	1305.870483	5.805861
689.177063	1046.702393	5405.002930	1308.099487	5.997684
689.504578	1046.182251	5370.823730	1304.830078	5.980792
689.832031	1049.451660	5325.424805	1301.932251	5.904634
690.159485	1045.067749	5287.084473	1300.149048	6.013208
690.486816	1043.656006	5237.599121	1298.217163	6.069733
690.814087	1042.838623	5176.373535	1294.130493	6.079345
691.141296	1047.296753	5118.343262	1294.799194	6.079578
691.468506	1043.804565	5067.445313	1295.319336	6.250926
691.795715	1033.922363	5031.705566	1290.192383	6.410303
692.122803	1024.560181	4990.245605	1292.198608	6.748857
692.449829	1030.504517	4953.613770	1286.105835	6.515274
692.776855	1037.043091	4921.886719	1290.935425	6.535458
693.103821	1038.083374	4904.351563	1286.848755	6.434251
693.430664	1031.841797	4884.141113	1286.700195	6.615747
693.757568	1031.767578	4875.298828	1293.090332	6.799028
694.084351	1033.699341	4876.338867	1286.700317	6.584041
694.411133	1034.739746	4881.911621	1289.226563	6.614906
694.737854	1040.386719	4859.398438	1291.827148	6.583913
695.064575	1042.392944	4842.977051	1297.399780	6.709675
695.391174	1049.451660	4842.977051	1296.656738	6.516500
695.717773	1048.634399	4876.116211	1282.019165	6.097606
696.044250	1048.931519	4928.201660	1282.242065	6.014290
696.370789	1045.959351	4988.535645	1286.477417	6.100531
696.697205	1039.717896	5069.376953	1300.000366	6.459168
697.023621	1041.426880	5186.775391	1323.108521	6.795125
697.349915	1041.426880	5325.572754	1330.538940	6.748417
697.676208	1046.033691	5516.753906	1343.467407	6.652926
698.002380	1046.182373	5721.384277	1349.857544	6.495445
698.328674	1042.021362	5930.620605	1369.770874	6.704365
698.654724	1042.764404	6085.541504	1391.467163	6.914895
698.980896	1043.210205	6170.543457	1402.240845	7.002288
699.306946	1041.204102	6173.441406	1407.516602	7.137482
699.632935	1034.368164	6095.498047	1402.835449	7.280336
699.958862	1036.671509	5942.806152	1387.380493	7.148376
700.284729	1038.454712	5752.516113	1377.126587	7.184290
700.610596	1045.959473	5570.771973	1361.820190	6.980637
700.936340	1040.683960	5387.615723	1357.733521	7.293640
701.262146	1042.021362	5199.779297	1341.758423	7.209104
701.587830	1041.129761	5039.582520	1335.888550	7.371821
701.913513	1048.411377	4912.747559	1328.458374	7.246963
702.239075	1045.216309	4794.977051	1328.086914	7.543697
702.564697	1038.974976	4682.631836	1322.662720	7.785798
702.890137	1040.015259	4592.577148	1316.347046	7.778380
703.215698	1046.851074	4548.812988	1304.458496	7.356089
703.541016	1050.046021	4515.005371	1300.669067	7.233073
703.866455	1039.792236	4462.398926	1292.124390	7.372514
704.191711	1032.584839	4412.467285	1296.731079	7.815249
704.517029	1033.327881	4353.173340	1292.867310	7.817817
704.842163	1041.203979	4327.167480	1300.817749	7.900690
705.167419	1043.061646	4294.028320	1303.046875	7.997167
705.492493	1041.129761	4281.471191	1298.142944	7.931670
705.817566	1032.659302	4255.539551	1295.319336	8.149854
706.142578	1028.201050	4273.149414	1287.294800	7.984527
706.467590	1033.996582	4268.765625	1292.644409	7.995867
706.792480	1030.801636	4303.910645	1285.139771	7.770537
707.117371	1040.238159	4317.879883	1293.758911	7.734853
707.442200	1030.430176	4346.114746	1292.644531	7.908302
707.766907	1036.448730	4333.558105	1302.526733	8.070039
708.091675	1033.922485	4327.613770	1300.446289	8.091949
708.416321	1035.557007	4330.214355	1309.957031	8.328636
708.741028	1037.265991	4341.730957	1307.207886	8.169004
709.065552	1033.476440	4363.501465	1309.585449	8.291500
709.390137	1038.083374	4363.872559	1310.254150	8.183645
709.714600	1031.841919	4371.006348	1316.941406	8.538049
710.039063	1030.875854	4384.083496	1323.480103	8.726100
710.363403	1028.275391	4416.553711	1325.263306	8.765157
710.687744	1030.727295	4477.110352	1331.727661	8.733805
711.012085	1031.767578	4537.666992	1330.984497	8.534669
711.336304	1028.721069	4584.997559	1338.563354	8.712548
711.660461	1031.619019	4587.227051	1348.668579	8.916887
711.984619	1038.008911	4565.902344	1354.687256	8.976415
712.308716	1045.439331	4517.531250	1358.402344	9.013674
712.632751	1050.268921	4484.392578	1351.194946	8.762819
712.956726	1044.473511	4409.198242	1349.931885	9.078258
713.280701	1046.405273	4374.870117	1341.609985	8.869095
713.604553	1040.015137	4317.434082	1344.879272	9.301958
713.928467	1044.993408	4319.737305	1338.934937	8.976016
714.252258	1036.745850	4304.653809	1337.374634	9.199427
714.575989	1037.043091	4307.849121	1335.665649	9.129937
714.899719	1039.420776	4284.145996	1346.885376	9.475829
715.223267	1045.067749	4293.210938	1351.194946	9.424684
715.546936	1051.011963	4290.610840	1339.009399	8.889911
715.870422	1049.526001	4291.576660	1336.483032	8.851096
716.193970	1045.885132	4265.199219	1332.099121	8.890528
716.517395	1038.083374	4252.790527	1342.130005	9.457989
716.840820	1037.191772	4227.527832	1336.334473	9.376527
717.164124	1039.866577	4182.797363	1341.758545	9.605429
717.487488	1042.467163	4122.463379	1332.024780	9.401234
717.810730	1033.996704	4070.971680	1324.891724	9.578446
718.133972	1035.111328	4009.820557	1314.415161	9.389282
718.457092	1038.231934	3930.762695	1311.517212	9.447965
718.780212	1047.668457	3864.930420	1303.492554	9.080593
719.103210	1045.290649	3819.903076	1293.090332	8.930966
719.426208	1044.919189	3776.584717	1299.108765	9.305297
719.749207	1034.888306	3745.674561	1303.492676	9.908726
720.072083	1034.591187	3703.916016	1311.963257	10.391095
720.394958	1029.092651	3690.764648	1299.777588	10.169733
720.717773	1032.807861	3649.155273	1299.554565	10.195386
721.040527	1038.454834	3633.105713	1290.563965	9.716496
721.363281	1040.015137	3599.743896	1293.981812	9.921624
721.685913	1040.609619	3595.360107	1294.353394	9.932233
722.008545	1038.974854	3579.013672	1299.480347	10.255965
722.331055	1039.049194	3563.558594	1300.594727	10.360252
722.653503	1038.529175	3537.775391	1297.399780	10.357947
722.976013	1031.990356	3536.140625	1297.622681	10.607682
723.298401	1037.340210	3539.558594	1292.198608	10.185299
723.620789	1042.690063	3534.803467	1291.232788	9.973171
723.943115	1047.668335	3513.107178	1288.260620	9.758598
724.265381	1044.101929	3499.361084	1288.929321	9.971549
724.587585	1039.643677	3487.769531	1300.669189	10.662258
724.909790	1036.745972	3494.679688	1305.053101	10.915963
725.231873	1036.820190	3517.416260	1310.848511	11.046873
725.553894	1041.798462	3534.580078	1313.746338	10.909414
725.875916	1067.730103	3545.948486	1355.207275	11.600156
726.197937	1062.380249	3546.766357	1363.306274	12.112691
726.519775	1054.281250	3561.775391	1351.269287	11.844017
726.841675	1023.520020	3571.286133	1316.049805	11.481814
727.163513	1025.228882	3606.282471	1309.956909	11.031465
727.485291	1033.253540	3637.861084	1317.387207	10.908887
727.806946	1039.717896	3672.337891	1315.529663	10.476702
728.128662	1037.191772	3680.882568	1325.783325	10.916237
728.450256	1028.721191	3692.399414	1333.139404	11.428491
728.771790	1029.612915	3689.055664	1339.752319	11.661819
729.093323	1032.733521	3677.835938	1334.625366	11.413238
729.414795	1039.049316	3668.176758	1328.978394	11.027578
729.736145	1033.773804	3655.842529	1328.161133	11.227292
730.057495	1035.334106	3650.715576	1321.399536	10.937810
730.378845	1031.990601	3643.210938	1325.857788	11.254018
730.700134	1037.637573	3651.607178	1326.377808	11.046043
731.021301	1036.820190	3688.238281	1339.455200	11.414082
731.342468	1040.460938	3714.764404	1343.764771	11.341414
731.663574	1039.792358	3724.423828	1348.743042	11.508123
731.984680	1043.507446	3713.501221	1349.114380	11.445980
732.305664	1044.101929	3712.535400	1342.575806	11.185359
732.626648	1045.216431	3713.204102	1343.244507	11.170519
732.947571	1045.290649	3712.684326	1343.244629	11.170229
733.268433	1039.569458	3700.275635	1350.749146	11.695380
733.589233	1037.934692	3691.582031	1352.012329	11.835695
733.909973	1033.699341	3663.050049	1354.167114	12.188096
734.230713	1040.906860	3626.492920	1348.371582	11.891491
734.551331	1045.662231	3580.499756	1341.981445	11.689871
734.871948	1046.479492	3526.852783	1335.071289	11.635015
735.192505	1044.993408	3480.042236	1338.712158	12.062130
735.513062	1036.894409	3439.101563	1331.504883	12.264158
735.833435	1041.501343	3413.541260	1332.767944	12.279160
736.153931	1037.563354	3376.538330	1323.925903	12.243078
736.474304	1046.999634	3361.752197	1332.545044	12.335895
736.794617	1046.851074	3355.288086	1323.851563	11.999482
737.114807	1049.897461	3361.009521	1322.216919	11.783049
737.434998	1043.953247	3351.201172	1319.765015	11.954144
737.755188	1043.061523	3344.885498	1326.972290	12.334165
738.075256	1041.724121	3351.126953	1327.269409	12.364464
738.395325	1041.352661	3370.000000	1328.012573	12.310146
738.715271	1041.426880	3396.154541	1327.715210	12.158024
739.035278	1046.330933	3416.587891	1329.795776	11.959246
739.355164	1049.080078	3430.184814	1332.544922	11.904761
739.675049	1040.089478	3409.529053	1336.928833	12.527830
739.994873	1039.643677	3384.191650	1335.962891	12.638651
740.314636	1040.535278	3347.114502	1328.012573	12.463362
740.634277	1047.073853	3319.548584	1324.371704	12.202462
740.953979	1040.015137	3290.942139	1321.473877	12.504126
741.273499	1036.002808	3258.174561	1324.148804	12.966864
741.593140	1040.535278	3216.193115	1323.257202	12.994780
741.912598	1036.820190	3186.026367	1326.600830	13.483149
742.232117	1033.996582	3144.416748	1320.285034	13.565472
742.551453	1029.612793	3117.518799	1317.981689	13.811393
742.870850	1035.185425	3078.807373	1320.433716	13.957977
743.190063	1041.798462	3054.658936	1315.083862	13.576967
743.509338	1037.711792	3048.566406	1309.734131	13.527698
743.828552	1042.021484	3035.489014	1301.486450	13.015760
744.147705	1041.724243	3030.287842	1308.619629	13.421516
744.466797	1051.086304	3007.328369	1307.950806	13.130507
744.785828	1047.296875	3000.418213	1303.418335	13.113443
745.104858	1042.169922	2992.764893	1300.966309	13.267562
745.423706	1041.947144	2983.699951	1300.223267	13.301185
745.742615	1043.581787	2977.012451	1297.622681	13.139384
746.061401	1045.587891	2963.192383	1285.882813	12.530995
746.380249	1034.962524	2965.867188	1288.483521	13.129648
746.698975	1029.612793	2963.638428	1293.907593	13.665527
747.017639	1031.990479	2949.074951	1308.248047	14.410297
747.336304	1036.597290	2939.118164	1311.963135	14.473736
747.654907	1041.203979	2930.796143	1307.207642	14.077306
747.973389	1039.643677	2941.942139	1302.823975	13.834858
748.291931	1041.575562	2943.130859	1297.102661	13.437795
748.610352	1042.541504	2942.685303	1303.566895	13.737139
748.928711	1043.284546	2941.644531	1306.093262	13.843987
749.247070	1041.352661	2939.044189	1302.823853	13.778382
749.565308	1047.965576	2937.557861	1305.796021	13.644766
749.883545	1055.098633	2931.390869	1306.910645	13.420725
750.201782	1052.721069	2917.273438	1314.266602	14.027256
750.519836	1050.046021	2900.406982	1317.238647	14.440027
750.837952	1038.008911	2887.032471	1311.591675	14.796067
751.155884	1040.981079	2869.422607	1306.761963	14.535925
751.473877	1031.172974	2868.976563	1301.932251	14.732764
751.791809	1033.922363	2871.428711	1311.888794	15.127373
752.109619	1030.207153	2889.632813	1312.037476	15.156848
752.427490	1039.049316	2879.750732	1313.969238	14.935607
752.745300	1044.250488	2887.032227	1308.768066	14.354255
753.062988	1054.281372	2877.001221	1308.693848	13.957849
753.380615	1049.897583	2888.741211	1306.093262	13.932434
753.698303	1046.330933	2881.533936	1306.018921	14.150369
754.015808	1044.027588	2872.246094	1299.331665	13.964637
754.333374	1037.637573	2866.227539	1298.662964	14.274681
754.650757	1037.711792	2860.580811	1287.591797	13.708061
754.968262	1037.860474	2868.307861	1293.833252	13.984165
755.285583	1042.541382	2858.574219	1291.455566	13.706480
755.602905	1045.067749	2853.298828	1307.504883	14.513474
755.920105	1045.364990	2852.927002	1306.984863	14.473632
756.237305	1044.844849	2858.053955	1321.250977	15.244029
756.554443	1044.473267	2863.180908	1317.907349	15.034527
756.871582	1039.717896	2871.057373	1324.371704	15.543476
757.188599	1043.061523	2864.666992	1321.622437	15.292055
757.505615	1042.541504	2872.246094	1321.102417	15.224365
757.822510	1039.346436	2880.493408	1326.303589	15.585782
758.139465	1038.529175	2903.007080	1325.188965	15.374803
758.456238	1037.563232	2926.858398	1330.984741	15.530740
758.773010	1039.420776	2952.938721	1329.572876	15.163280
759.089783	1038.974976	2989.718750	1336.260254	15.239586
759.406433	1043.953247	2999.303467	1344.507690	15.370875
759.723145	1047.965698	2997.223389	1348.445801	15.415104
760.039673	1049.005737	2986.821045	1351.640869	15.617336
760.356201	1045.959473	2993.507813	1353.721313	15.802526
760.672668	1042.838745	2997.743164	1359.368286	16.191561
760.989136	1043.284668	3001.755615	1359.962769	16.169661
761.305481	1042.764404	2988.158203	1351.269287	15.858223
761.621826	1042.764404	2982.510986	1343.393188	15.498354
761.938049	1042.690063	2988.158203	1344.582031	15.517703
762.254333	1041.055298	3030.213623	1353.498413	15.707302
762.570496	1039.049194	3105.333740	1367.690308	15.904929
762.886597	1032.733398	3237.444092	1390.723999	16.237532
763.202637	1033.105103	3412.649658	1422.525757	16.365345
763.518677	1037.414673	3635.037842	1453.732788	16.026888
763.834656	1043.061646	3847.469482	1490.289673	15.947326
764.150574	1044.399048	3981.363037	1514.809570	16.016899
764.466370	1037.340210	4001.499023	1530.710449	16.644529
764.782288	1034.962524	3898.441162	1509.162476	16.560276
765.097961	1033.773804	3755.333984	1489.175171	16.733101
765.413696	1034.739624	3593.725586	1465.249634	16.823462
765.729309	1039.643677	3438.209717	1448.085815	17.028597
766.044861	1035.928589	3303.127686	1423.863159	17.110741
766.360474	1040.089478	3198.955078	1406.476196	16.971260
766.675903	1034.516846	3122.274414	1386.042969	16.837498
766.991394	1033.550903	3062.015381	1380.321655	17.095234
767.306763	1037.340454	2999.897705	1368.061646	16.851543
767.622131	1040.981323	2953.607422	1360.482788	16.704857
767.937378	1045.513550	2905.458984	1347.108398	16.215252
768.252625	1048.931519	2870.313721	1336.334473	15.779387
768.567810	1048.337158	2817.707764	1332.396362	16.054251
768.882996	1046.628174	2791.627686	1332.099243	16.359379
769.197998	1042.764282	2762.129150	1329.572876	16.681078
769.513062	1042.987305	2750.612305	1324.891724	16.508568
769.828064	1047.296875	2713.758545	1319.987793	16.363468
770.142944	1052.795288	2685.523193	1313.820679	15.987072
770.457825	1057.327759	2668.359131	1308.025024	15.561290
770.772705	1056.733276	2654.538818	1297.845581	15.090216
771.087402	1050.789063	2640.792725	1305.053101	15.991412
771.402100	1043.879028	2618.873535	1305.127319	16.587252
771.716736	1042.541504	2595.691406	1314.117920	17.485525
772.031372	1044.027588	2571.988525	1304.904419	17.073528
772.345947	1042.838745	2561.809326	1309.659668	17.565905
772.660461	1038.974976	2550.069336	1299.034424	17.210007
772.974854	1036.002930	2543.604980	1292.347168	17.003443
773.289246	1041.501221	2530.973389	1285.065552	16.352392
773.603638	1041.352539	2529.487549	1289.449341	16.671659
773.917908	1042.838745	2525.995361	1294.353394	16.958063
774.232178	1046.628052	2518.565186	1289.598022	16.506817
774.546265	1047.296875	2510.391602	1279.567139	15.875272
774.860474	1046.479614	2496.571533	1279.046997	16.038113
775.174561	1038.306274	2481.710938	1283.430908	16.982391
775.488586	1037.043091	2461.277344	1283.356567	17.294449
775.802551	1037.711792	2448.274658	1280.235962	17.193432
776.116516	1035.482788	2433.488525	1281.127563	17.571085
776.430359	1036.597290	2426.578369	1285.957275	17.939812
776.744202	1033.922485	2420.782715	1286.700317	18.226625
777.057922	1038.974976	2428.658936	1280.235840	17.360844
777.371704	1042.392944	2423.754639	1275.480591	16.873758
777.685303	1042.318604	2426.875488	1273.994507	16.732855
777.998962	1041.501343	2407.185303	1272.880005	16.942327
778.312500	1035.482788	2398.566162	1272.880005	17.416191
778.626038	1039.197876	2384.151367	1273.548584	17.424446
778.939453	1035.557007	2387.792236	1289.077881	18.748281
779.252869	1040.163696	2399.606445	1289.375122	18.331881
779.566223	1042.764282	2401.984131	1290.786865	18.247421
779.879578	1047.371094	2394.628174	1281.201782	17.356056
780.192749	1042.318481	2381.996582	1283.950928	18.036606
780.505920	1036.448608	2366.467285	1289.226440	19.005585
780.819031	1032.510620	2363.792480	1285.660034	19.015463
781.132141	1044.027710	2353.241455	1295.393677	19.199766
781.445190	1044.770508	2355.990967	1293.758911	18.989058
781.758118	1044.993530	2344.176514	1296.953979	19.393761
782.071045	1033.104980	2345.216797	1288.334839	19.451838
782.383911	1037.637573	2327.086914	1278.081055	18.646990
782.696838	1044.027466	2323.446045	1276.594971	18.177593
783.009583	1048.931519	2307.545410	1273.474243	17.840477
783.322266	1042.913086	2300.412354	1271.096558	18.145813
783.634888	1038.009155	2284.437256	1264.335083	18.157961
783.947510	1039.718018	2273.886475	1258.390991	17.718243
784.260132	1040.683960	2267.718994	1259.505371	17.833347
784.572571	1037.488892	2261.700439	1257.053345	17.935173
784.885010	1032.213379	2260.214355	1258.836792	18.454660
785.197449	1030.430054	2250.332275	1260.025513	18.820808
785.509766	1034.293945	2245.427979	1252.223755	17.993864
785.822083	1040.163696	2245.502441	1255.047241	17.827648
786.134277	1046.776733	2250.406250	1258.836670	17.618372
786.446533	1043.061646	2257.093506	1275.554810	19.150499
786.758606	1036.745850	2247.508545	1276.892212	19.834305
787.070740	1032.510620	2254.641846	1275.257690	19.862602
787.382690	1043.135864	2255.384766	1282.019165	19.705797
787.694641	1040.163696	2275.298096	1283.208008	19.677561
788.006653	1036.745972	2305.390625	1288.186279	19.819601
788.318481	1024.634521	2350.343750	1280.830200	19.325178
788.630310	1031.173218	2378.653076	1291.232544	19.299683
788.942017	1033.699341	2397.228760	1297.845703	19.372253
789.253784	1044.993408	2414.689697	1301.337891	18.715425
789.565430	1045.736450	2428.138672	1290.861206	17.731796
789.877014	1047.371216	2404.213135	1287.071777	17.666063
790.188538	1042.170044	2355.396240	1282.390747	18.292408
790.500061	1040.609619	2319.210938	1278.452637	18.601812
790.811462	1036.820190	2297.811768	1268.570313	18.378403
791.122925	1041.872681	2275.818115	1267.381470	18.275427
791.434204	1045.142090	2238.518066	1265.672607	18.479551
791.745483	1047.296753	2220.759521	1263.815063	18.451229
792.056702	1039.346558	2210.357422	1256.459106	18.540609
792.367920	1034.665405	2191.930176	1257.499268	19.255219
792.678955	1031.173218	2166.667236	1258.762451	20.043190
792.990112	1037.191650	2158.716797	1260.397095	19.901957
793.301086	1044.027588	2164.364014	1256.013184	18.921602
793.612122	1045.810913	2159.088623	1246.130981	17.993719
793.922974	1042.392944	2154.407471	1250.366211	18.702387
794.233826	1041.649902	2154.481689	1251.034912	18.815514
794.544556	1054.429932	2154.259033	1258.836792	18.585329
794.855286	1052.275024	2144.079346	1251.777954	18.272774
795.166016	1050.714844	2141.404541	1255.715942	18.795547
795.476624	1038.900757	2145.788330	1261.883179	20.144993
795.787292	1040.609741	2166.518799	1277.040894	20.999134
796.097778	1040.981079	2190.592773	1271.765381	20.074978
796.408264	1045.885132	2217.118896	1264.483765	18.663963
796.718689	1046.479492	2231.756592	1261.660278	18.154470
797.029053	1048.485596	2240.970215	1271.096680	18.667837
797.339355	1040.535156	2235.249023	1276.223511	19.727598
797.649658	1041.947021	2227.447021	1270.353638	19.266691
797.959839	1041.278320	2205.230713	1266.415649	19.342485
798.270020	1057.996338	2181.676514	1270.725098	18.931433
798.580078	1061.711548	2159.237061	1271.839600	19.145618
798.890137	1061.488647	2148.091797	1271.691040	19.344910
799.200195	1051.011963	2132.488037	1265.672485	19.848846
799.510071	1048.262695	2125.057861	1267.084351	20.321568
799.820007	1043.210205	2113.838135	1266.341431	20.841154
800.129883	1038.231934	2126.172607	1262.997681	20.659742
800.439575	1036.820190	2128.921631	1253.041138	19.798615
800.749329	1046.776733	2119.039307	1250.663452	19.014626
801.058960	1045.364868	2086.494873	1254.675781	20.104206
801.368591	1044.399048	2068.364990	1253.189697	20.390390
801.678162	1031.841919	2071.262451	1260.025513	21.952963
801.987671	1035.036987	2084.785889	1256.161743	21.064537
802.297119	1032.882202	2085.157227	1264.780884	22.037840
802.606506	1034.442505	2063.014893	1256.161743	21.556017
802.915894	1034.219604	2054.172852	1255.270142	21.672615
803.225159	1037.340210	2044.439087	1248.880127	21.004881
803.534424	1038.008911	2053.727295	1248.731567	20.746170
803.843628	1041.501099	2053.058594	1245.759399	20.192455
804.152771	1045.885132	2053.058594	1242.713013	19.542601
804.461792	1050.937622	2053.653076	1232.756470	18.132647
804.770874	1054.652710	2053.355713	1234.539795	18.012070
805.079773	1051.531982	2055.882080	1240.261108	18.791170
805.388733	1049.823120	2053.727051	1249.028809	19.843103
805.697571	1039.717896	2048.971924	1250.440552	20.879051
806.006470	1038.454834	2052.241211	1250.886353	20.954268
806.315125	1031.916138	2058.259766	1248.359985	21.088829
806.623901	1036.374268	2068.067627	1256.013306	21.289179
806.932495	1041.203979	2067.473389	1257.053467	21.032438
807.241150	1041.129639	2054.544678	1262.031738	21.797792
807.549622	1040.609497	2049.343506	1258.688110	21.619040
807.858154	1034.591064	2042.730469	1254.898682	21.852892
808.166565	1042.244263	2039.683960	1249.994629	20.828363
808.474915	1043.507446	2027.721313	1236.322876	19.590807
808.783264	1041.798462	2002.458374	1230.081543	19.599348
809.091492	1042.764404	1987.375000	1228.669800	19.680639
809.399719	1042.690063	1973.777466	1236.174438	20.780474
809.707825	1043.581665	1974.966431	1239.518066	21.037106
810.015930	1039.569336	1965.455688	1249.771851	22.702843
810.323975	1041.278320	1960.625977	1245.165039	22.177324
810.632080	1039.049316	1951.709595	1243.827515	22.437506
810.939880	1042.170044	1948.588867	1229.115601	20.624634
811.247864	1042.467163	1947.994507	1221.090942	19.725941
811.555664	1039.792236	1941.084351	1223.765747	20.412195
811.863464	1038.677734	1936.254517	1226.217773	20.894039
812.171143	1025.972046	1919.090820	1230.527344	22.903482
812.478882	1024.040039	1908.836914	1224.360229	22.640245
812.786438	1025.229004	1904.601685	1216.409912	21.740601
813.094055	1037.934692	1903.709961	1220.050781	21.035030
813.401489	1045.365112	1909.134155	1220.422119	20.266645
813.708984	1039.123535	1910.025757	1220.273560	20.800272
814.016357	1037.043091	1915.078247	1209.425415	19.632736
814.323730	1037.043091	1908.465332	1209.351196	19.773205
814.630981	1040.906860	1901.332397	1216.707153	20.431786
814.938232	1040.832520	1903.635742	1229.561523	21.873934
815.245361	1040.238037	1913.369507	1233.648071	22.151308
815.552490	1042.838745	1902.075562	1232.904907	22.120346
815.859619	1042.838745	1893.827759	1232.607788	22.299824
816.166565	1050.789185	1887.437866	1221.165161	20.364100
816.473572	1051.086304	1899.177612	1213.512085	19.151922
816.780457	1050.789063	1909.431274	1207.344849	18.232948
817.087341	1039.717896	1913.517944	1213.066284	19.838449
817.394043	1041.501099	1930.979126	1224.137329	20.532967
817.700806	1044.473267	1932.167847	1230.824585	20.992729
818.007507	1052.423706	1936.031616	1237.660400	20.963675
818.314209	1043.358887	1933.951172	1241.598511	22.259302
818.620667	1035.036987	1940.489868	1234.911255	22.074509
818.927246	1030.430176	1954.310059	1233.499390	21.980045
819.233704	1032.956421	1975.560669	1241.078247	22.079449
819.540161	1037.414551	2020.365234	1256.681763	22.307041
819.846497	1043.284546	2085.008789	1274.365967	22.182590
820.152832	1043.061646	2165.924316	1284.173950	21.473000
820.458984	1044.547607	2253.601807	1306.093262	21.632252
820.765259	1036.225708	2345.142578	1327.343872	22.241150
821.071350	1040.683960	2449.314697	1349.114502	21.895769
821.377502	1040.386719	2608.471436	1382.327759	21.806286
821.683472	1039.123535	2936.295166	1457.150757	22.034233
821.989441	1032.064819	3585.998047	1610.140015	22.634705
822.295349	1027.755249	4592.650879	1846.051147	22.954275
822.601196	1025.377563	5876.304688	2133.305420	22.839506
822.907043	1034.368164	7065.445313	2404.584717	22.719267
823.212769	1037.414551	7838.862793	2569.165283	22.520950
823.518494	1046.628052	7880.323730	2578.081543	22.410326
823.824097	1040.981079	7282.187012	2446.863037	22.525806
824.129700	1038.826294	6311.273438	2236.066162	22.707479
824.435242	1032.733521	5327.876465	2014.421021	22.855759
824.740723	1031.618896	4521.171875	1825.246216	22.742950
825.046082	1039.866577	3935.220703	1692.913086	22.554979
825.351501	1039.272095	3509.466064	1603.675659	22.848553
825.656799	1038.677734	3216.862061	1538.883789	22.964359
825.962036	1037.637573	3020.182617	1494.153442	23.026758
826.267212	1034.888306	2937.112061	1467.553101	22.745211
826.572449	1041.203979	2942.164795	1468.816284	22.494535
826.877502	1038.083374	3060.305908	1495.416626	22.615377
827.182495	1046.553833	3303.721924	1569.942261	23.187838
827.487488	1042.021362	3642.468018	1639.786743	22.987026
827.792419	1041.129761	3914.862061	1702.349609	23.009096
828.097290	1035.185547	4027.430420	1720.553833	22.904819
828.402100	1039.272217	3897.697998	1704.578735	23.275276
828.706848	1039.940918	3617.056641	1642.090210	23.365240
829.011597	1043.358887	3244.725342	1554.858765	23.235563
829.316223	1042.912964	2889.707031	1470.079468	23.130165
829.620789	1044.399048	2609.065918	1414.129272	23.629965
829.925354	1043.804565	2398.120361	1371.702515	24.211336
830.229797	1041.278320	2258.282471	1345.027954	24.958799
830.534302	1034.219604	2140.289795	1309.659790	24.902596
830.838562	1032.733521	2062.717773	1280.904541	24.094643
831.142944	1028.126831	2006.024902	1260.396973	23.751978
831.447144	1031.098877	1972.885864	1253.412598	23.605520
831.751404	1035.631226	1947.697266	1249.846069	23.486769
832.055542	1043.358765	1929.121460	1246.948242	22.984652
832.359619	1044.399048	1937.369141	1245.313599	22.499584
832.663635	1042.244263	1959.957153	1244.199097	22.006319
832.967651	1038.380493	2005.727661	1252.744019	22.159937
833.271545	1033.327881	2102.246826	1269.833496	22.125683
833.575439	1034.591064	2262.369385	1306.464722	22.143545
833.879211	1040.758179	2479.036133	1359.814087	22.183187
834.183044	1041.352661	2693.548096	1418.736206	22.841337
834.486694	1040.238159	2851.886963	1471.862427	23.824942
834.790344	1038.008911	2914.969971	1485.088501	23.819332
835.093933	1045.439331	2860.134766	1474.389038	23.637560
835.397522	1046.405151	2725.572510	1444.742188	23.722296
835.700928	1048.188599	2548.211914	1403.801392	23.707151
836.004395	1042.095703	2377.984375	1360.259888	23.816669
836.307739	1044.696167	2221.874268	1313.895142	22.868160
836.611023	1042.169922	2093.256348	1284.471191	23.052460
836.914307	1047.742554	1994.656616	1259.653931	22.379156
837.217529	1046.628052	1925.629395	1247.096802	22.806421
837.520691	1047.445435	1873.914673	1237.214478	22.961416
837.823730	1051.829346	1821.457031	1217.152832	21.480968
838.126831	1051.977905	1774.720581	1205.933105	21.301523
838.429749	1055.321533	1743.513306	1196.125122	20.459934
838.732727	1051.977905	1718.473267	1199.023071	22.062445
839.035522	1052.646606	1698.337280	1192.707397	21.691624
839.338379	1041.426880	1685.259888	1186.837524	22.585150
839.641113	1039.420776	1693.804810	1188.769165	22.822742
839.943848	1035.557129	1727.389648	1192.187134	22.639874
840.246460	1042.318604	1774.869141	1207.865112	22.598646
840.549072	1035.185425	1826.806641	1230.453125	24.666809
840.851563	1031.247437	1861.877563	1238.849243	24.993292
841.154053	1025.749023	1872.280151	1232.533569	24.427282
841.456482	1024.560303	1844.490845	1210.837036	22.718599
841.758850	1033.253662	1790.026978	1201.252075	22.199305
842.061157	1033.848022	1726.572388	1197.685547	23.651186
842.363403	1040.386597	1679.092896	1188.174805	23.138680
842.665588	1034.293823	1646.473999	1181.190430	23.995649
842.967712	1038.380493	1613.780884	1167.593018	22.456106
843.269775	1043.581665	1581.013306	1160.385620	21.733732
843.571777	1046.033813	1554.338745	1155.110229	21.458855
843.873840	1037.786133	1538.214844	1150.280518	22.479603
844.175659	1036.448608	1528.927124	1153.029663	23.672314
844.477600	1037.265991	1521.125366	1144.633423	22.189800
844.779297	1043.804688	1506.041992	1144.261841	21.732809
845.081116	1036.151489	1493.633301	1137.574707	22.169891
845.382751	1031.841919	1484.716919	1134.974121	22.772774
845.684387	1032.510620	1477.881226	1131.036133	22.122141
845.985962	1039.495117	1473.200073	1129.995728	20.866861
846.287537	1047.891235	1457.076294	1133.562256	20.936987
846.588989	1051.383667	1453.807007	1128.286743	19.109995
846.890381	1050.343384	1444.073242	1128.138306	19.758451
847.191711	1047.817017	1440.952637	1124.274536	19.448128
847.493042	1050.566284	1443.478882	1131.481812	20.593773
847.794250	1048.188477	1442.364380	1129.772827	20.697447
848.095459	1042.392822	1437.832031	1136.682983	23.844414
848.396606	1038.083374	1424.903320	1136.608765	25.470608
848.697693	1038.157593	1423.342773	1141.586914	26.851843
848.998657	1044.919189	1425.126343	1136.608765	24.115688
849.299622	1051.160645	1420.147827	1130.515869	21.506227
849.600464	1055.247192	1404.767212	1124.720337	19.876728
849.901367	1048.411499	1396.222290	1124.200195	21.790209
850.202087	1038.231934	1391.392700	1127.766724	25.352417
850.502808	1035.928589	1387.900513	1133.785278	27.802414
850.803467	1042.987427	1391.467163	1128.807007	24.626850
851.104065	1048.262817	1396.742554	1116.769897	19.658842
851.404663	1054.652954	1406.253296	1105.327271	14.412477
851.705139	1060.151245	1404.990112	1109.191040	14.221075
852.005615	1060.522827	1405.138672	1121.079468	17.572216
852.306030	1047.668335	1402.240845	1129.698608	23.134979
852.606384	1035.482788	1400.829102	1124.423096	24.344110
852.906616	1033.625122	1393.176147	1122.491089	24.715815
853.206909	1037.860352	1390.946899	1121.450928	23.674246
853.506958	1035.482788	1385.002808	1130.144409	27.083319
853.807129	1032.436401	1374.674683	1124.645996	26.943098
854.107178	1036.300171	1371.925415	1121.451050	25.370821
854.407166	1040.386719	1371.108032	1118.255981	23.545280
854.707092	1037.488892	1376.829468	1125.240356	25.859407
855.007019	1038.380493	1362.191895	1123.457153	26.273521
855.306763	1042.838745	1357.956543	1114.392212	22.706894
855.606567	1049.600220	1350.006226	1113.351929	21.221849
855.906250	1045.587769	1356.098999	1111.717285	21.296980
856.205933	1041.203979	1354.167114	1109.785522	21.913616
856.505493	1037.860474	1355.430176	1111.642944	23.233473
856.805054	1042.318604	1351.937866	1114.094849	23.182100
857.104492	1043.433105	1350.823364	1121.896729	25.525736
857.403931	1045.662231	1352.532349	1115.283813	22.687637
857.703308	1039.569336	1353.424072	1115.655396	24.242445
858.002563	1041.798340	1347.182739	1109.413940	22.141144
858.301819	1036.374268	1345.399414	1108.522339	23.346991
858.601013	1040.238159	1343.690430	1101.835083	20.298719
858.900208	1037.711914	1343.021606	1105.178711	22.097824
859.199219	1033.848022	1339.306519	1113.574951	26.100740
859.498291	1036.448608	1345.547852	1116.101196	25.769260
859.797302	1029.687012	1356.098999	1115.432495	26.269098
860.096191	1037.414673	1351.046387	1103.023804	20.919163
860.395020	1034.888306	1345.622437	1108.373657	23.648947
860.693787	1041.055542	1342.353027	1108.373657	22.342741
860.992554	1040.535278	1351.789551	1113.797729	23.537813
861.291260	1035.036987	1343.096069	1109.191040	24.071373
861.589844	1038.157593	1336.260254	1111.791626	24.700897
861.888428	1038.380493	1324.520264	1108.819458	24.616978
862.186890	1042.987305	1332.024780	1103.469727	20.925461
862.485413	1039.940918	1324.148804	1100.051880	21.150351
862.783813	1046.108032	1328.755615	1097.302612	18.112513
863.082153	1044.993530	1324.074585	1101.314819	20.180979
863.380371	1044.027588	1329.052734	1103.989746	21.037498
863.678589	1035.705566	1330.984741	1106.293091	23.905352
863.976746	1043.433228	1334.402710	1101.017700	19.790554
864.274902	1045.587891	1330.316040	1097.005493	18.058489
864.572937	1043.358887	1327.492432	1096.485352	18.697710
864.870911	1035.854126	1320.507935	1099.457397	22.344078
865.168884	1038.009033	1322.960083	1101.983521	22.451044
865.466736	1046.628174	1327.046753	1102.503662	19.925743
865.764587	1049.005859	1337.820435	1107.259033	20.169748
866.062317	1049.897339	1334.402466	1103.469604	18.829983
866.360107	1048.114136	1328.383911	1099.011597	18.160168
866.657715	1046.702393	1323.851440	1096.856812	18.096552
866.955322	1043.581665	1328.532593	1094.850586	17.992193
867.252808	1045.067749	1328.904175	1098.194214	18.717281
867.550293	1041.278320	1321.845337	1091.061157	17.743652
867.847717	1037.934692	1320.433716	1091.135376	18.832165
868.145081	1031.767578	1319.393433	1093.141724	21.338188
868.442383	1035.482666	1322.959961	1096.931030	21.375032
868.739624	1034.739624	1322.365356	1094.404785	20.744028
869.036804	1038.380493	1321.696655	1088.163330	17.571478
869.333984	1042.467163	1318.055908	1093.438843	18.495560
869.631042	1043.804688	1315.158081	1092.695923	18.017551
869.928101	1039.569458	1316.347046	1096.559570	20.590580
870.224976	1034.442505	1311.814575	1089.129272	19.716032
870.521851	1038.008911	1314.489380	1096.708130	21.230873
870.818726	1046.033691	1320.953735	1094.702026	17.702723
871.115479	1041.872681	1324.966187	1103.469604	21.758509
871.412231	1040.609741	1317.387207	1107.333496	24.107365
871.708862	1030.578735	1301.412109	1113.872070	30.754457
872.005493	1031.173096	1300.074707	1099.828857	25.531927
872.302063	1031.693237	1311.294434	1094.776367	22.561825
872.598572	1031.841919	1314.935181	1098.045654	23.385839
872.895020	1032.213379	1325.114624	1106.739136	25.443987
873.191406	1033.030762	1324.074341	1112.386108	27.265795
873.487671	1039.049194	1331.578979	1104.509888	22.377445
873.783997	1038.603394	1327.789673	1104.435669	22.764660
874.080200	1036.968750	1324.817505	1094.033203	19.824457
874.376343	1036.671509	1321.028076	1102.355103	23.099024
874.672424	1045.290649	1323.925903	1109.859741	23.173340
874.968445	1045.885132	1328.161011	1111.568726	23.269291
875.264465	1044.547729	1332.990845	1100.571899	19.422953
875.560364	1041.798462	1328.235474	1092.547241	17.717257
875.856201	1042.467163	1323.777222	1092.844482	17.908112
876.152039	1047.371094	1317.981567	1096.856812	18.286697
876.447754	1043.953247	1317.833130	1102.726685	21.459568
876.743469	1041.872681	1317.981689	1110.974243	25.026913
877.039063	1039.643677	1318.353149	1110.008423	25.246630
877.334595	1044.547607	1314.043579	1111.048462	24.676010
877.630127	1044.770508	1315.901123	1107.184937	23.020060
877.925537	1041.352661	1322.068237	1108.076416	23.769167
878.221008	1040.609619	1322.588379	1101.017700	21.422918
878.516296	1039.940918	1330.018677	1101.463623	21.209040
878.811646	1037.265991	1339.380737	1101.760864	21.347807
879.106812	1040.832520	1358.179321	1110.454224	21.938681
879.401978	1040.312378	1376.086304	1108.373657	20.269972
879.697083	1042.244263	1393.027344	1116.546997	21.181961
879.992126	1033.848145	1425.349121	1116.769897	21.180471
880.287109	1035.482788	1460.420044	1135.345703	23.500626
880.582031	1034.665405	1532.047852	1149.388794	23.065428
880.876892	1040.832520	1653.978516	1177.623901	22.309757
881.171753	1044.101807	1886.174438	1221.239502	21.035917
881.466492	1052.572266	2248.028809	1312.929077	21.778860
881.761230	1055.544434	2738.278076	1442.735962	23.009674
882.055786	1049.154419	3237.592529	1577.075195	24.123177
882.350403	1040.758179	3593.948242	1662.523438	24.352488
882.644958	1030.281616	3671.371826	1685.037109	24.791105
882.939453	1030.652954	3486.209229	1645.062134	25.021183
883.233826	1036.299927	3143.302490	1564.963867	25.090809
883.528137	1044.176025	2769.857178	1467.330078	24.520987
883.822449	1049.228638	2453.178955	1386.488770	24.022226
884.116577	1045.439209	2190.592773	1323.703003	24.299255
884.410828	1043.804565	1993.913574	1273.622925	24.188631
884.704956	1046.033691	1829.630249	1238.031982	24.502186
884.999023	1044.176147	1721.742676	1211.357300	24.673761
885.292969	1045.736450	1640.678345	1190.849731	24.391169
885.586914	1045.364868	1586.957642	1166.106812	22.293861
885.880798	1051.977905	1544.679321	1153.103882	20.524799
886.174622	1053.761108	1508.345337	1146.713989	20.447889
886.468384	1050.343262	1477.509644	1145.302246	22.229977
886.762085	1043.135864	1457.893555	1138.169067	22.912945
887.055664	1035.259766	1439.763794	1134.751099	24.595882
887.349304	1030.430176	1428.395508	1124.125854	23.543678
887.642822	1034.591064	1405.213013	1122.862793	23.817188
887.936340	1034.665405	1384.036743	1110.156982	21.607834
888.229736	1042.541504	1367.615845	1109.191040	20.502859
888.523071	1038.826294	1358.550903	1100.943481	19.428341
888.816284	1043.433105	1351.046387	1105.178711	20.072477
889.109619	1042.392944	1330.910278	1105.401733	21.838823
889.402710	1040.461060	1306.762085	1102.206665	23.186394
889.695862	1038.157715	1294.947876	1103.395386	25.405050
889.988892	1032.362061	1283.653809	1097.525513	25.931393
890.281921	1030.281494	1269.239136	1092.695801	26.119402
>>>>>End Processed Spectral Data<<<<<
