Jaz Data File
++++++++++++++++++++++++++++++++++++
Date: Fri Jun 04 14:14:19 2021
User: jaz
Dark Spectrum Present: Yes
Reference Spectrum Present: Yes
Processed Spectrum Present: Yes
Spectrometers: JAZA3586
Integration Time (usec): 32300 (JAZA3586)
Spectra Averaged: 10 (JAZA3586)
Boxcar Smoothing: 1 (JAZA3586)
Correct for Electrical Dark: No (JAZA3586)
Strobe/Lamp Enabled: Yes (JAZA3586)
Correct for Detector Non-linearity: No (JAZA3586)
Correct for Stray Light: No (JAZA3586)
Number of Pixels in Processed Spectrum: 2048
>>>>>Begin Processed Spectral Data<<<<<
W	D	R	S	P
191.335022	0.000000	0.000000	0.000000	0.000000
191.713211	257.904755	256.047150	253.892395	215.996384
192.091385	521.828003	521.456482	524.280029	-659.996704
192.469528	783.224915	785.974182	789.689392	235.134537
192.847641	790.283691	797.268250	804.029785	196.806915
193.225739	793.775940	802.246521	805.070007	133.332855
193.603790	805.590088	812.277344	809.899658	64.444527
193.981842	810.196838	823.051270	812.723145	19.653193
194.359863	821.268005	825.131775	816.661194	-119.231010
194.737854	831.893250	824.537292	818.295898	184.848160
195.115829	839.472168	823.348450	819.410400	124.423950
195.493774	832.190430	827.583679	821.045105	241.934631
195.871704	822.531067	833.825134	821.862366	-5.920818
196.249603	825.057434	834.568115	826.320557	13.281095
196.627457	830.258606	832.190430	831.596008	69.230042
197.005310	831.447510	826.989258	842.964355	-258.326477
197.383133	831.744629	826.989258	843.187317	-240.626602
197.760910	837.317383	829.738464	844.599060	-96.078049
198.138687	839.843567	827.657959	836.871582	24.389303
198.516449	840.289490	822.233887	839.769348	2.880777
198.894180	830.853027	812.797424	837.168762	-34.979362
199.271866	824.908875	810.939941	834.939636	-71.807640
199.649536	823.199890	808.710754	828.772522	-38.460762
200.027191	826.989258	818.741699	815.472412	139.639450
200.404816	827.583679	821.193665	816.512634	173.255386
200.782410	822.233887	842.295654	820.970764	-6.296168
201.159988	816.809814	854.184082	823.868591	18.886730
201.537537	813.168945	870.902161	821.788086	14.929258
201.915070	805.961609	868.153015	811.162781	8.363168
202.292557	808.264954	869.862000	813.168945	7.961407
202.670029	806.407410	876.177734	811.014221	6.602824
203.047485	810.196838	874.468750	817.478516	11.329486
203.424911	805.887268	864.215027	818.147278	21.019169
203.802292	814.283508	855.744446	816.586914	5.555604
204.179688	810.494080	850.320313	813.391846	7.276023
204.557037	809.453857	857.007568	808.190674	-2.656330
204.934357	798.828613	858.122070	813.837646	25.313135
205.311661	805.441467	865.180847	813.168945	12.935317
205.688934	812.797546	860.722656	818.444519	11.782910
206.066177	819.781921	858.642273	812.500244	-18.738064
206.443390	819.559021	850.617493	816.215393	-10.765591
206.820587	809.305176	849.502991	820.079102	26.802267
207.197769	806.258789	847.942688	820.450684	34.046467
207.574921	798.457031	854.109802	821.119385	40.720978
207.952042	800.537598	860.574036	816.735535	26.980177
208.329147	796.376526	860.499817	818.370117	34.298912
208.706223	808.562195	869.118896	830.332825	35.950817
209.083267	811.311340	862.654541	828.698242	33.864079
209.460297	814.506348	861.391418	826.840637	26.307499
209.837280	805.590088	852.029236	811.682922	13.120039
210.214264	794.667542	855.595764	811.088440	26.951218
210.591217	794.221863	855.744385	807.076172	20.893663
210.968124	796.748047	857.453369	804.475525	12.729490
211.345016	809.230957	859.013733	802.840881	-12.835917
211.721893	808.265076	854.406982	803.583923	-10.145122
212.098724	807.150452	851.955017	813.168945	13.432769
212.475555	807.076172	849.874512	812.425964	12.500000
212.852356	813.094727	853.515320	818.890320	14.338220
213.229126	816.215393	855.670105	809.899658	-16.007555
213.605865	811.237122	856.561707	814.357849	6.885286
213.982590	800.760437	862.877441	815.472351	23.684198
214.359283	796.971008	866.072510	812.351624	22.258005
214.735931	800.537598	869.118896	809.528137	13.109317
215.112579	811.014160	861.540039	803.583923	-14.705804
215.489197	810.939880	858.567871	808.785095	-4.524199
215.865799	803.212402	855.149963	809.305237	11.731075
216.242355	803.063782	862.654541	796.376526	-11.221968
216.618896	799.125732	859.459473	797.788330	-2.216674
216.995407	806.184570	864.214905	794.073242	-20.870686
217.371902	801.577820	860.425476	815.100830	22.979692
217.748367	799.794495	861.019958	806.407471	10.801023
218.124802	802.023499	855.447266	805.887268	7.232305
218.501236	803.063782	857.156250	803.509583	0.824146
218.877609	813.317627	862.729004	806.258789	-14.285855
219.253983	808.636536	866.072571	811.385742	4.786553
219.630295	807.299133	866.741211	807.521973	0.374885
220.006592	802.766602	868.895996	807.893555	7.752911
220.382889	803.063782	867.632874	804.921387	2.876926
220.759140	804.252686	870.010559	809.453796	7.909488
221.135391	802.097900	870.530701	809.825378	11.292068
221.511581	796.525208	871.942383	807.001770	13.891480
221.887772	793.032959	878.926941	802.692200	11.245539
222.263931	793.181641	874.542969	808.933655	19.360567
222.640060	794.890564	883.682312	812.574524	19.916220
223.016159	795.187683	876.400574	811.237122	19.762180
223.392212	801.131897	881.453125	809.156677	9.990858
223.768265	804.772766	879.892822	810.419739	7.517263
224.144302	807.670593	885.762695	815.620911	10.180694
224.520294	801.429199	882.419128	812.054443	13.119217
224.896286	797.119629	884.499573	805.515808	9.608817
225.272217	795.113464	886.208557	805.887268	11.826985
225.648148	792.661438	896.610901	808.339294	15.082191
226.024048	793.553040	901.812073	814.357849	19.217621
226.399902	800.760437	913.031799	808.636536	7.015234
226.775772	804.698486	913.477600	803.286804	-1.297751
227.151581	809.156677	927.372253	812.723206	3.016970
227.527374	800.908997	935.619873	817.627197	12.410431
227.903137	801.057617	962.368835	822.754089	13.450070
228.278870	802.766602	983.470764	817.775696	8.305893
228.654572	807.299072	1014.157776	817.106995	4.741363
229.030273	816.661194	1043.581665	814.729309	-0.851349
229.405930	814.209229	1064.980835	810.791321	-1.362956
229.781555	818.444519	1078.429688	808.859436	-3.686781
230.157181	813.020325	1074.045776	811.534363	-0.569279
230.532761	811.459961	1068.621704	818.667419	2.802695
230.908325	803.063782	1055.470093	813.986267	4.327343
231.283859	805.515808	1050.046021	817.701416	4.983273
231.659332	806.704590	1037.340332	808.562195	0.805428
232.034821	808.636536	1032.584839	812.351624	1.658904
232.410263	806.555969	1024.263062	808.636475	0.955644
232.785690	807.299072	1020.473633	806.035889	-0.592558
233.161087	805.590088	1014.232178	804.846985	-0.356162
233.536469	798.902832	1015.495300	806.630310	3.567750
233.911804	792.884277	1017.278625	810.494080	7.847703
234.287140	794.890564	1021.439453	812.128723	7.609024
234.662430	794.741882	1029.315552	806.630371	5.068126
235.037704	801.354797	1036.151367	807.521973	2.626604
235.412933	799.274353	1040.312378	809.453796	4.223169
235.788162	801.057617	1037.117432	816.661133	6.609984
236.163345	801.354797	1036.077271	814.580750	5.634719
236.538513	803.361023	1043.804688	814.134949	4.480853
236.913635	802.395020	1052.720947	807.150574	1.899745
237.288742	803.881104	1062.528931	806.778992	1.120399
237.663834	801.652039	1071.519531	806.110168	1.651970
238.038879	805.812988	1079.618652	806.110168	0.108537
238.413910	802.395020	1085.637085	804.772766	0.839475
238.788910	804.401306	1087.420288	800.314636	-1.443956
239.163879	792.884277	1100.943481	798.977234	1.977852
239.538834	792.958679	1121.079468	805.961609	3.962848
239.913757	789.020569	1141.809937	807.076172	5.117956
240.288651	799.794434	1160.014160	812.351624	3.485981
240.663528	798.679932	1187.060425	818.667419	5.146368
241.038361	800.537537	1227.332397	826.320557	6.041080
241.413177	796.896667	1285.585571	826.469238	6.051410
241.787979	800.314636	1346.142456	817.478577	3.144570
242.162735	799.794434	1422.079712	816.512695	2.686591
242.537476	805.070007	1467.107300	818.444519	2.020205
242.912170	804.178284	1504.853027	820.970886	2.396633
243.286865	802.172180	1501.732300	821.490906	2.761553
243.661514	799.794495	1490.661133	823.645691	3.452359
244.036148	805.664368	1459.528320	819.707520	2.147718
244.410751	810.196960	1423.119995	817.850037	1.248619
244.785339	811.459961	1395.256470	817.775696	1.081838
245.159882	806.853210	1395.925171	825.280334	3.128162
245.534378	804.475586	1436.346069	831.893250	4.339127
245.908890	797.788330	1526.698120	831.298828	4.597345
246.283356	794.593262	1649.520508	835.162598	4.745355
246.657791	798.011169	1782.893921	835.979919	3.855154
247.032196	804.475525	1898.360229	837.466003	3.015901
247.406586	805.292786	1985.740234	830.704407	2.152711
247.780960	797.936951	2033.591187	832.116211	2.766086
248.155289	796.748108	2016.427124	839.100586	3.472428
248.529602	800.017395	1947.251343	836.351379	3.167095
248.903870	804.104065	1833.642456	831.224548	2.634237
249.278122	806.630371	1729.767212	817.181335	1.142947
249.652344	801.949219	1640.158203	824.314453	2.668217
250.026550	809.379456	1578.115356	821.045105	1.517511
250.400711	807.819153	1535.168457	836.425781	3.932997
250.774857	808.562195	1511.688843	836.277161	3.941675
251.148987	800.834717	1524.246094	842.964355	5.823746
251.523071	796.970947	1556.047485	833.527893	4.815976
251.897125	797.639648	1598.771606	835.013977	4.665190
252.271164	804.029724	1622.771484	829.887024	3.158175
252.645187	801.874939	1636.740601	827.286438	3.043783
253.019165	804.921387	1621.211060	822.085266	2.102670
253.393112	801.875000	1590.524048	828.401062	3.363481
253.767044	806.778870	1550.400513	830.332947	3.167481
254.140930	805.738708	1515.404175	829.069763	3.287613
254.514801	804.326904	1503.812622	827.583740	3.324848
254.888657	803.732483	1500.394897	825.577454	3.135661
255.262466	803.658203	1500.171875	831.001648	3.925759
255.636276	810.196838	1504.035767	829.887024	2.837861
256.010010	804.475586	1522.685669	839.249207	4.841706
256.383759	804.475586	1564.295288	834.419495	3.940923
256.757446	810.419861	1615.861328	831.893250	2.666040
257.131134	814.357910	1668.690430	827.955261	1.591576
257.504791	811.385742	1734.076782	828.623962	1.868255
257.878418	800.908997	1820.788086	834.196594	3.263877
258.252014	800.166016	1942.570313	841.478271	3.616255
258.625580	807.967773	2092.661865	855.670105	3.713128
258.999115	804.995667	2280.053467	858.345032	3.616764
259.372650	805.218567	2480.521973	857.824951	3.140111
259.746124	802.023621	2665.090088	861.317200	3.182580
260.119598	810.122559	2791.924805	865.700989	2.804439
260.493042	811.014160	2812.506592	868.970398	2.895651
260.866425	810.716980	2759.528564	863.249023	2.695594
261.239838	799.571594	2620.582764	856.041687	3.101029
261.613159	797.491028	2466.998779	857.230469	3.578267
261.986511	795.039063	2314.975342	849.725891	3.597969
262.359802	800.166016	2202.332275	855.967285	3.979647
262.733063	802.172119	2130.184814	849.428711	3.558444
263.106293	800.834717	2092.216064	849.874512	3.797468
263.479523	801.131897	2057.219238	840.140869	3.105594
263.852692	794.073181	2043.175903	835.682617	3.331146
264.225861	790.580872	2010.111328	834.939636	3.637364
264.598969	784.042297	2019.324829	838.431885	4.403008
264.972076	789.169189	2037.677734	835.459778	3.707671
265.345154	786.048523	2098.977539	846.530945	4.606679
265.718201	795.856445	2157.082275	844.747620	3.591702
266.091217	808.339355	2224.920654	855.893066	3.356935
266.464203	816.661194	2297.737305	847.199646	2.061910
266.837158	812.723145	2367.210205	852.772278	2.576357
267.210114	798.902832	2433.339844	852.846680	3.300454
267.583038	792.587097	2456.522217	859.533875	4.023401
267.955902	791.398254	2471.605469	856.413147	3.869457
268.328766	794.964844	2471.085693	854.778503	3.568577
268.701569	801.206238	2479.184570	853.961182	3.143959
269.074371	804.104004	2488.769775	858.493652	3.228513
269.447144	800.314636	2519.456787	870.233459	4.067077
269.819885	796.153625	2592.273438	867.409973	3.967238
270.192596	795.336365	2711.009033	872.239563	4.014423
270.565277	798.011230	2877.224365	868.747375	3.402063
270.937927	800.908997	3055.328125	877.143555	3.381561
271.310577	798.085510	3202.595947	879.595642	3.389885
271.683136	797.491028	3301.270264	892.895813	3.810431
272.055725	792.289856	3338.495361	895.050598	4.035839
272.428284	792.661438	3330.619873	897.651184	4.136779
272.800812	793.701721	3265.233154	885.391174	3.709823
273.173279	800.537537	3173.246338	874.617371	3.122163
273.545776	801.577698	3100.206787	870.679260	3.006207
273.918152	812.500244	3021.891602	868.153015	2.518919
274.290558	813.391907	2979.464844	880.338684	3.090698
274.662964	812.871765	2951.527344	882.344788	3.248444
275.035278	799.868835	2974.560791	884.871094	3.908704
275.407593	794.221863	3008.071289	882.344727	3.980527
275.779907	796.376526	3071.154297	879.669739	3.661598
276.152161	798.828613	3143.748047	883.087708	3.593262
276.524384	804.995667	3203.190430	884.945313	3.333743
276.896606	798.828613	3241.902100	881.601807	3.388076
277.268799	802.172180	3256.242432	885.688477	3.403175
277.640930	799.943054	3271.325928	882.642090	3.346266
278.013031	810.494080	3277.344482	890.369568	3.237954
278.385162	810.568359	3270.656982	887.917480	3.144160
278.757233	813.391907	3277.492920	887.100159	2.991284
279.129272	806.333191	3292.725342	888.214661	3.293184
279.501282	807.893555	3332.997314	883.087830	2.977869
279.873230	804.252747	3411.238037	895.050598	3.482868
280.245178	804.772766	3522.023438	895.422058	3.336066
280.617126	805.070007	3670.034180	901.663574	3.371546
280.988983	804.475525	3813.884033	899.211487	3.147993
281.360870	812.425964	3967.764893	910.208313	3.098949
281.732697	799.645813	4073.943604	914.963684	3.521911
282.104492	796.450867	4140.964355	914.220703	3.521285
282.476288	796.971008	4149.286621	914.072083	3.493140
282.848053	807.001953	4144.159668	911.322937	3.126043
283.219757	820.450684	4139.032715	915.112305	2.852472
283.591461	812.500305	4110.054688	909.539612	2.942766
283.963135	811.534363	4117.782227	909.911133	2.975481
284.334747	806.407410	4168.085449	916.821289	3.284487
284.706360	808.190674	4262.970215	920.536438	3.251894
285.077942	811.237122	4373.532715	928.338196	3.287236
285.449524	806.035950	4472.949219	922.765564	3.183321
285.821014	802.172180	4523.475098	927.446594	3.366413
286.192535	799.051453	4574.744141	924.846008	3.331695
286.563995	798.308411	4571.549316	927.298035	3.418537
286.935425	797.862610	4568.577148	920.610779	3.255303
287.306824	796.450867	4486.695801	915.706726	3.231652
287.678223	795.707825	4394.188477	915.632385	3.332644
288.049561	798.828552	4306.362793	913.254700	3.262296
288.420898	806.333191	4258.957520	915.112305	3.150621
288.792145	808.710754	4269.954590	910.579834	2.943135
289.163452	806.481750	4384.009277	913.180359	2.982468
289.534668	797.416809	4541.085449	914.072021	3.116067
289.905914	802.915222	4690.136230	913.031799	2.832784
290.277039	805.738770	4797.355469	915.781067	2.756835
290.648193	809.899719	4865.639160	920.387878	2.724242
291.019318	806.110291	4901.230469	932.722107	3.091773
291.390381	800.166016	4846.469238	939.929504	3.454103
291.761475	796.302307	4764.216309	944.387512	3.732067
292.132507	797.936951	4678.024902	941.489746	3.699730
292.503510	808.710876	4640.353516	933.910828	3.267527
292.874481	811.980164	4661.752441	932.276184	3.124757
293.245422	811.757263	4762.358887	929.824280	2.988583
293.616364	802.840881	4938.604980	942.530029	3.377590
293.987213	794.221741	5099.990234	949.737366	3.611797
294.358093	787.460205	5244.211914	964.449280	3.971257
294.728943	791.918396	5378.848633	958.802307	3.638248
295.099731	801.800598	5532.357910	964.969482	3.449253
295.470490	808.116394	5673.458496	954.790039	3.014663
295.841248	807.819153	5775.178223	962.368896	3.111306
296.211975	811.831543	5920.068848	966.975586	3.037135
296.582642	812.723145	6054.185547	980.944519	3.209436
296.953308	813.540527	6154.123047	983.173584	3.176302
297.323883	809.082336	6158.432129	985.105408	3.290551
297.694519	808.562256	6048.613281	983.099304	3.330827
298.065063	811.980164	5886.410156	983.842285	3.386826
298.435608	806.407410	5672.417969	973.142761	3.426531
298.806122	804.252686	5434.426270	956.424622	3.286527
299.176575	795.782166	5210.255371	943.421692	3.344443
299.547028	800.983398	5050.801758	934.653870	3.145322
299.917450	801.206238	4992.622559	937.551758	3.252970
300.287872	801.875000	4987.718750	942.009949	3.347830
300.658234	803.063782	4966.542480	943.941711	3.383659
301.028564	799.422913	4921.812500	940.598145	3.424597
301.398865	802.023621	4869.502441	933.390808	3.229696
301.769135	800.091736	4815.410645	925.811951	3.131015
302.139374	811.980164	4785.392578	929.452820	2.956468
302.509583	811.905945	4730.779785	929.229797	2.993816
302.879791	810.048279	4652.687500	933.390808	3.209839
303.249939	803.138123	4583.809082	928.561096	3.317479
303.620087	807.596252	4522.583984	925.366028	3.170125
303.990173	803.138184	4508.243652	920.164856	3.158525
304.360260	808.339355	4496.058105	921.428040	3.066630
304.730286	806.035950	4485.358398	931.458923	3.408860
305.100281	810.494080	4478.150879	934.951111	3.393366
305.470276	803.509583	4466.039063	935.471191	3.603018
305.840179	804.104004	4505.196777	919.198914	3.109755
306.210144	805.441467	4537.295898	920.759277	3.090094
306.579987	806.333069	4583.734863	929.675598	3.265274
306.949890	805.515808	4615.907715	939.632263	3.519755
307.319702	809.379456	4679.064941	938.517639	3.337175
307.689484	810.345459	4784.946289	932.796387	3.080836
308.059265	812.500244	4924.189941	932.945007	2.929325
308.429016	806.258850	5056.746582	935.471252	3.039943
308.798737	802.915222	5153.042969	940.598145	3.165032
309.168396	800.463196	5217.611816	950.406067	3.394563
309.538055	805.367188	5229.574219	958.133606	3.452967
309.907684	811.088562	5234.552734	952.858154	3.204945
310.277313	812.574646	5232.843262	949.885986	3.106403
310.646851	814.654968	5243.542969	948.251282	3.016475
311.016388	812.871765	5225.933105	944.536133	2.983515
311.385895	804.698425	5156.311035	950.034607	3.339823
311.755371	799.497253	5106.157227	938.889160	3.236659
312.124817	797.416809	5030.962891	950.183167	3.608473
312.494232	800.091736	4976.647949	934.133789	3.209392
312.863617	800.760498	4917.429199	945.056335	3.505160
313.232971	794.593323	4920.995117	943.421570	3.606732
313.602295	794.741882	4977.464844	949.291565	3.694954
313.971619	801.949219	5081.785645	940.077942	3.227430
314.340820	804.995605	5137.735840	939.037781	3.093704
314.710083	811.385742	5151.481934	947.954102	3.146667
315.079285	806.407471	5085.129395	947.805481	3.304679
315.448486	813.317627	5016.548340	942.752930	3.079424
315.817596	808.190735	4878.567871	926.406311	2.904290
316.186707	806.184570	4732.340332	932.870667	3.226721
316.555786	799.423035	4601.418945	935.322693	3.574430
316.924866	804.772766	4514.261719	943.347351	3.735678
317.293884	795.484924	4489.890137	933.167908	3.726797
317.662872	800.611816	4493.456543	937.923279	3.718311
318.031830	793.998840	4541.308105	930.195740	3.634525
318.400757	802.766602	4588.564941	934.356628	3.475886
318.769684	803.732605	4627.425293	926.926453	3.221855
319.138550	803.435303	4644.217285	936.362793	3.460949
319.507416	802.395203	4626.384766	935.099792	3.470318
319.876190	804.252686	4567.388184	932.127625	3.398096
320.244995	812.351746	4495.091797	930.938782	3.220076
320.613770	815.398132	4425.767578	930.715881	3.194071
320.982483	808.190674	4408.306152	928.115234	3.331131
321.351166	804.698425	4431.488770	917.564270	3.112004
321.719818	807.150391	4504.973633	919.347473	3.034139
322.088440	808.190735	4626.681641	922.096680	2.983009
322.457062	800.834778	4794.754395	937.551758	3.423128
322.825623	797.416809	4980.733887	944.907715	3.525693
323.194183	798.159851	5133.872070	947.434082	3.442900
323.562653	805.812988	5230.540527	946.170898	3.172126
323.931183	807.967773	5269.697754	944.907715	3.069212
324.299591	811.162781	5252.013672	953.303955	3.200764
324.668060	805.961609	5203.047852	955.607239	3.403291
325.036407	802.543640	5115.965332	950.629089	3.433132
325.404755	800.166016	5015.285156	944.164734	3.416243
325.773102	801.875000	4910.890137	932.647766	3.182582
326.141388	803.286804	4817.342773	933.242188	3.237508
326.509674	810.419861	4730.185547	923.508484	2.885086
326.877899	813.986328	4657.740234	922.914063	2.833889
327.246124	814.209229	4609.443359	920.016296	2.787893
327.614288	810.568359	4565.753418	916.895569	2.831477
327.982422	809.825378	4551.933105	915.929626	2.835414
328.350525	803.361023	4542.496582	923.434265	3.211257
328.718628	791.398254	4577.567871	930.864502	3.683571
329.086700	792.661438	4610.632813	939.483582	3.845554
329.454712	799.943054	4676.019043	934.579590	3.473527
329.822693	811.757141	4738.656738	942.752930	3.335858
330.190674	810.271179	4782.866699	944.907715	3.389133
330.558563	804.772766	4819.571777	942.232727	3.423832
330.926483	800.537537	4886.369629	945.502136	3.547982
331.294312	806.184570	4989.799316	950.628906	3.452621
331.662231	813.763367	5112.398926	964.969421	3.517536
332.029999	813.168945	5219.766113	963.632019	3.414496
332.397766	811.088562	5298.155273	957.985046	3.273775
332.765503	808.042053	5339.839355	956.424622	3.274254
333.133240	816.586914	5372.310059	961.328613	3.177140
333.500916	817.478516	5388.136719	966.901306	3.269175
333.868561	817.701477	5382.414551	966.083984	3.250643
334.236176	809.156677	5333.077637	966.009705	3.467192
334.603790	809.230957	5290.130859	958.950928	3.341292
334.971344	809.453918	5260.112793	960.288330	3.389036
335.338867	816.289734	5263.233887	951.669250	3.044327
335.706360	813.391846	5246.737793	959.991211	3.306743
336.073853	813.243225	5259.220703	954.418518	3.175349
336.441284	803.286682	5265.388184	958.356628	3.475267
336.808655	803.658203	5301.647949	956.796143	3.404586
337.176086	798.382751	5330.031250	969.873352	3.784287
337.543396	805.367188	5350.390625	975.074646	3.733918
337.910706	802.246399	5380.705566	976.857849	3.813760
338.277954	803.583923	5364.656738	972.771240	3.709376
338.645264	803.881104	5341.845703	975.223206	3.775748
339.012421	802.915222	5262.787598	971.136536	3.771886
339.379669	807.596191	5161.512695	960.734192	3.517247
339.746796	805.292908	5074.652832	950.406067	3.398944
340.113953	811.162781	5027.842285	952.115051	3.342731
340.481018	815.323730	5025.761719	960.511292	3.448277
340.848114	814.506409	5038.616699	967.049866	3.611256
341.215118	804.029724	5111.655762	977.155090	4.019043
341.582153	798.531311	5248.669434	979.235535	4.060643
341.949066	799.348694	5408.420410	987.111633	4.073769
342.316010	799.868835	5597.966309	996.993958	4.108402
342.682922	807.447693	5795.537598	1006.950500	3.999583
343.049835	804.401306	6068.154297	1024.040161	4.172667
343.416656	809.082336	6354.814453	1032.287720	4.024814
343.783478	796.302246	6631.145996	1048.039917	4.314386
344.150269	799.868835	6848.853027	1053.686890	4.196044
344.516998	798.754211	6942.697754	1054.875732	4.168683
344.883728	806.333191	6931.403809	1054.429810	4.050510
345.250427	806.481750	6840.011719	1053.389771	4.092265
345.617065	812.648865	6691.554688	1046.405273	3.976189
345.983704	815.918213	6538.564941	1038.232056	3.884808
346.350281	819.781921	6380.968750	1022.628418	3.647540
346.716827	817.924377	6236.301270	1022.554016	3.776586
347.083405	814.729309	6118.978027	1017.427185	3.821425
347.449860	808.413574	5995.709473	1029.984375	4.271412
347.816376	809.008057	5927.574219	1021.439636	4.150217
348.182770	805.515808	5910.038574	1023.000000	4.260617
348.549194	807.967773	5942.657715	1022.999817	4.187829
348.915558	804.698486	6032.117676	1030.652954	4.322486
349.281921	805.664368	6109.466797	1038.677734	4.393327
349.648193	799.051453	6185.479004	1037.711792	4.430772
350.014526	802.692322	6223.075684	1046.330933	4.494859
350.380737	804.401306	6249.898926	1048.262695	4.478220
350.746948	813.168945	6285.415527	1050.491821	4.336845
351.113159	811.905823	6327.842285	1060.671265	4.509940
351.479309	809.973938	6388.770996	1062.677490	4.529714
351.845428	807.001892	6495.097656	1076.869263	4.744424
352.211517	803.509583	6617.697266	1074.045776	4.653035
352.577576	805.515808	6772.916016	1086.157227	4.702909
352.943604	807.819153	6941.136719	1088.311890	4.573263
353.309601	811.980164	7114.336426	1100.497559	4.577929
353.675537	806.704590	7298.235840	1111.345703	4.692901
354.041473	800.760437	7448.625000	1122.119751	4.834023
354.407379	797.342468	7590.171875	1122.491333	4.786648
354.773254	798.531311	7729.786621	1128.807007	4.765020
355.139038	803.138123	7871.185059	1137.500366	4.730617
355.504913	799.868835	8127.604004	1153.995605	4.832691
355.870636	797.862610	8404.604492	1162.391724	4.792185
356.236389	792.141296	8745.356445	1176.063477	4.827258
356.602081	796.599426	9041.749023	1186.391602	4.727533
356.967804	798.308411	9271.122070	1198.279907	4.720645
357.333405	804.624207	9419.058594	1195.828003	4.541259
357.699036	806.630310	9452.717773	1201.549194	4.567602
358.064606	808.116394	9430.129883	1196.645386	4.506244
358.430176	803.806824	9351.590820	1197.759888	4.608833
358.795654	799.274353	9359.245117	1200.137573	4.682998
359.161163	792.735657	9487.789063	1209.276855	4.790554
359.526581	791.546875	9800.306641	1228.966919	4.855497
359.892029	791.992676	10315.522461	1251.406372	4.823986
360.257416	796.525208	10903.850586	1285.808594	4.840879
360.622772	797.119629	11484.674805	1301.858032	4.722674
360.988098	797.491150	11891.407227	1311.740112	4.635414
361.353394	797.639709	12164.692383	1322.959961	4.621429
361.718658	796.822327	12099.456055	1322.068359	4.647112
362.083893	796.896667	11757.588867	1304.830200	4.634137
362.449097	795.930847	11131.215820	1260.099854	4.491110
362.814209	796.673828	10449.860352	1227.332397	4.461310
363.179382	791.546875	9734.176758	1206.453247	4.639646
363.544434	800.983398	9192.806641	1201.029175	4.767090
363.909546	802.320801	8796.773438	1193.524536	4.893440
364.274536	809.973938	8552.317383	1181.933228	4.804221
364.639587	805.218567	8363.663086	1172.199707	4.855247
365.004517	806.778992	8266.474609	1159.716797	4.731263
365.369507	806.555969	8193.880859	1162.391724	4.816842
365.734344	810.939941	8168.470215	1160.385620	4.749497
366.099274	816.512634	8137.188965	1165.884033	4.772392
366.464081	812.128723	8110.959473	1162.243286	4.796858
366.828918	802.469421	8041.634766	1157.487793	4.904134
367.193665	791.918396	7968.893066	1147.308350	4.951807
367.558411	795.856445	7910.045410	1143.518921	4.886889
367.923126	794.890442	7826.306152	1135.865723	4.849312
368.287781	800.983398	7753.191406	1136.980347	4.832953
368.652435	801.057617	7681.267090	1133.785278	4.836010
369.017059	798.828613	7692.189453	1136.014404	4.891457
369.381653	803.138123	7698.505371	1135.717163	4.823225
369.746185	805.218567	7765.600098	1135.196899	4.740808
370.110687	813.763428	7829.946777	1137.500366	4.614146
370.475220	805.961670	7944.372559	1147.011108	4.777666
370.839661	801.949219	8030.935547	1145.822266	4.756864
371.204041	798.457031	8097.956543	1153.029541	4.857491
371.568451	793.850281	8088.000000	1150.131836	4.884484
371.932770	792.810059	8061.993652	1151.989380	4.941123
372.297150	799.274414	8015.108887	1147.605591	4.827317
372.661377	807.744873	8024.768066	1151.395020	4.761661
373.025696	813.317566	8024.471191	1155.407349	4.743898
373.389862	811.459961	8078.340332	1153.326782	4.704451
373.754059	812.128723	8160.742188	1150.131958	4.599551
374.118225	807.150391	8299.688477	1152.658203	4.611359
374.482361	801.800598	8479.426758	1164.992432	4.730523
374.846436	802.989502	8701.145508	1173.983032	4.697217
375.210510	801.652039	8995.979492	1182.230591	4.644415
375.574524	799.645935	9297.053711	1184.979858	4.534723
375.938538	796.227966	9605.558594	1197.685547	4.557186
376.302460	799.125732	9902.918945	1214.477905	4.562408
376.666412	803.881165	10116.315430	1236.917358	4.650086
377.030304	801.132019	10213.875000	1243.530396	4.699994
377.394196	791.175354	10105.467773	1242.490112	4.845401
377.757996	790.655273	9923.127930	1227.332397	4.781587
378.121796	785.974121	9601.545898	1211.803101	4.830418
378.485565	792.735657	9292.446289	1202.812500	4.824597
378.849304	791.398254	9007.942383	1190.552612	4.857935
379.212982	799.571594	8845.813477	1176.732300	4.687415
379.576630	807.893555	8722.619141	1168.335938	4.554073
379.940277	810.568359	8681.752930	1163.506226	4.483923
380.303864	808.636536	8635.165039	1181.487427	4.763937
380.667450	806.853210	8678.409180	1187.208862	4.832026
381.030945	809.156555	8663.623047	1195.233521	4.915381
381.394501	810.122559	8706.124023	1190.403809	4.816124
381.757935	817.329895	8735.250977	1177.400879	4.547544
382.121399	816.363953	8811.930664	1181.190308	4.562858
382.484741	818.667419	8982.233398	1186.614380	4.507185
382.848145	804.698425	9147.110352	1204.224243	4.789093
383.211487	799.943054	9305.672852	1213.363403	4.860493
383.574768	796.302246	9395.059570	1222.874146	4.960855
383.938019	793.701660	9452.866211	1216.335571	4.880770
384.301270	796.302246	9487.045898	1214.032104	4.806606
384.664459	798.308411	9506.289063	1211.654419	4.746749
385.027649	806.853271	9518.401367	1216.335571	4.700454
385.390778	809.305237	9613.731445	1225.623413	4.728510
385.753876	806.184570	9714.709961	1234.762573	4.810875
386.116943	800.983337	9835.081055	1247.542603	4.943042
386.479980	795.113342	9879.290039	1257.647827	5.091650
386.842987	800.017395	9921.271484	1256.013062	4.999265
387.205994	811.088562	9937.840820	1249.771729	4.806564
387.568909	811.608582	9958.199219	1235.802856	4.637731
387.931793	803.658203	9895.859375	1240.335327	4.802766
388.294678	795.707825	9866.138672	1235.951416	4.853613
388.657471	799.348694	9834.114258	1245.833740	4.941855
389.020294	806.035950	9880.331055	1248.211426	4.872836
389.383057	805.961670	10024.180664	1271.765381	5.053077
389.745819	799.720215	10200.128906	1267.901611	4.980437
390.108521	796.079407	10440.276367	1272.359741	4.938517
390.471191	788.054688	10743.133789	1282.836548	4.970145
390.833801	791.546875	11019.539063	1302.452393	4.995169
391.196442	791.249695	11272.539063	1316.347046	5.009855
391.558960	796.599426	11314.148438	1311.145752	4.892265
391.921509	805.069885	11296.614258	1313.151978	4.842777
392.284027	808.487854	11218.893555	1305.944702	4.778458
392.646484	819.856201	11159.303711	1300.594727	4.649557
393.008911	811.460022	11127.797852	1293.164551	4.669336
393.371307	815.843933	11124.454102	1296.953979	4.667070
393.733673	809.007996	11102.237305	1306.167480	4.829966
394.096008	811.014160	11036.108398	1308.768066	4.867964
394.458344	803.138000	10908.604492	1302.823853	4.944708
394.820587	793.255859	10729.237305	1288.334839	4.982688
395.182831	792.884277	10536.050781	1267.455811	4.870814
395.545013	791.844055	10284.387695	1245.387817	4.777895
395.907196	803.806824	10028.934570	1232.979370	4.652213
396.269287	806.035950	9844.516602	1232.459229	4.717865
396.631409	811.237061	9753.125000	1243.233154	4.831151
396.993469	806.927490	9733.582031	1247.839844	4.939279
397.355530	811.831482	9724.517578	1249.251587	4.907837
397.717499	809.825256	9757.359375	1251.926514	4.941040
398.079468	809.973938	9803.948242	1250.217651	4.894874
398.441376	798.457031	9819.699219	1251.109253	5.017626
398.803284	802.320801	9792.801758	1245.165039	4.925702
399.165131	799.720215	9767.315430	1249.697632	5.017816
399.526978	804.475525	9730.609375	1248.434326	4.973697
399.888763	802.172119	9711.885742	1247.988403	5.003710
400.250519	803.881165	9710.102539	1243.084473	4.931421
400.612244	802.766602	9747.996094	1247.468384	4.971385
400.973938	801.057617	9816.131836	1255.938843	5.045784
401.335602	803.435364	9882.039063	1268.496094	5.122602
401.697205	802.320801	10044.390625	1281.201782	5.181534
402.058807	804.401184	10212.016602	1284.619629	5.104571
402.420349	800.908997	10482.553711	1294.279175	5.095933
402.781860	802.172180	10715.566406	1293.758911	4.958813
403.143341	798.902832	10978.969727	1304.755859	4.969054
403.504822	795.782166	11204.479492	1315.752563	4.995538
403.866241	798.977112	11379.981445	1333.362305	5.050421
404.227631	804.921387	11511.793945	1335.888672	4.959126
404.588959	810.345459	11542.557617	1335.442749	4.892722
404.950287	811.311462	11516.402344	1333.808228	4.880825
405.311554	811.831543	11418.098633	1320.656616	4.797400
405.672821	810.791321	11302.632813	1308.545166	4.744199
406.034027	811.831543	11146.299805	1296.136597	4.686308
406.395203	802.989502	10929.781250	1297.474121	4.882935
406.756348	804.252686	10773.522461	1294.353394	4.916114
407.117493	807.224792	10699.814453	1287.814819	4.858081
407.478516	812.946106	10733.995117	1292.570190	4.834409
407.839600	810.865540	10818.847656	1295.542114	4.842900
408.200592	801.354797	10929.484375	1298.588745	4.909435
408.561554	799.348633	11044.653320	1300.149048	4.888097
408.922485	806.110168	11160.789063	1299.480347	4.764708
409.283417	812.277344	11278.484375	1309.139771	4.747302
409.644257	813.837708	11408.809570	1317.981689	4.758333
410.005096	807.150452	11527.472656	1330.167358	4.878742
410.365906	806.927551	11531.484375	1324.891846	4.829703
410.726715	805.070007	11509.045898	1321.028076	4.820247
411.087433	805.367188	11411.262695	1318.947632	4.842405
411.448120	793.553040	11348.105469	1324.074341	5.026469
411.808807	793.627441	11290.446289	1324.966187	5.061903
412.169434	787.460266	11213.692383	1320.730835	5.114701
412.530029	789.020569	11261.247070	1325.634888	5.124166
412.890564	790.580872	11352.415039	1327.269531	5.081397
413.251099	796.153625	11516.550781	1341.461304	5.086637
413.611572	798.159851	11662.926758	1344.136230	5.025201
413.972076	798.977234	11805.885742	1351.269287	5.017685
414.332489	797.936951	11937.773438	1350.674805	4.961813
414.692871	805.292908	12145.523438	1361.523071	4.904928
415.053223	803.138184	12320.356445	1369.622070	4.918582
415.413574	805.813049	12608.280273	1385.299927	4.909879
415.773834	801.875000	12840.104492	1393.621704	4.915563
416.134094	803.806824	13171.270508	1410.637085	4.906667
416.494263	804.549866	13435.416992	1419.999390	4.872583
416.854462	806.704651	13833.234375	1434.042480	4.815848
417.214630	803.138123	14245.245117	1446.971191	4.789674
417.574738	800.388916	14734.230469	1459.974243	4.733693
417.934784	797.268250	15218.164063	1496.828247	4.851017
418.294861	802.395081	15787.395508	1529.818726	4.854345
418.654846	801.503418	16385.087891	1574.177368	4.958256
419.014832	805.738586	17045.416016	1600.406250	4.893371
419.374756	803.212402	17716.072266	1631.316284	4.896297
419.734680	802.320801	18493.798828	1666.833008	4.886602
420.094543	796.525208	19100.552734	1695.588257	4.911832
420.454376	800.908997	19548.003906	1717.507446	4.889282
420.814148	804.624207	19772.548828	1725.606445	4.855472
421.173920	811.014160	19996.273438	1730.733276	4.793884
421.533691	809.379456	20106.539063	1726.052124	4.750299
421.893341	804.326904	20191.986328	1728.504272	4.766833
422.253021	801.206238	20172.222656	1722.337036	4.755201
422.612640	799.125732	20144.732422	1729.767456	4.810610
422.972260	798.159851	20128.904297	1725.234863	4.795858
423.331757	803.881104	20189.460938	1739.426636	4.825987
423.691315	810.791260	20366.228516	1745.296509	4.778749
424.050781	819.261780	20430.871094	1754.956055	4.771124
424.410248	814.729309	20287.986328	1740.838379	4.755799
424.769653	800.091736	19991.072266	1724.789063	4.818396
425.128998	792.810059	19617.328125	1698.114258	4.809176
425.488373	788.723450	19157.248047	1677.235352	4.837143
425.847656	793.850281	18682.750000	1654.052856	4.808583
426.206940	802.023499	18203.646484	1631.984985	4.769449
426.566193	807.001770	17767.341797	1614.300781	4.759923
426.925385	807.447693	17308.892578	1599.291626	4.798634
427.284576	806.778992	16835.957031	1576.257813	4.800488
427.643677	810.791260	16454.933594	1550.251953	4.726758
428.002777	810.568359	16190.266602	1528.778442	4.669858
428.361847	811.608582	15967.432617	1525.286255	4.708933
428.720856	800.760437	15742.741211	1523.800171	4.838982
429.079865	799.571594	15549.851563	1517.558716	4.867617
429.438812	797.193909	15484.613281	1509.534180	4.850003
429.797760	800.983337	15476.067383	1510.574341	4.835345
430.156616	800.091736	15313.418945	1506.041870	4.864151
430.515503	795.187683	15174.695313	1512.432007	4.987962
430.874268	794.519043	15117.854492	1508.865356	4.987290
431.233093	795.336365	15246.472656	1513.472168	4.969407
431.591827	793.107239	15427.176758	1510.500000	4.902210
431.950562	790.358093	15599.039063	1513.992188	4.886553
432.309204	789.986511	15776.547852	1519.267700	4.866234
432.667877	799.645813	15952.793945	1529.001343	4.813228
433.026459	806.853271	16058.081055	1540.443970	4.810044
433.385010	812.425964	16119.083008	1549.286133	4.813985
433.743561	801.726379	16153.114258	1550.549194	4.877883
434.102051	794.964844	16182.463867	1549.954712	4.906515
434.460510	800.166016	16259.367188	1553.001099	4.869819
434.818939	802.766602	16238.264648	1552.480957	4.857079
435.177338	807.967773	16208.172852	1550.251953	4.819963
435.535675	804.104004	16148.433594	1550.103394	4.861727
435.894012	808.636536	16127.628906	1552.629761	4.856672
436.252289	805.218567	16276.457031	1557.013672	4.859308
436.610535	801.280518	16355.069336	1567.638794	4.927148
436.968719	799.348633	16629.171875	1584.282593	4.958577
437.326935	797.342468	16878.382813	1605.310181	5.024350
437.685028	794.370422	17204.498047	1615.786987	5.005547
438.043152	797.714050	17453.337891	1624.331909	4.962996
438.401215	801.652039	17788.072266	1627.229492	4.860220
438.759277	808.636536	18164.265625	1645.582397	4.822331
439.117249	807.373352	18684.535156	1671.216797	4.832106
439.475250	807.299133	19102.117188	1701.681030	4.888717
439.833130	807.076172	19609.007813	1724.789063	4.880950
440.191071	808.339355	19806.431641	1719.736450	4.797308
440.548889	810.048279	19972.052734	1720.850952	4.753170
440.906708	804.029785	19922.640625	1710.820190	4.742972
441.264496	803.881165	19787.111328	1711.711792	4.782277
441.622223	816.884094	19530.025391	1699.674805	4.717491
441.979950	814.655029	19175.896484	1681.544922	4.721303
442.337616	815.620911	18917.917969	1675.526245	4.750256
442.695251	796.822327	18631.183594	1663.415039	4.859118
443.052887	802.246399	18494.541016	1667.501587	4.890576
443.410461	798.011230	18528.720703	1671.588257	4.926915
443.768005	803.806824	18704.445313	1685.928711	4.927879
444.125458	803.435364	18940.656250	1697.000000	4.926690
444.482941	811.385742	19302.732422	1714.312500	4.882969
444.840393	812.723145	19815.941406	1723.303101	4.791714
445.197754	807.521973	20339.849609	1741.358521	4.780979
445.555084	802.246521	20760.328125	1751.166504	4.754565
445.912415	804.401306	21086.666016	1773.754517	4.779314
446.269714	812.128723	21285.351563	1793.519165	4.793532
446.626953	807.001892	21341.228516	1800.726563	4.839358
446.984161	797.193848	21230.814453	1791.290039	4.865003
447.341309	795.782166	21007.238281	1763.575195	4.788339
447.698456	798.457031	20720.132813	1747.822876	4.765492
448.055542	796.450928	20486.820313	1744.404907	4.814303
448.412598	794.667664	20144.880859	1735.785767	4.863606
448.769653	794.816162	19780.349609	1716.021362	4.852143
449.126617	798.754211	19268.701172	1692.244507	4.837536
449.483582	798.902893	18935.826172	1683.996948	4.880067
449.840515	806.258789	18610.826172	1672.925781	4.867667
450.197388	812.648865	18395.644531	1663.192017	4.837305
450.554230	819.410400	18211.968750	1644.987915	4.746728
450.911041	814.654968	18112.771484	1638.820801	4.764483
451.267822	812.277344	18131.349609	1637.037598	4.762150
451.624573	812.203125	18182.990234	1641.272827	4.772781
451.981262	812.425964	18161.369141	1636.443237	4.749668
452.337921	810.048279	18022.201172	1633.025391	4.781373
452.694580	795.707825	17715.701172	1617.050171	4.854271
453.051147	801.800720	17488.781250	1611.997559	4.855263
453.407715	806.110291	17107.755859	1592.604492	4.824631
453.764221	816.215332	16960.486328	1596.839844	4.835303
454.120728	803.732483	16611.412109	1576.555054	4.888906
454.477142	798.828430	16547.810547	1579.155640	4.954779
454.833557	800.017334	16406.115234	1567.341431	4.916822
455.189911	801.131897	16406.783203	1571.576782	4.936961
455.546265	802.172180	16430.708984	1577.372437	4.960159
455.902557	796.748108	16471.054688	1570.313599	4.935246
456.258820	801.652100	16681.554688	1575.589233	4.873690
456.615051	799.720215	16942.728516	1584.654175	4.862377
456.971252	805.441467	17248.113281	1605.310181	4.864591
457.327393	805.887390	17769.199219	1631.093262	4.864651
457.683502	803.955383	18398.765625	1655.836060	4.841659
458.039612	805.664368	19363.511719	1704.430054	4.843049
458.395630	799.348633	20280.183594	1766.026978	4.962202
458.751648	806.110168	21135.853516	1805.630493	4.916542
459.107605	792.438477	21930.744141	1838.175171	4.947117
459.463562	796.079346	22372.101563	1848.651733	4.878436
459.819458	790.135193	22440.312500	1844.936523	4.872021
460.175323	792.067078	21982.312500	1817.964478	4.841366
460.531158	792.067078	21337.365234	1768.627563	4.753207
460.886932	791.992737	20594.783203	1731.550781	4.744574
461.242676	800.017395	19863.050781	1696.034058	4.700284
461.598419	799.497314	19178.201172	1681.693481	4.800100
461.954102	805.887390	18529.166016	1663.340820	4.838006
462.309723	807.819153	18002.955078	1640.232544	4.840981
462.665344	809.528137	17601.869141	1620.393677	4.828782
463.020905	817.404297	17358.080078	1606.276245	4.769285
463.376373	809.156555	17257.251953	1608.133789	4.857567
463.731873	813.763367	17201.003906	1607.762207	4.845226
464.087341	800.760437	17223.072266	1611.551758	4.937132
464.442749	807.670593	17327.542969	1624.257446	4.943058
464.798126	799.051453	17418.861328	1630.498901	5.002749
465.153503	802.097839	17632.408203	1635.848633	4.953865
465.508820	798.159851	17779.304688	1639.118042	4.952306
465.864105	802.543701	17986.087891	1640.381226	4.875813
466.219330	804.252625	18283.966797	1653.161133	4.856535
466.574524	810.345459	18414.369141	1648.925903	4.763573
466.929657	807.521973	18322.904297	1651.898071	4.820769
467.284790	801.652039	18091.150391	1645.433960	4.880315
467.639893	795.262024	17812.814453	1639.043823	4.958303
467.994934	807.744934	17659.007813	1619.204956	4.815425
468.349945	806.556091	17418.265625	1606.944824	4.818220
468.704926	803.212402	17257.550781	1596.691040	4.822307
469.059875	789.763672	17062.580078	1596.691040	4.958745
469.414764	788.946289	16967.919922	1591.415649	4.959952
469.769653	794.221863	16934.554688	1591.490112	4.939602
470.124451	794.964844	17007.001953	1591.787109	4.915004
470.479248	793.776062	17011.832031	1591.489868	4.918677
470.834015	790.952454	17058.865234	1592.530273	4.927355
471.188721	790.432312	17280.509766	1606.350586	4.947935
471.543365	796.376526	17561.894531	1620.988159	4.918498
471.898010	803.361023	17827.896484	1634.511230	4.882073
472.252625	803.435303	18079.189453	1645.731079	4.875595
472.607178	805.664368	18336.423828	1651.898071	4.827137
472.961700	799.497253	18458.580078	1651.154907	4.822774
473.316193	801.354797	18566.466797	1655.613159	4.808630
473.670654	804.401306	18519.431641	1654.424438	4.798316
474.025055	803.212402	18627.990234	1662.003296	4.817961
474.379456	801.503418	18633.414063	1660.442993	4.816868
474.733795	803.063782	18789.226563	1673.594604	4.840003
475.088104	801.949219	19021.646484	1694.993652	4.901533
475.442383	801.726318	19327.177734	1718.622070	4.949384
475.796570	799.571533	19671.349609	1729.024414	4.925095
476.150787	807.670593	20075.927734	1747.525757	4.877738
476.504944	815.026611	20470.992188	1761.568970	4.815547
476.859070	819.261780	20831.583984	1777.023926	4.785862
477.213135	807.744934	21141.427734	1785.494507	4.808522
477.567200	802.841003	21467.839844	1800.652222	4.828509
477.921173	798.977112	21812.900391	1822.868774	4.872444
478.275146	803.435303	22097.927734	1841.444336	4.874542
478.629089	804.326965	22386.148438	1858.236694	4.883321
478.983002	798.457031	22789.462891	1881.642212	4.925583
479.336823	799.868835	23289.962891	1908.836914	4.930918
479.690643	800.760437	23969.537109	1940.638550	4.919889
480.044403	801.429138	24785.677734	1979.053101	4.909989
480.398163	797.639709	25928.232422	2035.300171	4.924915
480.751862	792.289978	27519.646484	2117.627686	4.958731
481.105499	790.952454	29643.443359	2221.651367	4.958667
481.459137	796.450867	32685.544922	2374.343506	4.948063
481.812744	804.029785	36689.867188	2580.459229	4.950224
482.166290	805.515808	41672.457031	2853.298828	5.010854
482.519806	806.110291	46772.000000	3142.485107	5.082845
482.873291	800.760437	51203.718750	3393.405273	5.143835
483.226715	800.463196	54279.480469	3577.601807	5.192950
483.580139	798.085510	55754.683594	3650.343994	5.190020
483.933502	806.407410	55796.292969	3633.105713	5.140397
484.286804	803.435303	54572.968750	3497.057617	5.009570
484.640106	810.493958	52435.207031	3316.427734	4.854136
484.993347	804.995605	49752.878906	3134.757813	4.759679
485.346558	812.871765	47286.324219	3000.492432	4.707248
485.699738	805.515808	45658.574219	2944.765625	4.769463
486.052887	806.035950	45288.546875	2955.613525	4.832411
486.405975	809.899658	45885.718750	3021.000000	4.905292
486.759064	803.881104	46864.437500	3080.516602	4.942701
487.112061	796.748047	47625.738281	3099.686768	4.917763
487.464996	796.302246	47672.253906	3075.166748	4.861479
487.817963	805.070007	46962.589844	3002.647217	4.761038
488.170868	806.333069	45341.824219	2904.493408	4.711210
488.523743	798.234131	43363.585938	2794.748291	4.690468
488.876587	798.457031	41299.160156	2699.269043	4.693282
489.229401	799.348694	39757.972656	2637.672119	4.718656
489.582153	802.915222	39034.488281	2626.006592	4.768549
489.934845	806.704590	39222.402344	2656.693604	4.815711
490.287537	810.939880	40200.074219	2718.365234	4.842516
490.640198	809.305237	41522.144531	2774.612061	4.827241
490.992798	806.481750	42505.988281	2812.580811	4.810846
491.345337	807.521973	42757.500000	2810.054443	4.773620
491.697876	810.196838	41807.542969	2757.299561	4.749339
492.050354	812.946045	40151.925781	2663.381104	4.703821
492.402832	812.871765	37703.578125	2538.924072	4.678827
492.755219	802.840820	35043.761719	2402.058350	4.670486
493.107605	802.320740	32319.306641	2263.038086	4.634698
493.459930	799.497253	30110.955078	2161.466309	4.646542
493.812225	804.847168	28436.095703	2083.299805	4.626836
494.164490	793.033020	27376.912109	2059.076904	4.762450
494.516724	791.472656	26747.119141	2048.080322	4.841365
494.868896	788.649109	26501.255859	2055.807861	4.928161
495.221039	795.782043	26624.968750	2063.832275	4.909369
495.573120	799.868713	26811.171875	2066.284424	4.868713
495.925201	807.373352	27123.687500	2078.469971	4.830071
496.277222	818.890320	27242.349609	2088.575195	4.805142
496.629211	821.045105	27295.103516	2081.070557	4.759472
496.981140	819.261902	27162.103516	2078.544189	4.780358
497.333069	813.169006	26981.994141	2057.442383	4.754793
497.684967	812.277344	26714.947266	2049.417725	4.776112
498.036804	808.339355	26280.947266	2024.600586	4.774781
498.388580	805.218567	25797.162109	2007.065063	4.808936
498.740326	803.658203	25271.693359	1974.223267	4.784058
499.092072	805.812988	24771.337891	1960.328735	4.817402
499.443756	798.382751	24297.287109	1939.375366	4.855515
499.795410	791.621277	23932.757813	1923.846069	4.892694
500.147003	787.163086	23622.693359	1908.539673	4.910666
500.498566	794.741882	23308.689453	1882.831055	4.832956
500.850098	804.178284	23051.380859	1871.685547	4.798389
501.201599	805.812988	22895.568359	1854.595825	4.747825
501.553009	801.057678	22836.349609	1862.694946	4.817895
501.904449	799.125793	22780.025391	1868.861938	4.866662
502.255859	804.178406	22798.080078	1873.245972	4.860745
502.607178	810.419739	22848.085938	1875.549438	4.833223
502.958405	805.961670	22927.070313	1875.920898	4.836824
503.309692	799.720215	22976.181641	1880.527710	4.873670
503.660919	796.525146	23061.037109	1882.087891	4.875754
504.012115	800.314636	23110.447266	1878.595703	4.833145
504.363251	800.983337	23071.439453	1869.456421	4.797715
504.714294	801.503418	22926.255859	1870.868164	4.833341
505.065369	802.469421	22797.115234	1870.719727	4.856865
505.416443	806.630371	22685.806641	1864.329590	4.834274
505.767395	810.791321	22662.849609	1858.385376	4.794029
506.118317	804.029785	22591.146484	1854.075806	4.819573
506.469238	805.664368	22721.400391	1862.323242	4.821462
506.820160	794.073181	22875.132813	1861.134399	4.832473
507.170929	805.367188	23141.880859	1873.394531	4.781531
507.521729	806.035828	23353.494141	1895.462280	4.831704
507.872498	816.735535	23634.580078	1916.044312	4.817760
508.223236	814.134949	23951.630859	1932.390991	4.833090
508.573883	814.655029	24228.037109	1944.353638	4.825012
508.924500	816.215393	24439.281250	1956.910767	4.828735
509.275116	817.627197	24575.328125	1958.322388	4.801370
509.625702	811.608704	24752.912109	1962.037720	4.805206
509.976196	807.076172	24956.947266	1971.697144	4.822473
510.326660	799.051514	25173.462891	1987.003296	4.873766
510.677124	796.005066	25386.640625	1998.594604	4.890438
511.027557	794.221863	25549.585938	2009.516968	4.909220
511.377869	795.262024	25745.296875	2020.811035	4.912014
511.728180	803.583984	25804.962891	2018.879272	4.860913
512.078430	810.642761	25799.687500	2007.733887	4.790463
512.428650	810.345459	25688.234375	2001.269531	4.787078
512.778931	807.596191	25586.140625	1998.148804	4.804772
513.129028	801.057617	25391.990234	2000.972290	4.879500
513.479126	802.989502	25254.304688	1988.117798	4.846890
513.829285	803.806824	25100.498047	1986.483276	4.867644
514.179382	807.373352	24995.359375	1976.229370	4.832382
514.529297	811.534363	24968.687500	1981.133423	4.841627
514.879272	812.500244	25099.162109	1974.074707	4.782767
515.229187	810.568359	25257.500000	1976.972534	4.771168
515.579163	804.549866	25570.908203	1990.792847	4.789735
515.928955	800.091736	25943.314453	2016.352905	4.837332
516.278748	799.943054	26638.490234	2060.117188	4.877109
516.628540	797.788269	27412.501953	2107.522217	4.921090
516.978333	798.011230	28356.962891	2165.329834	4.961432
517.327942	796.153625	29261.005859	2216.598877	4.990173
517.677612	793.924561	30091.189453	2240.449951	4.937407
518.027222	794.741943	30683.828125	2245.279541	4.853068
518.376831	796.525146	31008.382813	2232.871338	4.754247
518.726379	795.187683	30954.958984	2220.908447	4.727226
519.075867	801.429199	30499.187500	2201.812500	4.715451
519.425293	796.153625	29831.947266	2173.874512	4.744905
519.774658	804.921387	29138.781250	2144.970703	4.729498
520.124084	797.268250	28507.132813	2111.163330	4.741615
520.473389	801.577820	27955.361328	2094.742432	4.762373
520.822693	795.187683	27450.771484	2081.516357	4.825738
521.171997	801.206238	27168.343750	2073.640381	4.825833
521.521240	804.698486	27027.166016	2068.364746	4.819021
521.870361	809.899597	27081.187500	2073.120117	4.808369
522.219482	803.435303	27241.607422	2089.615479	4.864861
522.568604	801.429199	27562.000000	2101.503906	4.858172
522.917664	797.937012	28007.818359	2126.321045	4.881991
523.266724	801.057617	28608.406250	2152.846924	4.861267
523.615662	802.692322	29395.718750	2187.323486	4.842548
523.964600	808.785156	30464.337891	2244.090820	4.839922
524.313538	809.602478	31723.693359	2315.644287	4.871700
524.662354	804.326965	33078.605469	2388.089600	4.907197
525.011169	802.097900	34408.699219	2446.119873	4.891962
525.359985	800.686096	35806.484375	2510.912109	4.885551
525.708740	796.525146	37234.804688	2574.812500	4.880272
526.057434	793.478699	38788.699219	2650.303711	4.886996
526.406067	799.571533	40701.316406	2754.253174	4.898737
526.754700	806.258789	43281.855469	2904.864502	4.940732
527.103333	811.905823	46443.285156	3091.587646	4.995864
527.451782	805.367188	49761.796875	3299.635010	5.094873
527.800293	802.692383	52517.761719	3475.881592	5.169072
528.148743	804.029785	54302.656250	3580.796875	5.190352
528.497131	809.528137	54774.777344	3577.453125	5.129088
528.845642	804.252625	54045.871094	3481.379639	5.028260
529.193909	798.382751	52284.750000	3322.074463	4.901670
529.542175	794.518982	49629.386719	3119.822510	4.761564
529.890503	803.806824	46450.343750	2930.127686	4.658230
530.238770	808.339294	43166.757813	2760.791992	4.609362
530.586914	809.379578	40515.566406	2654.761963	4.647594
530.934998	811.831543	38729.625000	2594.353760	4.701018
531.283142	807.967773	38126.214844	2587.443359	4.768380
531.631226	814.729309	38374.535156	2605.573242	4.767980
531.979248	817.478516	39364.468750	2657.734131	4.774057
532.327148	823.719971	40573.671875	2730.327881	4.796504
532.675110	814.877930	41647.046875	2780.927734	4.814953
533.023071	809.379578	42151.265625	2796.011475	4.805373
533.370850	801.503479	41729.968750	2758.117188	4.780570
533.718689	803.286682	40695.675781	2711.900635	4.784406
534.066467	805.218567	39143.496094	2640.570068	4.787256
534.414246	808.785156	37583.804688	2565.970459	4.778203
534.761963	807.150574	36157.113281	2481.488037	4.736462
535.109619	806.778992	35259.312500	2440.398682	4.741653
535.457153	811.311462	34785.859375	2418.479248	4.730505
535.804749	820.004883	34575.066406	2431.259277	4.773371
536.152344	819.336121	34452.089844	2421.822998	4.764661
536.499817	809.230957	34136.230469	2399.977783	4.773148
536.847229	806.258789	33665.593750	2364.683838	4.742716
537.194641	802.915222	32847.000000	2328.424072	4.760656
537.542114	806.481750	32031.156250	2296.325439	4.771367
537.889404	803.583984	31277.357422	2259.248779	4.776779
538.236694	803.732605	30801.968750	2239.632813	4.786615
538.583984	800.017395	30754.640625	2246.320068	4.828312
538.931213	792.438477	31253.435547	2289.118408	4.913431
539.278381	791.472595	32433.880859	2367.433105	4.980533
539.625488	795.039124	34261.652344	2466.552979	4.994572
539.972595	801.429199	36639.042969	2598.885986	5.015559
540.319641	806.704651	39205.457031	2721.931641	4.987732
540.666687	813.094666	41334.601563	2831.528076	4.981141
541.013611	813.466248	42899.121094	2886.957764	4.926836
541.360596	814.432129	43384.167969	2891.936279	4.880238
541.707458	805.218567	43107.691406	2853.819092	4.842744
542.054260	806.927490	41957.925781	2777.361328	4.788301
542.401062	805.218506	40470.683594	2690.055664	4.751834
542.747864	808.859375	38573.437500	2585.660400	4.704941
543.094666	801.057617	36581.089844	2491.890381	4.725633
543.441284	800.091614	34581.523438	2399.903564	4.735773
543.787903	798.308411	32919.820313	2326.120850	4.756353
544.134460	802.395020	31487.560547	2258.356934	4.744840
544.481079	797.565430	30430.162109	2211.249268	4.770705
544.827637	796.450867	29638.318359	2190.221436	4.832456
545.174072	794.667664	29180.462891	2183.757080	4.893608
545.520508	796.525146	28962.830078	2190.295654	4.948361
545.866943	796.673828	28867.572266	2179.670166	4.926797
546.213318	789.837952	28776.921875	2162.803467	4.905712
546.559631	792.958679	28544.654297	2144.822021	4.871282
546.905823	795.262024	28068.296875	2127.361084	4.884308
547.252136	809.528137	27381.593750	2092.364502	4.827763
547.598389	813.689148	26482.828125	2033.665405	4.752697
547.944458	813.169006	25559.912109	1974.297363	4.692046
548.290588	808.339355	24518.412109	1925.034790	4.709794
548.636658	809.602478	23608.130859	1886.694702	4.724394
548.982727	806.778992	22757.287109	1854.670288	4.773882
549.328735	807.521973	22102.162109	1822.720093	4.767388
549.674622	801.577820	21536.273438	1801.543823	4.822670
550.020569	804.326965	21208.150391	1789.209595	4.826951
550.366455	799.868835	21008.203125	1785.865845	4.879160
550.712280	795.410645	20961.390625	1780.664673	4.885724
551.058044	789.986511	20972.388672	1782.596558	4.918196
551.403748	794.964783	21033.392578	1792.776001	4.930280
551.749512	795.484863	21172.560547	1796.342407	4.911684
552.095154	806.184570	21300.880859	1803.995728	4.868631
552.440735	804.104004	21422.662109	1795.302368	4.807312
552.786316	805.144287	21415.085938	1795.822388	4.806798
553.131897	798.605652	21270.490234	1785.717163	4.821791
553.477417	797.342529	20997.501953	1781.481934	4.871939
553.822815	799.348633	20606.595703	1765.581421	4.878178
554.168213	807.224792	20269.857422	1742.473145	4.805354
554.513672	808.264954	19918.107422	1721.891235	4.780920
554.859009	809.973938	19616.142578	1703.687134	4.752234
555.204285	808.264954	19382.013672	1690.907104	4.752095
555.549500	810.494080	19157.248047	1684.145508	4.761886
555.894714	801.131897	18982.041016	1686.003052	4.867035
556.239990	795.782166	18784.916016	1682.213501	4.927593
556.585022	798.308411	18676.658203	1683.030884	4.948569
556.930115	807.299072	18554.802734	1668.319214	4.851500
557.275146	809.305237	18379.816406	1661.037476	4.847509
557.620178	803.435364	18251.050781	1655.018677	4.880801
557.965149	803.286804	18194.953125	1655.984741	4.902911
558.310059	804.252686	18167.685547	1646.473999	4.850546
558.654968	809.602478	18114.855469	1635.551392	4.772822
558.999756	806.110168	18062.248047	1638.746460	4.825160
559.344604	805.367188	18092.564453	1651.600952	4.895147
559.689331	797.193848	18117.083984	1649.817749	4.922802
560.033997	796.971008	18174.667969	1652.269653	4.921818
560.378723	797.268250	18264.796875	1652.046753	4.893528
560.723389	803.583984	18316.140625	1661.037231	4.896220
561.067932	807.521973	18385.091797	1669.879272	4.906010
561.412476	811.905823	18346.308594	1666.758667	4.875289
561.757019	810.419739	18328.179688	1658.882446	4.843443
562.101501	806.407471	18230.619141	1648.108765	4.830642
562.445862	804.252625	18130.830078	1648.851685	4.874587
562.790222	804.549805	18062.396484	1661.037231	4.962887
563.134644	805.367188	18043.003906	1649.445923	4.896719
563.478943	807.670593	18121.541016	1646.102539	4.842545
563.823181	807.744873	18222.373047	1638.151978	4.768445
564.167358	813.986328	18427.892578	1652.789673	4.762166
564.511536	807.521973	18718.640625	1677.086792	4.854888
564.855774	806.333191	19053.595703	1701.234985	4.904307
565.199768	804.029785	19432.689453	1729.767212	4.969426
565.543823	802.246521	19760.880859	1733.110840	4.909976
565.887817	803.881165	20071.244141	1753.321289	4.927712
566.231812	803.286621	20178.611328	1743.587524	4.853085
566.575745	807.521912	20083.431641	1747.451294	4.876187
566.919617	808.636475	19912.537109	1716.987305	4.754793
567.263428	809.230957	19641.255859	1705.544556	4.759518
567.607239	800.611816	19395.238281	1685.854492	4.760745
567.950989	791.918396	19102.484375	1676.715210	4.832165
568.294678	786.940125	18917.619141	1673.445923	4.889534
568.638367	793.701660	18834.773438	1676.046509	4.890756
568.981995	797.045349	18811.443359	1676.194946	4.880260
569.325623	802.023621	18849.783203	1677.829712	4.852714
569.669128	801.949219	18874.673828	1673.743164	4.823810
570.012573	807.076172	18990.660156	1686.077271	4.834036
570.356140	808.487976	19223.673828	1702.349609	4.853938
570.699524	804.549805	19468.353516	1710.671387	4.854967
571.042908	805.664368	19829.613281	1732.962402	4.874372
571.386230	798.011169	20032.162109	1731.773560	4.854711
571.729492	805.590088	20247.267578	1750.423462	4.859835
572.072815	803.063782	20285.533203	1753.246948	4.877119
572.416016	806.184509	20278.845703	1751.537964	4.854773
572.759094	808.190674	20188.345703	1744.330688	4.830405
573.102234	806.407471	19966.107422	1723.451660	4.786318
573.445374	804.104065	19790.083984	1721.891235	4.834026
573.788391	798.977234	19637.167969	1719.216431	4.884966
574.131409	801.280579	19560.263672	1714.386719	4.867568
574.474365	803.806824	19421.988281	1708.516724	4.859282
574.817261	802.840881	19314.619141	1698.040039	4.835836
575.160156	806.333191	19105.830078	1695.959473	4.861480
575.502930	805.441589	18895.923828	1682.585327	4.848648
575.845703	809.751160	18582.443359	1667.576172	4.826647
576.188477	805.144348	18282.554688	1655.093262	4.863129
576.531250	799.868835	17944.330078	1640.009766	4.900363
576.873901	796.599548	17571.626953	1627.601074	4.953801
577.216431	798.308411	17292.250000	1598.028687	4.848570
577.559082	804.624207	16916.724609	1575.737793	4.785928
577.901611	793.775940	16613.716797	1563.329468	4.864453
578.244080	787.683105	16238.414063	1537.323364	4.851811
578.586487	779.881348	16023.976563	1520.382324	4.857625
578.928955	819.336121	15833.241211	1511.911743	4.612895
579.271301	828.698242	15594.653320	1516.964355	4.661169
579.613647	836.797180	15314.682617	1526.029297	4.760585
579.955872	807.150452	15083.081055	1507.602173	4.906522
580.298157	800.834778	15000.828125	1505.001587	4.958923
580.640320	805.738708	14954.313477	1495.193726	4.872964
580.982483	811.311340	14885.362305	1496.531128	4.868675
581.324524	818.741638	14771.083008	1486.574585	4.786530
581.666626	813.168945	14695.518555	1479.441406	4.799421
582.008728	810.568359	14641.722656	1477.806763	4.824170
582.350647	798.977112	14625.450195	1479.813110	4.924148
582.692566	799.720215	14567.791992	1473.423218	4.893227
583.034424	802.246399	14492.151367	1463.837891	4.832696
583.376343	808.562195	14387.161133	1462.797729	4.818137
583.718201	805.812988	14340.871094	1466.141235	4.878651
584.059937	797.862610	14243.979492	1465.323853	4.963970
584.401611	796.599426	14173.094727	1457.893677	4.943704
584.743347	799.200134	14090.618164	1451.652222	4.908822
585.085022	803.138123	14033.479492	1457.745117	4.947771
585.426514	800.388916	13994.768555	1464.506470	5.033337
585.768127	799.348633	13990.309570	1461.460083	5.019433
586.109619	804.698547	14025.531250	1454.104126	4.911987
586.451172	809.899719	14044.997070	1443.478882	4.787114
586.792542	812.723145	14046.781250	1441.695679	4.752681
587.133850	810.122559	14074.643555	1445.485229	4.789940
587.475220	814.432129	14124.797852	1452.098145	4.790748
587.816589	808.859436	14222.210938	1470.153687	4.930120
588.157776	805.813049	14318.506836	1467.032837	4.893323
588.498962	799.720215	14459.905273	1467.478638	4.888355
588.840210	802.246521	14567.122070	1467.924438	4.836062
589.181335	803.583923	14632.062500	1483.899536	4.919671
589.522400	806.333191	14644.843750	1485.311401	4.906440
589.863403	807.373352	14609.179688	1485.980103	4.916797
590.204407	801.354797	14545.649414	1474.314575	4.896285
590.545410	807.447571	14495.273438	1472.308228	4.857314
590.886353	812.574524	14399.645508	1461.460083	4.775757
591.227112	819.856201	14321.032227	1460.271484	4.743404
591.567932	807.967773	14186.692383	1459.528442	4.870125
591.908752	802.023621	14095.003906	1455.590210	4.916629
592.249512	800.983398	14095.449219	1456.853394	4.933406
592.590149	799.423035	14075.387695	1463.169067	4.999607
592.930786	799.794434	14129.703125	1468.667480	5.017837
593.271423	796.599426	14156.823242	1470.079224	5.040932
593.612000	801.503418	14296.585938	1472.902832	4.975142
593.952576	800.983337	14455.445313	1477.138062	4.951896
594.292969	803.286682	14613.041992	1485.980103	4.943559
594.633484	804.326965	14791.739258	1497.571289	4.956202
594.973877	810.865540	14986.190430	1515.181030	4.968602
595.314209	810.716980	15283.102539	1524.988892	4.935412
595.654480	816.215332	15628.016602	1536.728882	4.864456
595.994812	807.596191	16034.229492	1553.669922	4.899795
596.335022	804.772766	16361.012695	1573.731567	4.943089
596.675171	798.457092	16488.666016	1574.697632	4.947292
597.015320	804.475586	16439.179688	1574.846191	4.927312
597.355408	806.035950	16144.199219	1549.806152	4.849148
597.695496	808.413574	15802.332031	1531.527710	4.822716
598.035461	810.196838	15293.135742	1489.100952	4.687613
598.375366	815.249512	14831.713867	1466.067017	4.643236
598.715271	812.500244	14402.245117	1441.844360	4.631022
599.055176	817.032715	14038.831055	1437.014648	4.689089
599.395081	816.884094	13755.588867	1425.571899	4.704395
599.734802	816.735535	13473.386719	1419.033325	4.758745
600.074524	809.453796	13316.163086	1412.420532	4.821146
600.414246	805.738708	13199.359375	1413.683594	4.905305
600.753906	807.521973	13216.893555	1425.274780	4.978116
601.093506	807.596252	13238.813477	1424.903320	4.965782
601.433044	807.150452	13345.734375	1427.355103	4.946369
601.772583	802.543640	13516.557617	1426.537964	4.907926
602.112122	799.200012	13814.362305	1440.358032	4.926239
602.451538	806.035950	14198.653320	1454.178589	4.839552
602.790894	806.778992	14635.778320	1475.354858	4.834593
603.130310	801.726379	15068.666992	1495.416626	4.862222
603.469604	793.998840	15503.487305	1517.707397	4.920012
603.808838	794.816223	15855.977539	1531.007446	4.888011
604.148010	805.664368	16159.429688	1533.682495	4.741626
604.487305	805.664368	16278.834961	1538.809204	4.738168
604.826416	808.562195	16227.565430	1537.694702	4.728792
605.165527	805.292969	15971.889648	1529.744507	4.776626
605.504456	804.252686	15629.948242	1510.202759	4.761666
605.843445	795.559265	15196.317383	1490.661133	4.826842
606.182434	792.141296	14752.804688	1479.069946	4.920459
606.521423	789.689270	14285.440430	1455.144531	4.930850
606.860229	794.667664	13892.898438	1437.757446	4.909746
607.199036	791.621277	13625.186523	1414.352173	4.852361
607.537903	802.692200	13542.859375	1419.776367	4.843611
607.876648	805.515808	13609.879883	1426.909546	4.852984
608.215271	809.602356	13778.918945	1448.902954	4.929331
608.553955	804.326965	13986.743164	1456.184692	4.944903
608.892578	805.367188	14183.125977	1464.358032	4.926018
609.231140	804.029785	14309.737305	1470.599487	4.935467
609.569641	803.063782	14368.882813	1478.475586	4.978776
609.908081	800.463135	14321.774414	1477.360962	5.006155
610.246521	806.407410	14171.014648	1462.723267	4.910850
610.584961	807.373352	13879.674805	1442.958862	4.862078
610.923340	807.447754	13538.625000	1422.674194	4.832439
611.261597	808.339355	13166.070313	1408.779419	4.858821
611.599854	808.264954	12824.648438	1391.318359	4.852154
611.938110	809.230957	12536.280273	1379.207031	4.860354
612.276245	806.853271	12294.871094	1371.702515	4.916856
612.614319	806.556091	12108.519531	1376.680786	5.044475
612.952393	808.042053	11898.539063	1377.943970	5.138651
613.290466	813.020325	11767.395508	1358.625366	4.980704
613.628479	812.648865	11596.277344	1337.003052	4.862502
613.966370	812.202942	11488.463867	1322.736938	4.781955
614.304260	809.528137	11336.291992	1322.959961	4.877395
614.642151	808.339294	11222.609375	1315.678223	4.871574
614.979980	807.521973	11167.328125	1302.229492	4.775258
615.317749	811.088440	11115.761719	1296.136597	4.707070
615.655396	806.704651	11105.804688	1297.474243	4.765170
615.993164	810.345520	11095.773438	1299.331665	4.754164
616.330811	802.841003	11107.588867	1305.870483	4.881531
616.668396	800.760437	11087.229492	1311.740234	4.967495
617.005859	801.354797	11057.507813	1315.158203	5.009709
617.343445	800.834717	11029.199219	1310.625732	4.984091
617.680908	809.007996	11027.265625	1307.059204	4.874130
618.018311	802.692322	11026.523438	1308.470947	4.947056
618.355652	799.497314	11009.062500	1308.248047	4.983079
618.692993	800.463318	10962.698242	1298.068481	4.896611
619.030273	802.320801	10901.769531	1296.433960	4.892476
619.367554	810.345459	10861.051758	1300.000366	4.871846
619.704712	810.122559	10863.057617	1307.059204	4.943199
620.041870	809.751038	10852.953125	1299.183105	4.873267
620.379028	805.292786	10816.618164	1290.192505	4.843512
620.716064	801.280518	10750.415039	1297.102539	4.983569
621.053040	803.435303	10695.579102	1297.920044	4.998762
621.389954	802.840881	10678.489258	1297.845581	5.012377
621.726929	802.617981	10667.344727	1291.975708	4.960682
622.063843	801.726379	10656.868164	1290.415405	4.958722
622.400635	802.766602	10651.518555	1286.700317	4.913655
622.737427	811.014160	10655.530273	1276.669434	4.730098
623.074219	815.323730	10667.864258	1287.146118	4.788840
623.410889	816.735535	10677.598633	1292.644531	4.826241
623.747559	804.549866	10727.530273	1308.322388	5.076827
624.084167	804.178406	10786.823242	1302.749634	4.994380
624.420715	803.212402	10928.963867	1316.644165	5.070554
624.757324	813.689148	11049.036133	1319.244751	4.939311
625.093750	805.664368	11215.846680	1326.154907	4.999821
625.430176	808.413574	11340.674805	1324.520386	4.900247
625.766602	805.961609	11530.073242	1332.767944	4.912354
626.102905	805.515808	11705.057617	1341.238403	4.915093
626.439209	800.463196	11883.606445	1343.838989	4.902723
626.775452	793.553040	11968.756836	1345.102173	4.935472
627.111694	802.543701	11975.221680	1350.006226	4.900012
627.447876	801.726379	11898.985352	1353.647095	4.973487
627.783997	806.258789	11777.054688	1349.560303	4.952252
628.120056	796.227966	11664.932617	1342.724487	5.028166
628.456055	794.667542	11474.940430	1326.080688	4.975652
628.792053	798.605652	11279.969727	1318.278931	4.958069
629.128052	802.543640	11070.213867	1306.984863	4.912909
629.463928	803.063782	10932.753906	1309.139648	4.995966
629.799744	802.543701	10838.538086	1301.932251	4.975975
630.135559	811.385742	10753.090820	1293.313110	4.847532
630.471375	814.580811	10668.534180	1283.059326	4.754219
630.807068	815.175110	10559.828125	1268.570313	4.652759
631.142700	812.425964	10484.411133	1267.604492	4.706154
631.478333	812.871826	10397.179688	1270.130737	4.770912
631.813965	810.791260	10343.756836	1275.257568	4.872212
632.149475	805.144287	10263.286133	1273.325806	4.950037
632.484924	804.475586	10226.877930	1265.152466	4.889166
632.820435	798.382751	10192.327148	1265.895386	4.976745
633.155884	800.388916	10205.702148	1265.821167	4.948610
633.491150	805.961670	10247.534180	1270.502319	4.920162
633.826477	814.432129	10276.363281	1267.678711	4.790212
634.161804	815.323730	10277.254883	1265.301025	4.755660
634.497009	807.893494	10229.329102	1262.477539	4.824998
634.832153	805.812988	10156.141602	1258.316528	4.839440
635.167297	807.893372	10022.544922	1248.657104	4.783293
635.502380	814.952209	9890.360352	1242.787231	4.714223
635.837463	809.676697	9746.436523	1240.112427	4.816463
636.172424	800.834717	9635.874023	1235.134155	4.915648
636.507324	799.422913	9524.271484	1228.447021	4.917267
636.842224	804.698425	9461.559570	1220.348022	4.801389
637.177124	804.921387	9367.641602	1223.914429	4.893223
637.511963	800.166016	9293.338867	1228.223999	5.040024
637.846741	797.714050	9192.138672	1230.973267	5.161273
638.181396	801.875000	9122.516602	1224.508911	5.079343
638.516113	806.778992	9064.634766	1210.688599	4.891217
638.850769	805.070007	9012.102539	1187.060181	4.654425
639.185303	806.481689	8950.133789	1189.809448	4.707074
639.519836	804.326965	8849.676758	1188.546265	4.775670
639.854370	807.001892	8766.235352	1199.245972	4.928164
640.188843	801.577820	8703.894531	1193.673218	4.961778
640.523254	803.509583	8670.534180	1192.558716	4.945315
640.857605	804.772766	8628.700195	1184.459717	4.852895
641.191895	810.345520	8570.892578	1178.886963	4.748911
641.526184	808.190735	8509.741211	1183.716675	4.875978
641.860413	806.407471	8452.008789	1190.775513	5.027309
642.194580	810.939941	8430.460938	1193.227417	5.017211
642.528748	809.082336	8412.479492	1181.041748	4.892016
642.862793	810.716980	8377.111328	1178.515503	4.860948
643.196838	806.110168	8320.566406	1186.243042	5.058688
643.530823	810.865662	8281.037109	1196.571167	5.163275
643.864746	807.150452	8256.815430	1193.970459	5.192448
644.198669	808.042053	8235.043945	1185.574219	5.083238
644.532532	809.453796	8205.918945	1168.336060	4.852078
644.866333	811.088440	8214.389648	1165.661011	4.789384
645.200073	810.048279	8213.274414	1164.546509	4.788429
645.533813	805.887268	8236.828125	1174.651733	4.962554
645.867554	810.716980	8234.004883	1184.756958	5.038737
646.201172	806.853210	8252.727539	1180.744507	5.021456
646.534729	814.432129	8238.537109	1183.939575	4.977131
646.868225	816.586914	8238.462891	1175.171753	4.831458
647.201782	827.509338	8245.149414	1178.664063	4.734049
647.535217	819.559021	8242.401367	1174.874634	4.786787
647.868591	815.026550	8241.583008	1179.407104	4.906454
648.201965	805.070007	8217.508789	1176.063477	5.005012
648.535278	804.698486	8224.047852	1178.887085	5.043415
648.868591	805.367188	8212.605469	1185.277100	5.128901
649.201782	808.710754	8193.063477	1187.283203	5.126684
649.534912	803.286621	8176.419922	1179.852905	5.107276
649.868103	805.441467	8168.023438	1164.026489	4.870370
650.201172	803.212402	8194.920898	1158.973755	4.812979
650.534180	811.385742	8190.834473	1159.568237	4.718272
650.867188	802.172180	8181.546875	1168.707520	4.967024
651.200134	803.138123	8174.488281	1161.945923	4.867599
651.533020	807.596375	8154.203613	1162.540405	4.831400
651.865845	815.695313	8116.160645	1160.385620	4.721484
652.198608	819.261902	8081.609375	1168.484497	4.808673
652.531433	812.648865	8070.464355	1167.444214	4.888459
652.864136	808.116394	8054.786621	1167.890137	4.964676
653.196777	877.440857	8086.365234	1245.462158	5.105079
653.529358	887.323181	8029.226563	1244.198975	4.996928
653.861938	890.072327	7970.750000	1240.186646	4.944644
654.194519	815.546692	7833.958984	1153.103882	4.809595
654.526978	810.419739	7808.027344	1149.017334	4.838762
654.859375	805.367188	7787.667969	1145.153564	4.866395
655.191833	808.487976	7763.445313	1148.274292	4.885527
655.524170	800.091736	7745.390625	1150.280518	5.042098
655.856445	804.178406	7734.689941	1154.961548	5.061432
656.188660	806.927551	7766.714844	1148.051270	4.901353
656.520874	812.425964	7768.720703	1154.144165	4.912359
656.853088	810.419739	7828.535156	1154.738647	4.906145
657.185181	807.076172	7873.710938	1165.066772	5.065928
657.517212	804.549866	7989.251465	1167.147095	5.046796
657.849243	809.230957	8116.234863	1173.239990	4.981646
658.181274	811.980164	8318.932617	1188.769165	5.019200
658.513123	810.419739	8544.070313	1198.428589	5.017150
658.844971	813.020325	8767.348633	1210.242798	4.993790
659.176819	804.624207	8920.338867	1213.809326	5.041886
659.508667	803.212402	8965.069336	1219.381958	5.098957
659.840393	795.410645	8937.428711	1213.883423	5.139669
660.172058	801.652039	8837.491211	1204.521362	5.013407
660.503662	800.611816	8700.179688	1182.527832	4.834644
660.835266	798.531311	8534.782227	1173.017090	4.840662
661.166931	796.227966	8371.835938	1161.128662	4.816784
661.498413	795.707825	8213.347656	1157.859253	4.882300
661.829773	797.639709	8035.839355	1138.391968	4.707694
662.161194	798.159851	7857.290527	1139.432251	4.834482
662.492615	800.314636	7689.662598	1135.419800	4.864106
662.823975	801.577820	7547.076172	1139.580688	5.010791
663.155212	802.097900	7415.263184	1129.178345	4.945899
663.486450	808.116394	7305.740723	1126.132080	4.894338
663.817627	804.401306	7214.496582	1123.457153	4.977396
664.148743	806.184570	7156.986816	1114.986694	4.862411
664.479858	807.224792	7108.318359	1115.060913	4.885439
664.810913	813.317566	7082.609375	1110.974243	4.747851
665.141907	813.094727	7069.234863	1117.735840	4.869474
665.472778	805.367188	7047.241699	1120.039185	5.041306
665.803711	804.698486	7026.660156	1127.172241	5.182831
666.134583	796.896667	6993.520996	1121.376587	5.236398
666.465454	802.989441	6974.647949	1113.129028	5.025223
666.796143	808.339172	6922.115723	1108.893921	4.916025
667.126831	817.775696	6899.824707	1107.482056	4.763302
667.457458	813.391907	6885.484375	1105.624512	4.812717
667.788147	805.367188	6903.837402	1106.887695	4.944199
668.118774	796.227966	6927.392090	1115.135254	5.201415
668.449219	797.416809	6938.536621	1123.828735	5.315186
668.779663	799.794434	6970.041504	1123.234253	5.241927
669.110107	810.865540	6975.167969	1115.135254	4.935996
669.440552	810.865540	6976.876953	1104.435547	4.761101
669.770874	814.283508	6937.199219	1100.051758	4.667192
670.101135	813.837646	6889.050781	1104.732788	4.788229
670.431396	815.769531	6831.838379	1101.017700	4.741438
670.761597	805.367188	6792.383301	1096.782471	4.867455
671.091797	797.639709	6746.984375	1094.256226	4.985701
671.421875	798.754211	6715.925781	1094.181885	4.992718
671.751892	811.237122	6684.867188	1099.160156	4.901961
672.081909	817.701477	6666.662598	1088.683472	4.632994
672.411865	818.741699	6627.505371	1086.454468	4.608774
672.741821	809.305176	6575.568359	1074.194458	4.593777
673.071716	807.744873	6524.894043	1080.807495	4.776202
673.401550	802.989502	6492.126465	1087.420288	4.999542
673.731262	808.859436	6492.571777	1091.432617	4.971631
674.060974	801.652039	6483.135254	1083.556519	4.961811
674.390625	803.658203	6459.729004	1085.339844	4.980165
674.720276	803.361023	6407.568848	1085.488403	5.034206
675.049927	808.042175	6366.406250	1090.243896	5.077064
675.379395	804.401306	6344.857910	1079.544312	4.966071
675.708923	802.320801	6327.471191	1079.247070	5.012104
676.038330	801.949219	6293.886719	1071.147949	4.901708
676.367737	810.494080	6271.149902	1072.188354	4.792360
676.697083	813.540527	6257.478027	1075.903442	4.819359
677.026428	814.283630	6286.530762	1085.117065	4.949218
677.355652	804.921387	6312.907715	1090.912476	5.192298
677.684875	801.652039	6343.743652	1089.426514	5.192524
678.013977	802.617981	6366.554199	1086.677246	5.105365
678.343079	807.967834	6419.755371	1093.215942	5.083017
678.672180	802.543762	6486.998535	1087.643188	5.015423
679.001221	801.132019	6570.738281	1092.993042	5.058595
679.330139	800.388916	6653.214355	1092.027222	4.982864
679.659058	806.110352	6714.216797	1104.287109	5.046909
679.987976	809.008057	6796.692871	1110.380005	5.033197
680.316772	800.463196	6865.349121	1107.333496	5.059787
680.645630	792.810059	6933.707031	1102.652466	5.045556
680.974304	792.364258	6928.877441	1096.188110	4.951083
681.302979	797.119629	6914.982910	1091.358398	4.809502
681.631653	801.875000	6858.364746	1089.500854	4.749052
681.960266	789.689270	6806.277832	1091.878540	5.022602
682.288757	794.370422	6722.166504	1095.222168	5.075272
682.617249	794.667664	6636.273438	1093.364624	5.113268
682.945679	801.652039	6554.242676	1086.305786	4.948270
683.274109	798.679932	6468.200684	1076.274902	4.896269
683.602478	805.367188	6383.197754	1073.228516	4.802249
683.930725	806.258789	6256.214844	1070.182129	4.842669
684.259033	807.670593	6138.370605	1071.370972	4.946825
684.587280	804.772766	6046.532715	1066.541260	4.993905
684.915344	802.915222	5996.675781	1062.528931	4.998569
685.243469	808.636536	5944.960938	1059.779663	4.889550
685.571533	811.088562	5900.898926	1051.903687	4.731318
685.899536	814.283508	5877.716797	1050.194702	4.659115
686.227539	805.218567	5889.232910	1042.170044	4.660717
686.555420	800.166016	5910.855957	1049.748901	4.883546
686.883301	805.144287	5940.502441	1047.073975	4.711058
687.211121	803.435303	5941.988281	1049.154419	4.781874
687.538940	803.732605	5985.307129	1047.222656	4.699152
687.866638	801.503479	6016.959473	1051.309204	4.789720
688.194336	801.280579	6014.433594	1049.526001	4.761906
688.521973	799.125793	5949.864746	1056.287476	4.992714
688.849609	799.200012	5853.939453	1056.213135	5.084597
689.177063	806.407410	5770.943848	1054.504150	4.997380
689.504578	813.020325	5686.387207	1042.987183	4.718850
689.832031	804.847168	5619.960938	1034.219604	4.763593
690.159485	799.571594	5573.966797	1032.139038	4.871140
690.486816	796.971008	5535.552246	1029.984375	4.917366
690.814087	805.367188	5502.115723	1034.368164	4.875734
691.141296	802.320801	5446.018066	1040.832642	5.136249
691.468506	793.924622	5379.665527	1037.340454	5.308103
691.795715	789.614990	5287.901855	1030.653198	5.358444
692.122803	794.816223	5221.921387	1023.445618	5.164310
692.449829	800.686096	5202.304688	1019.581970	4.973077
692.776855	793.850281	5185.586426	1022.479797	5.205903
693.103821	795.930847	5179.865234	1022.628418	5.171098
693.430664	801.949219	5123.023926	1026.269165	5.191300
693.757568	813.689026	5094.492188	1018.838928	4.792323
694.084351	807.224792	5052.288086	1018.244568	4.970945
694.411133	800.686096	5049.539063	1011.334412	4.957769
694.737854	808.042053	5028.064941	1013.266296	4.863107
695.064575	814.357849	5050.578613	1004.424255	4.486698
695.391174	819.856201	5053.179199	1010.888489	4.512585
695.717773	808.636536	5084.535156	1008.956604	4.684865
696.044250	807.521973	5096.794922	1013.043274	4.791518
696.370789	809.825378	5150.516113	1017.352844	4.780978
696.697205	808.487976	5229.425293	1023.594238	4.865625
697.023621	807.596252	5346.005859	1037.265991	5.060577
697.349915	799.423035	5472.617676	1042.244263	5.196043
697.676208	806.110168	5652.504395	1049.228638	5.016482
698.002380	807.001892	5835.140625	1057.922241	4.990323
698.328674	811.014160	6048.018066	1066.912964	4.886359
698.654724	794.593323	6222.257813	1081.476074	5.285565
698.980896	788.054626	6359.568848	1084.671265	5.323807
699.306946	787.980286	6399.916016	1090.986938	5.399325
699.632935	799.423035	6368.857422	1086.231445	5.149686
699.958862	802.692200	6252.574219	1078.058228	5.052697
700.284729	804.252625	6088.811035	1065.649536	4.946428
700.610596	809.453857	5895.029297	1057.624878	4.879901
700.936340	811.459961	5721.829590	1053.315308	4.925400
701.262146	807.521973	5543.354004	1043.061523	4.973562
701.587830	799.720215	5365.102051	1026.343384	4.963948
701.913513	801.503418	5180.311035	1023.371399	5.066858
702.239075	804.772766	5028.584473	1021.068054	5.120856
702.564697	805.070007	4914.010254	1017.575867	5.171792
702.890137	803.732483	4812.661621	1004.870117	5.017241
703.215698	797.491150	4721.492188	992.238586	4.962981
703.541016	808.562195	4638.272949	987.557434	4.673858
703.866455	806.333191	4582.174316	978.046692	4.547689
704.191711	813.911926	4542.570801	978.864075	4.423900
704.517029	805.441406	4502.298828	986.591492	4.900110
704.842163	805.515808	4462.026855	989.415039	5.029364
705.167419	798.531311	4433.346191	991.867004	5.318997
705.492493	800.834717	4400.950195	986.517273	5.157683
705.817566	803.138123	4389.136230	983.247986	5.022587
706.142578	806.184570	4373.086426	985.625671	5.030727
706.467590	799.348633	4386.906738	981.093079	5.065965
706.792480	792.958557	4379.104980	992.981506	5.577657
707.117371	797.193848	4394.931641	990.380920	5.369682
707.442200	806.853210	4389.804199	1001.080566	5.420877
707.766907	812.500305	4415.884766	996.548096	5.107637
708.091675	802.617981	4436.986816	997.142517	5.352361
708.416321	800.166016	4452.293457	997.439697	5.401610
708.741028	794.593262	4456.528809	999.074402	5.583963
709.065552	803.881165	4449.915527	997.736877	5.316892
709.390137	805.218567	4468.417480	989.935242	5.042496
709.714600	810.048279	4475.030273	983.173645	4.723772
710.039063	806.333191	4508.169434	982.281921	4.753012
710.363403	801.577820	4538.335938	989.266418	5.022766
710.687744	807.001770	4597.555176	989.117859	4.804472
711.012085	809.156677	4662.792969	989.786560	4.687258
711.336304	811.608582	4712.501465	991.272644	4.605716
711.660461	806.184570	4739.547852	998.925781	4.900163
711.984619	810.196960	4718.074707	1005.315735	4.992960
712.308716	801.577820	4679.214355	1001.377747	5.152621
712.632751	805.738708	4631.734375	998.702881	5.043502
712.956726	803.806885	4582.174316	985.922852	4.819964
713.280701	803.509705	4540.490723	981.687561	4.767962
713.604553	803.732605	4490.113281	981.984680	4.835423
713.928467	798.531433	4452.738770	993.204529	5.327369
714.252258	804.401306	4436.541016	988.746277	5.075382
714.575989	806.184570	4416.776855	984.659668	4.943098
714.899719	804.995667	4398.795410	975.668945	4.749104
715.223267	806.481689	4390.696289	978.418213	4.797049
715.546936	799.868835	4388.764648	976.189148	4.912941
715.870422	807.001770	4381.482910	979.235535	4.818427
716.193970	811.534363	4362.015137	975.743347	4.624979
716.517395	814.952209	4344.256836	981.241699	4.711679
716.840820	813.540527	4310.672363	982.059082	4.818765
717.164124	810.419739	4242.982422	974.554443	4.781696
717.487488	816.364014	4181.162598	961.774414	4.321519
717.810730	814.952332	4126.921875	957.390564	4.300711
718.133972	811.608643	4063.615967	961.031311	4.594783
718.457092	802.543701	4008.928955	964.300720	5.044840
718.780212	797.268250	3945.400146	969.056091	5.456819
719.103210	804.847107	3904.162109	972.771240	5.418105
719.426208	808.413574	3842.936768	972.919861	5.421158
719.749207	808.785156	3795.680420	967.347168	5.308589
720.072083	806.258789	3760.312256	956.127441	5.073322
720.394958	807.076172	3721.897705	954.195496	5.047284
720.717773	806.481750	3682.814453	948.622742	4.941744
721.040527	804.178406	3640.387695	951.372009	5.189801
721.363281	810.939941	3616.165039	946.765320	4.841871
721.685913	810.791260	3606.134033	939.855164	4.617105
722.008545	810.048279	3585.180420	942.827209	4.784599
722.331055	802.320801	3560.883545	944.981934	5.171575
722.653503	802.246582	3533.242920	949.365906	5.387020
722.976013	801.949219	3522.394775	949.960266	5.440691
723.298401	796.599426	3521.428955	950.034607	5.631001
723.620789	789.689270	3518.754150	954.195557	6.027936
723.943115	786.048523	3506.419922	948.697205	5.978915
724.265381	784.711121	3493.416992	945.204895	5.925109
724.587585	793.330078	3488.735596	937.923340	5.364434
724.909790	794.370361	3510.134766	933.242188	5.113544
725.231873	806.407410	3516.227539	932.053406	4.636692
725.553894	810.122559	3528.561768	941.118347	4.818787
725.875916	851.434814	3561.700928	981.539063	4.800423
726.197937	842.592834	3573.812256	985.551331	5.234237
726.519775	840.883972	3583.322998	980.498718	5.090897
726.841675	811.385742	3568.388428	942.678528	4.762156
727.163513	807.596252	3589.861572	938.740540	4.713579
727.485291	810.568359	3616.239258	938.443359	4.557734
727.806946	809.230957	3647.297607	944.981934	4.783220
728.128662	811.385742	3682.219971	944.461853	4.635451
728.450256	808.042175	3702.207275	938.294739	4.500523
728.771790	801.726379	3698.195068	937.254578	4.679084
729.093323	815.546692	3685.489258	942.975830	4.440128
729.414795	816.364014	3671.371826	950.926208	4.713199
729.736145	808.562195	3676.795654	945.799316	4.784727
730.057495	799.868835	3669.513916	947.508301	5.144868
730.378845	795.187744	3684.151611	941.935547	5.079600
730.700134	805.441589	3673.452393	949.291504	5.015668
731.021301	812.128723	3692.697021	943.050110	4.544984
731.342468	812.054443	3701.390381	948.474304	4.721495
731.663574	810.939941	3728.659180	944.164734	4.566060
731.984680	801.354797	3745.377197	943.198730	4.818032
732.305664	804.549866	3752.807617	944.461914	4.745584
732.626648	800.017395	3748.720947	949.885986	5.082525
732.947571	804.178284	3759.123291	956.350281	5.149740
733.268433	806.704590	3751.767334	955.384338	5.048441
733.589233	809.899719	3744.708252	956.573242	4.997720
733.909973	804.401306	3700.052002	957.762024	5.296244
734.230713	798.085510	3657.031250	951.743469	5.374637
734.551331	795.559265	3598.332031	939.409241	5.132417
734.871948	798.382751	3535.769531	929.898499	4.804427
735.192505	802.543762	3470.234375	927.075012	4.668129
735.513062	800.908997	3415.473389	933.390808	5.067070
735.833435	800.240295	3377.430420	938.814941	5.376966
736.153931	800.091614	3365.541748	940.152344	5.459499
736.474304	807.670593	3353.504883	930.121399	4.809850
736.794617	812.500305	3329.876221	924.177246	4.436244
737.114807	820.524902	3310.632080	927.520813	4.296840
737.434998	820.524902	3293.393799	933.836609	4.582196
737.755188	817.775696	3304.390625	932.499207	4.613642
738.075256	816.661194	3314.495850	927.297913	4.429305
738.395325	815.695313	3347.783203	927.075012	4.398730
738.715271	809.751038	3395.485596	927.595215	4.557474
739.035278	804.104004	3418.742432	933.093689	4.933366
739.355164	802.320801	3409.083252	931.979004	4.973917
739.675049	803.658203	3382.259766	931.384583	4.953320
739.994873	805.515808	3350.235352	922.096741	4.581288
740.314636	799.794434	3331.436523	923.657043	4.892580
740.634277	803.212402	3292.427979	923.731445	4.841648
740.953979	797.565430	3263.449951	927.149414	5.255071
741.273499	809.082336	3228.230469	926.480652	4.852878
741.593140	807.967834	3200.292725	927.446594	4.994253
741.912598	811.162781	3160.986328	928.932617	5.011859
742.232117	806.481689	3133.940186	933.836609	5.471845
742.551453	808.264954	3105.482422	931.979004	5.385387
742.870850	804.995667	3083.414307	926.109131	5.315681
743.190063	803.361023	3046.188721	912.065918	4.846779
743.509338	796.005066	3007.179688	909.688171	5.141299
743.828552	802.246521	2977.904297	908.945251	4.904206
744.147705	795.262024	2958.882813	906.641846	5.147844
744.466797	796.748047	2928.344482	908.499329	5.242610
744.785828	796.525085	2923.589111	908.499451	5.264269
745.104858	801.800598	2899.589600	907.904968	5.057914
745.423706	804.698486	2904.864502	904.932861	4.772688
745.742615	802.097900	2896.542969	909.688171	5.136934
746.061401	799.125793	2906.425049	916.821228	5.585131
746.380249	796.599426	2895.279541	910.505554	5.427513
746.698975	797.342529	2880.047852	905.230042	5.180162
747.017639	796.302246	2869.496826	905.155762	5.250521
747.336304	801.280518	2863.255127	906.121765	5.084507
747.654907	800.760437	2856.939697	912.660339	5.442128
747.973389	806.110168	2850.029297	904.784180	4.827686
748.291931	812.054443	2859.168701	903.595398	4.471707
748.610352	817.106995	2860.952393	895.347839	3.828120
748.928711	813.763367	2850.846924	902.257996	4.344182
749.247070	805.069885	2846.091797	904.264099	4.860027
749.565308	805.367188	2849.806641	905.675964	4.906420
749.883545	806.407410	2864.889893	903.000977	4.692465
750.201782	808.710876	2866.004639	909.539551	4.901034
750.519836	804.698486	2857.088135	914.146301	5.332702
750.837952	805.367188	2846.908936	921.205078	5.674040
751.155884	799.348633	2824.023682	923.657043	6.139672
751.473877	796.153625	2805.968018	921.428040	6.233133
751.791809	794.073242	2787.763672	913.477722	5.989119
752.109619	794.519043	2787.094971	904.561340	5.522615
752.427490	795.559265	2784.568604	903.372498	5.420449
752.745300	799.943115	2785.609131	914.592224	5.773837
753.062988	807.596252	2777.435791	921.502441	5.782511
753.380615	803.138123	2761.832031	923.359924	6.137856
753.698303	801.280518	2759.677490	909.093750	5.505177
754.015808	801.652039	2764.730225	902.703796	5.147618
754.333374	801.874939	2770.079834	898.691406	4.919024
754.650757	801.875000	2770.154053	904.709900	5.224610
754.968262	800.314636	2761.757813	907.087585	5.443592
755.285583	806.853271	2760.791748	905.601563	5.053808
755.602905	801.577820	2749.646484	901.366394	5.122437
755.920105	800.240295	2743.702148	890.146667	4.626094
756.237305	797.862610	2744.371094	888.289063	4.645572
756.554443	805.070007	2742.959229	893.267334	4.551206
756.871582	809.676758	2746.377197	900.771912	4.703627
757.188599	813.168945	2760.569092	907.979248	4.868558
757.505615	809.676697	2785.014404	900.994812	4.622912
757.822510	805.218567	2806.488281	895.422058	4.507313
758.139465	808.710754	2822.760498	892.078430	4.139306
758.456238	810.716980	2844.902344	887.248779	3.762283
758.773010	806.927551	2864.369873	892.895813	4.178404
759.089783	802.097961	2878.190186	893.490234	4.402130
759.406433	804.995667	2866.227539	901.886414	4.700623
759.723145	811.460022	2864.593018	901.143372	4.368122
760.039673	813.094666	2871.280029	902.109375	4.324912
760.356201	810.048279	2894.462158	907.607727	4.680426
760.672668	804.624207	2915.192627	914.815125	5.220912
760.989136	802.172119	2906.648193	916.523987	5.433745
761.305481	802.023621	2888.741455	918.976074	5.604613
761.621826	807.150452	2883.837158	916.078308	5.245271
761.938049	813.466248	2913.929688	913.180420	4.747246
762.254333	813.243347	2952.864502	909.390930	4.493673
762.570496	810.196777	3018.176514	910.579834	4.546376
762.886597	802.023499	3119.228516	917.564270	4.986213
763.202637	803.361023	3304.167725	920.685059	4.691448
763.518677	801.503418	3531.831055	931.904785	4.776034
763.834656	800.537537	3764.695557	951.074890	5.078588
764.150574	797.639709	3919.988281	964.449402	5.342443
764.466370	797.714050	3967.468018	967.347168	5.351618
764.782288	799.423035	3925.041016	962.368835	5.213235
765.097961	796.079407	3811.283936	955.607239	5.290780
765.413696	792.661438	3642.765381	952.040710	5.592051
765.729309	790.060852	3471.274658	935.991394	5.442704
766.044861	789.763672	3301.938721	934.505371	5.761609
766.360474	802.989502	3187.066406	921.576660	4.974133
766.675903	798.159851	3076.132568	919.867676	5.342813
766.991394	801.206238	2994.250977	914.294983	5.156701
767.306763	794.816223	2910.883545	917.712891	5.807786
767.622131	806.258789	2845.199951	919.347656	5.546451
767.937378	807.596375	2784.865967	912.808899	5.321102
768.252625	812.797546	2735.454346	913.031799	5.213320
768.567810	810.865662	2688.272461	899.731628	4.733442
768.882996	816.586914	2662.192139	904.709900	4.774747
769.197998	809.974060	2621.994385	897.576904	4.834540
769.513062	810.345520	2578.378662	901.366394	5.148143
769.828064	802.841003	2538.106689	892.747131	5.181116
770.142944	806.407471	2512.397949	899.508789	5.457317
770.457825	807.596252	2505.636475	903.669678	5.657900
770.772705	808.710754	2490.552979	897.948425	5.305948
771.087402	805.812988	2480.447754	888.066162	4.911708
771.402100	797.862610	2447.977295	877.589539	4.831599
771.716736	801.280579	2423.977539	881.230286	4.926965
772.031372	802.395020	2393.216064	880.933044	4.936949
772.345947	809.751038	2380.138916	884.425293	4.755147
772.660461	805.218567	2366.318604	883.533691	5.016663
772.974854	807.447571	2358.516846	884.722473	4.982040
773.289246	804.995667	2347.668945	883.236389	5.071762
773.603638	810.865540	2337.415039	886.951599	4.984185
773.917908	811.608643	2339.792725	887.768860	4.983707
774.232178	817.478516	2336.968994	889.775085	4.757948
774.546265	818.147278	2336.003174	888.809082	4.655370
774.860474	812.871765	2318.913818	883.682312	4.701765
775.174561	808.264954	2304.870361	886.654358	5.237813
775.488586	800.240234	2294.691162	878.332458	5.225479
775.802551	800.983337	2286.443359	877.812317	5.172067
776.116516	800.017395	2278.790283	878.109558	5.280876
776.430359	796.822449	2258.134033	880.784424	5.745659
776.744202	792.438477	2243.867920	890.369446	6.747209
777.057922	793.998840	2229.973389	886.208496	6.421399
777.371704	805.218567	2216.673096	890.592346	6.048638
777.685303	808.116394	2198.989014	874.171448	4.749181
777.998962	804.178284	2199.731934	869.787598	4.701311
778.312500	795.930725	2207.831055	867.558594	5.073153
778.626038	802.692322	2215.707275	879.595642	5.442499
778.939453	804.401184	2209.391357	885.911377	5.801477
779.252869	811.237122	2209.391357	890.220947	5.649149
779.566223	807.150391	2204.338867	886.654358	5.690282
779.879578	808.413574	2202.704346	882.047607	5.281110
780.192749	806.110168	2203.595947	872.388184	4.742661
780.505920	808.487976	2213.255127	869.713379	4.358402
780.819031	805.218567	2216.375977	866.221130	4.322874
781.132141	808.562195	2198.246094	874.245789	4.726513
781.445190	803.658203	2183.682617	872.908386	5.018041
781.758118	803.583923	2164.661133	878.258118	5.486404
782.071045	804.104004	2152.549805	878.481140	5.515768
782.383911	812.723145	2132.933838	883.236511	5.341069
782.696838	824.388672	2114.729736	877.515137	4.117242
783.009583	819.484619	2100.834961	866.592590	3.676432
783.322266	815.175110	2089.541016	861.688660	3.649937
783.634888	812.054382	2085.454346	865.626709	4.207031
783.947510	814.283508	2075.274902	863.843445	3.930236
784.260132	812.574524	2063.980713	864.512207	4.150345
784.572571	803.138184	2049.640625	863.471985	4.840247
784.885010	798.531433	2045.108032	872.165344	5.906890
785.197449	796.376648	2037.083374	873.428467	6.210317
785.509766	803.435364	2029.207397	873.577148	5.722254
785.822083	805.070007	2020.662476	871.496582	5.464543
786.134277	810.642761	2016.129883	868.524475	4.801521
786.446533	799.794495	2006.619263	864.215027	5.338019
786.758606	797.788269	2005.801880	858.345032	5.012920
787.070740	796.673767	2024.229004	854.258362	4.690999
787.382690	804.252625	2047.931519	859.385254	4.433027
787.694641	810.939880	2075.349121	872.165344	4.842219
788.006653	811.385681	2096.897217	877.812317	5.167331
788.318481	813.094543	2136.128906	884.202332	5.374599
788.630310	818.964539	2167.781982	877.960938	4.373935
788.942017	818.741699	2195.645508	881.453125	4.554525
789.253784	820.302063	2204.487549	875.360352	3.977667
789.565430	817.032715	2197.874512	870.456360	3.868919
789.877014	820.747864	2166.667236	872.759766	3.864414
790.188538	817.255615	2140.735596	870.159119	3.997303
790.500061	810.939941	2109.231201	871.793701	4.687220
790.811462	799.051514	2090.878662	868.153015	5.349129
791.122925	800.611816	2053.578857	868.004395	5.378639
791.434204	795.039063	2030.916382	864.883606	5.651414
791.745483	804.921387	2005.876343	859.756775	4.565982
792.056702	811.162781	1997.925781	855.075684	3.700225
792.367920	824.908875	1980.093384	861.168518	3.138861
792.678955	822.308289	1975.115234	862.580322	3.493389
792.990112	813.317566	1959.065796	865.775330	4.578472
793.301086	807.744873	1954.755981	863.769104	4.884367
793.612122	810.271179	1945.691040	858.047791	4.207836
793.922974	807.001892	1946.434082	856.636047	4.356043
794.233826	804.846985	1936.848999	853.143860	4.266501
794.544556	796.748047	1931.053345	868.747375	6.347438
794.855286	798.679932	1920.725220	877.663757	7.039272
795.166016	798.457031	1926.372437	885.688477	7.733864
795.476624	803.286804	1938.855103	876.995056	6.490869
795.787292	802.766602	1950.743652	869.639099	5.825247
796.097778	806.927490	1965.975708	865.924011	5.090084
796.408264	804.401184	1987.746460	867.855774	5.362306
796.718689	804.698486	2007.510864	871.645264	5.565854
797.029053	794.444641	2014.569702	877.440857	6.802271
797.339355	794.964783	2007.882446	878.183899	6.861069
797.649658	796.525146	2007.436523	870.530579	6.111548
797.959839	805.441467	1993.541992	864.586426	4.978110
798.270020	803.361023	1971.696899	860.722656	4.909687
798.580078	809.008057	1951.709595	864.735046	4.876776
798.890137	806.704651	1933.431030	860.499756	4.774461
799.200195	807.299072	1920.056641	867.335693	5.395301
799.510071	800.017395	1901.778198	863.397644	5.752633
799.820007	798.382751	1890.781250	867.335693	6.312069
800.129883	800.017395	1870.496704	857.379089	5.358506
800.439575	803.212402	1862.620605	863.100403	5.652967
800.749329	805.664368	1855.264648	862.654602	5.429708
801.058960	801.949219	1861.654785	864.289307	5.882774
801.368591	797.119629	1852.366821	866.964172	6.618785
801.678162	798.382813	1845.010864	863.026123	6.176340
801.987671	802.320801	1831.413574	863.397644	5.935018
802.297119	808.785156	1829.333008	857.676270	4.790673
802.606506	806.407410	1818.336060	857.527649	5.051763
802.915894	804.549805	1813.209351	856.413086	5.141802
803.225159	803.361023	1797.754272	849.874512	4.677575
803.534424	806.258850	1796.119629	852.400879	4.661467
803.843628	806.333191	1794.262085	855.149963	4.941325
804.152771	805.813049	1799.389038	865.032288	5.960212
804.461792	805.292969	1804.738770	861.688660	5.642696
804.770874	804.178406	1806.299194	857.081848	5.279148
805.079773	800.314636	1812.837891	856.190247	5.518452
805.388733	796.748108	1812.837891	855.150085	5.747718
805.697571	791.769775	1816.999023	854.852844	6.153069
806.006470	792.438538	1827.921387	853.961182	5.941445
806.315125	797.119629	1842.038696	852.103516	5.262023
806.623901	801.800598	1854.521606	852.698059	4.834848
806.932495	809.230957	1852.143921	846.902405	3.612137
807.241150	807.596191	1844.639526	849.205750	4.012326
807.549622	812.500244	1832.082153	852.846619	3.957149
807.858154	805.292786	1819.822266	861.391418	5.529522
808.166565	807.299011	1803.029785	865.626770	5.857784
808.474915	807.299072	1793.519043	870.159180	6.373843
808.783264	821.193665	1783.339478	861.985901	4.239715
809.091492	822.382507	1770.262329	859.756836	3.942940
809.399719	825.057434	1743.067383	847.199707	2.411986
809.707825	810.939941	1726.720825	847.273926	3.967541
810.015930	813.763367	1722.857056	850.691895	4.062126
810.323975	808.339294	1713.495117	858.419373	5.532758
810.632080	806.630371	1702.201172	864.809387	6.496305
810.939880	793.553040	1688.826660	867.409973	8.249649
811.247864	799.200134	1691.427124	868.747375	7.794792
811.555664	799.125793	1689.866821	857.676331	6.573239
811.863464	801.354797	1684.814087	842.815735	4.693022
812.171143	792.364258	1676.120728	843.558777	5.792831
812.478882	803.806824	1670.919556	846.010742	4.867178
812.786438	801.949219	1676.640991	850.543213	5.555556
813.094055	806.184509	1665.272461	848.016907	4.869396
813.401489	805.590088	1654.350098	846.159363	4.779829
813.708984	811.237122	1639.935181	848.165527	4.456195
814.016357	816.289734	1648.554321	845.787842	3.544318
814.323730	805.887268	1650.263550	844.524658	4.575850
814.630981	806.556091	1646.622559	835.533997	3.449478
814.938232	800.388916	1639.860962	839.769348	4.691095
815.245361	801.577820	1635.105835	849.280090	5.722936
815.552490	798.754211	1628.344116	855.521484	6.842812
815.859619	798.828552	1627.452515	843.335876	5.371233
816.166565	795.262024	1637.854858	839.174988	5.211647
816.473572	797.491028	1654.795898	840.140930	4.974882
816.780457	792.884277	1670.770996	850.914734	6.610244
817.087341	799.497253	1665.644165	849.205750	5.739038
817.394043	803.286682	1674.932007	850.097412	5.370388
817.700806	810.419739	1670.325195	846.753906	4.225368
818.007507	812.351624	1675.897827	850.840515	4.457074
818.314209	809.230957	1687.637695	849.502991	4.584668
818.620667	807.893494	1699.749023	846.456543	4.323912
818.927246	805.515808	1729.841675	847.645447	4.557877
819.233704	803.806885	1754.881714	854.035461	5.281243
819.540161	800.834656	1807.265137	859.831055	5.861945
819.846497	797.416809	1869.159180	866.741272	6.468389
820.152832	801.132019	1938.557983	874.245789	6.428002
820.458984	808.562256	2012.117676	885.391174	6.383497
820.765259	810.345520	2082.928223	887.694580	6.078116
821.071350	807.373352	2195.645264	889.626465	5.924856
821.377502	799.868835	2386.974854	893.564514	5.903555
821.683472	800.834778	2755.665039	911.843018	5.678664
821.989441	797.565369	3432.785889	952.337952	5.873231
822.295349	799.125793	4445.829590	1003.681152	5.609322
822.601196	795.484924	5715.142578	1070.553589	5.591216
822.907043	799.125793	6858.884277	1126.577881	5.403715
823.212769	806.407410	7548.858887	1161.797363	5.270931
823.518494	812.500244	7599.235840	1155.927368	5.060270
823.824097	808.264954	7060.912598	1116.695435	4.932798
824.129700	809.230957	6231.843262	1076.126343	4.921897
824.435242	811.534363	5310.563965	1026.417725	4.776216
824.740723	814.283508	4526.818848	986.145691	4.629240
825.046082	806.258789	3900.521484	949.291504	4.622514
825.351501	805.590088	3439.696045	922.691162	4.445572
825.656799	805.367188	3112.912842	908.053528	4.450024
825.962036	800.240295	2904.122070	898.765686	4.683029
826.267212	797.639832	2784.569092	904.561340	5.381244
826.572449	797.491211	2778.030029	914.369324	5.901329
826.877502	809.379578	2889.781250	924.400146	5.528768
827.182495	815.100891	3148.428955	934.951111	5.136449
827.487488	819.559021	3452.921631	946.616699	4.824922
827.792419	816.735535	3706.888428	956.276062	4.828136
828.097290	813.763428	3808.534424	964.226379	5.024189
828.402100	817.775696	3695.446045	958.579407	4.892976
828.706848	820.970764	3424.835205	941.118225	4.614198
829.011597	818.815979	3060.900391	918.976074	4.467276
829.316223	814.803650	2732.408203	904.041199	4.653595
829.620789	812.648865	2453.847412	887.545959	4.563561
829.925354	805.292908	2231.608154	875.806152	4.943735
830.229797	804.624207	2071.114014	861.242859	4.470518
830.534302	800.537537	1947.920288	864.214905	5.549793
830.838562	805.738770	1858.905640	862.877441	5.425415
831.142944	805.515808	1786.311890	852.772278	4.818175
831.447144	802.320801	1748.120117	842.964355	4.297270
831.751404	803.509583	1728.207031	838.208984	3.752514
832.055542	809.453857	1715.724243	849.502991	4.419115
832.359619	815.843933	1707.030762	847.942627	3.601792
832.663635	819.261780	1722.411499	851.137695	3.529417
832.967651	808.042175	1768.107422	855.521484	4.945425
833.271545	801.206238	1864.032227	867.112793	6.201068
833.575439	796.227966	2026.978149	882.642029	7.021251
833.879211	797.491150	2243.942139	889.031982	6.328651
834.183044	800.463196	2475.097900	903.520996	6.154047
834.486694	800.240295	2642.650635	902.703796	5.561383
834.790344	806.927551	2701.201172	907.236267	5.295365
835.093933	807.224792	2639.901367	900.549011	5.092237
835.397522	813.094666	2508.162842	891.186829	4.607022
835.700928	805.590088	2328.870361	877.960938	4.750987
836.004395	799.125732	2168.599365	872.091003	5.327979
836.307739	794.296082	2004.984741	862.060120	5.597148
836.611023	795.113464	1884.019897	856.858948	5.670412
836.914307	801.726318	1775.463501	849.502991	4.906527
837.217529	803.212402	1695.662476	855.818787	5.894602
837.520691	807.893494	1638.375000	854.852783	5.654465
837.823730	809.676758	1582.945190	846.605164	4.775626
838.126831	806.035950	1541.409790	841.329590	4.799415
838.429749	802.617981	1499.577515	836.797180	4.904044
838.732727	803.732483	1467.107056	837.688782	5.118722
839.035522	807.224792	1440.358276	831.075989	3.767167
839.338379	812.425964	1430.475952	831.744629	3.125745
839.641113	806.853210	1434.562866	833.676575	4.273212
839.943848	806.778992	1468.519043	842.295654	5.367162
840.246460	801.800598	1521.273926	845.342102	6.051858
840.549072	806.704590	1585.917358	848.611389	5.378095
840.851563	801.652039	1616.975586	844.524719	5.258364
841.154053	801.874939	1619.353394	849.874512	5.871662
841.456482	794.741882	1575.589233	837.688782	5.500038
841.758850	796.005066	1531.601929	833.082092	5.040401
842.061157	801.280518	1471.045288	822.308289	3.139575
842.363403	805.218567	1426.537964	837.986084	5.273860
842.665588	809.305237	1381.139038	833.899414	4.300931
842.967712	809.825378	1350.080444	833.602234	4.401042
843.269775	808.265076	1327.418091	827.212219	3.649626
843.571777	803.063782	1308.099365	824.463074	4.237185
843.873840	796.748047	1297.325562	822.531067	5.150655
844.175659	796.673767	1292.198608	813.243347	3.343844
844.477600	805.292908	1288.111938	817.924316	2.616179
844.779297	816.809753	1260.991577	817.552917	0.167311
845.081116	815.918152	1243.307495	824.834534	2.086243
845.382751	816.586914	1227.926758	825.949036	2.276006
845.684387	805.887268	1226.440552	817.924316	2.862193
845.985962	807.076172	1216.187012	817.404236	2.524515
846.287537	796.376648	1205.710327	821.639465	6.171693
846.588989	791.026672	1200.509155	831.744629	9.943760
846.890381	796.748047	1193.450317	823.719971	6.799035
847.191711	806.481750	1180.967407	824.611633	4.841276
847.493042	814.655029	1182.676514	825.577576	2.967910
847.794250	812.203125	1181.264771	833.007813	5.637185
848.095459	801.949280	1184.459595	827.435059	6.662769
848.396606	799.645935	1176.212036	825.428955	6.846878
848.697693	801.726379	1173.239868	822.902588	5.699984
848.998657	803.286804	1177.549438	822.902649	5.241198
849.299622	810.048279	1181.710327	817.998718	2.139158
849.600464	804.772766	1165.363770	821.713867	4.698149
849.901367	807.670593	1154.144165	824.537292	4.868105
850.202087	798.531311	1141.735596	825.280273	7.793890
850.502808	804.178406	1136.683105	825.354553	6.368676
850.803467	809.453857	1133.710938	824.091492	4.514206
851.104065	817.998718	1130.070068	828.921143	3.499977
851.404663	819.856201	1139.803833	827.806580	2.484900
851.705139	814.432129	1141.809937	829.812744	4.698124
852.005615	808.190674	1140.621094	828.326660	6.057203
852.306030	799.051453	1132.001953	822.902588	7.163568
852.606384	802.692200	1124.720337	814.655029	3.714840
852.906616	799.868713	1125.983521	811.385742	3.531587
853.206909	803.212402	1127.841064	811.385681	2.517732
853.506958	796.748047	1129.475586	814.506409	5.337208
853.807129	799.943115	1125.166138	820.004883	6.168619
854.107178	801.577820	1119.890625	822.308289	6.512609
854.407166	801.503418	1113.649292	821.342285	6.355640
854.707092	800.908997	1113.351929	814.506409	4.351966
855.007019	796.227966	1117.438599	818.890320	7.055294
855.306763	799.794434	1122.119751	822.605469	7.077023
855.606567	795.707825	1126.354980	827.360840	9.573050
855.906250	796.896667	1116.621338	824.240051	8.552166
856.205933	803.361023	1113.946411	824.760254	6.889967
856.505493	804.624207	1108.150879	829.961426	8.347609
856.805054	813.243347	1111.643066	824.685852	3.834623
857.104492	804.401306	1103.395386	818.815918	4.821036
857.403931	812.351624	1101.463623	813.689148	0.462632
857.703308	813.689026	1112.609009	810.122559	-1.193118
858.002563	811.311340	1117.884399	813.020325	0.557448
858.301819	811.088562	1111.940308	815.175110	1.358326
858.601013	806.853271	1100.274536	818.221619	3.874412
858.900208	812.871765	1101.612183	818.221619	1.852825
859.199219	811.905823	1102.206665	817.924316	2.073192
859.498291	812.500305	1103.766968	825.503235	4.464270
859.797302	807.596252	1096.262451	830.853027	8.056633
860.096191	798.605652	1097.079712	834.048096	11.874547
860.395020	796.525146	1086.751587	834.345215	13.031228
860.693787	798.828552	1084.819702	826.320557	9.612886
860.992554	805.887207	1074.045898	824.388672	6.899446
861.291260	804.995605	1079.692871	819.559082	5.301646
861.589844	808.413574	1078.355347	823.942871	5.752832
861.888428	807.224792	1082.367676	822.605469	5.590069
862.186890	812.946106	1079.767090	821.416565	3.174585
862.485413	811.980164	1089.723755	821.862366	3.558031
862.783813	810.642761	1094.107544	820.599304	3.512444
863.082153	807.596252	1096.113770	825.428955	6.180804
863.380371	806.555969	1093.067261	822.085266	5.420135
863.678589	803.658203	1087.717529	818.518799	5.231511
863.976746	796.450867	1081.847656	813.317566	5.909912
864.274902	800.314636	1087.940430	812.500244	4.236619
864.572937	804.846985	1100.126099	809.973938	1.736307
864.870911	807.670593	1111.271606	811.757141	1.346026
865.168884	800.537537	1105.327271	814.357727	4.534336
865.466736	800.834717	1097.228394	818.741699	6.041621
865.764587	807.373352	1087.791870	815.918152	3.047160
866.062317	809.305176	1080.658691	812.648926	1.232249
866.360107	804.252625	1087.346069	812.574646	2.939673
866.657715	797.193848	1096.262329	815.769531	6.211181
866.955322	797.342529	1099.903198	823.422791	8.619845
867.252808	803.212402	1089.649414	820.153381	5.914382
867.550293	803.881165	1079.395508	819.410461	5.636475
867.847717	797.045227	1072.485474	809.825378	4.639900
868.145081	789.615051	1066.169800	809.751160	7.281057
868.442383	794.741943	1062.677612	814.432129	7.348848
868.739624	805.590149	1064.089233	820.079102	5.605031
869.036804	802.023499	1061.191528	825.651794	9.116980
869.333984	795.856445	1074.268799	821.862305	9.340771
869.631042	786.122742	1073.377075	822.679688	12.726334
869.928101	791.546875	1082.219116	815.769531	8.333323
870.224976	786.717224	1073.822876	813.614807	9.368531
870.521851	797.788330	1083.556519	814.729309	5.928224
870.818726	797.714050	1082.962036	817.255615	6.850729
871.115479	802.915222	1082.739258	814.283508	4.062655
871.412231	800.686096	1076.795044	817.181335	5.974178
871.708862	806.481750	1080.064453	822.159668	5.730595
872.005493	809.899658	1080.733032	826.915039	6.282601
872.302063	803.881165	1089.054932	822.605469	6.565928
872.598572	809.453857	1095.444946	825.057434	5.455966
872.895020	812.648865	1106.070313	826.320557	4.659404
873.191406	815.918213	1100.943481	828.846863	4.535966
873.487671	805.218567	1098.119873	825.503235	6.925427
873.783997	794.593262	1097.525513	828.401062	11.160185
874.080200	798.234070	1096.485229	819.113220	7.000526
874.376343	795.782166	1093.736084	812.648865	5.660841
874.672424	802.172180	1089.203613	814.506409	4.297170
874.968445	791.621155	1101.389282	817.924316	8.491242
875.264465	800.834778	1100.423340	817.701477	5.629954
875.560364	804.252686	1100.497559	818.593079	4.840723
875.856201	813.391846	1090.020874	820.524963	2.578586
876.152039	809.453796	1090.169434	824.165833	5.240904
876.447754	805.292908	1084.671021	814.580750	3.324470
876.743469	805.441467	1081.550415	815.398010	3.606020
877.039063	802.840881	1087.940430	826.097656	8.157423
877.334595	805.070007	1088.163452	831.447449	9.317575
877.630127	803.955383	1090.095215	824.388672	7.141015
877.925537	804.401184	1085.265503	811.608643	2.566171
878.221008	802.766602	1089.946655	809.899658	2.483827
878.516296	803.806824	1097.451172	816.289734	4.251030
878.811646	803.583923	1109.265259	819.038879	5.055904
879.106812	808.487976	1127.097900	818.072937	3.008368
879.401978	800.388977	1145.079224	815.769531	4.462138
879.697083	801.577820	1168.410278	817.478516	4.334593
879.992126	794.519043	1193.524536	817.627136	5.791422
880.287109	807.967773	1236.174316	818.370117	2.429282
880.582031	807.150574	1313.003296	821.713806	2.878947
880.876892	809.379578	1451.206421	833.007813	3.681403
881.171753	805.887390	1696.628418	848.685608	4.804788
881.466492	807.596252	2082.185303	868.450134	4.774392
881.761230	811.757263	2607.579834	892.301331	4.485079
882.055786	806.927551	3154.893555	915.409485	4.620251
882.350403	809.602478	3510.358154	931.607605	4.517444
882.644958	812.871765	3580.276611	929.601379	4.218018
882.939453	814.580750	3384.934814	914.666504	3.893851
883.233826	810.419739	3073.977783	897.651184	3.853731
883.528137	793.924622	2731.442383	884.796875	4.690138
883.822449	793.255859	2422.640381	880.784485	5.371883
884.116577	793.330139	2157.825439	868.821777	5.532568
884.410828	794.816162	1941.604492	862.431702	5.896079
884.704956	795.039063	1760.454468	848.982910	5.587631
884.999023	797.788330	1632.802246	841.552673	5.241151
885.292969	803.658203	1527.366699	832.264832	3.952783
885.586914	803.286682	1442.735840	829.144043	4.043693
885.880798	801.577820	1374.005859	833.899475	5.646414
886.174622	809.899658	1324.891724	834.345276	4.746795
886.468384	819.707581	1295.393555	830.332947	2.233693
886.762085	822.159607	1264.335083	821.490906	-0.151230
887.055664	819.484680	1240.929810	823.794250	1.022570
887.349304	820.376282	1209.648315	828.103821	1.985126
887.642822	819.930481	1192.335815	833.602234	3.671202
887.936340	818.295837	1174.800415	826.469177	2.292633
888.229736	805.961609	1165.066772	824.388672	5.131383
888.523071	804.178406	1141.587036	817.627136	3.985888
888.816284	804.029785	1124.051636	815.620911	3.621979
889.109619	805.441467	1097.376831	817.775696	4.224986
889.402710	803.732483	1090.838257	819.856201	5.615951
889.695862	803.881104	1075.457520	824.314392	7.523955
889.988892	804.475586	1069.067505	814.209167	3.678715
890.281921	800.240356	1052.572388	795.782104	-1.766820
>>>>>End Processed Spectral Data<<<<<
