Jaz Data File
++++++++++++++++++++++++++++++++++++
Date: Fri Jun 04 13:12:02 2021
User: jaz
Dark Spectrum Present: Yes
Reference Spectrum Present: Yes
Processed Spectrum Present: Yes
Spectrometers: JAZA3586
Integration Time (usec): 31000 (JAZA3586)
Spectra Averaged: 10 (JAZA3586)
Boxcar Smoothing: 1 (JAZA3586)
Correct for Electrical Dark: No (JAZA3586)
Strobe/Lamp Enabled: Yes (JAZA3586)
Correct for Detector Non-linearity: No (JAZA3586)
Correct for Stray Light: No (JAZA3586)
Number of Pixels in Processed Spectrum: 2048
>>>>>Begin Processed Spectral Data<<<<<
W	D	R	S	P
191.335022	0.000000	0.000000	0.000000	0.000000
191.713211	360.962646	357.024567	351.154663	249.054962
192.091385	715.386658	714.049133	709.591003	433.312042
192.469528	1071.445313	1078.652710	1069.959106	-20.620565
192.847641	1072.262573	1088.014648	1079.395630	45.283283
193.225739	1091.358398	1095.519409	1091.878418	12.497433
193.603790	1109.042358	1102.429443	1101.760742	110.112045
193.981842	1114.912231	1109.636841	1112.311646	49.296558
194.359863	1116.621216	1118.032837	1111.865967	-336.864410
194.737854	1121.822388	1124.348633	1114.912354	-273.529846
195.115829	1130.590210	1123.828613	1111.345825	284.613037
195.493774	1136.683105	1123.902954	1112.460327	189.534363
195.871704	1131.778931	1113.277710	1109.859741	118.474289
196.249603	1131.184692	1118.627563	1109.265259	174.557678
196.627457	1125.834839	1119.519043	1110.454224	243.526154
197.005310	1129.995728	1120.782227	1108.893921	229.031357
197.383133	1122.713989	1113.500488	1112.980469	105.644104
197.760910	1123.902954	1110.974243	1110.156860	106.322227
198.138687	1116.992798	1116.398438	1108.447876	1437.666870
198.516449	1122.268188	1118.033081	1097.971313	573.701477
198.894180	1115.209473	1116.101196	1091.729858	-2633.059570
199.271866	1115.878174	1114.838135	1086.974487	2779.096191
199.649536	1106.367432	1114.986694	1088.163452	-211.201126
200.027191	1104.064087	1118.627563	1090.392456	-93.876152
200.404816	1107.184692	1119.964966	1087.717529	-152.321960
200.782410	1112.460327	1129.401367	1089.426392	-135.965302
201.159988	1111.865845	1144.782104	1092.770020	-58.013351
201.537537	1114.615112	1155.704590	1101.314941	-32.368801
201.915070	1113.500610	1157.562134	1105.104370	-19.055719
202.292557	1116.101196	1158.007813	1096.485229	-46.808758
202.670029	1103.692627	1156.596069	1090.392334	-25.140696
203.047485	1100.571899	1150.874878	1087.494629	-25.997011
203.424911	1098.491455	1140.695435	1095.370728	-7.394392
203.802292	1101.463501	1136.311523	1098.268555	-9.168228
204.179688	1100.348999	1139.209351	1095.147827	-13.384264
204.557037	1104.732910	1153.921387	1092.770142	-24.320267
204.934357	1102.429565	1155.853149	1090.318115	-22.670607
205.311661	1102.429565	1161.351440	1097.971313	-7.566378
205.688934	1094.702026	1154.144165	1100.348999	9.499949
206.066177	1095.444946	1151.766479	1100.423218	8.839020
206.443390	1098.342773	1146.268066	1095.890747	-5.116351
206.820587	1101.760742	1145.079224	1092.547241	-21.269215
207.197769	1106.070313	1156.670532	1103.172485	-5.726906
207.574921	1109.265381	1157.190552	1102.652344	-13.798672
207.952042	1106.516113	1153.698242	1107.779297	2.677250
208.329147	1101.612183	1145.970825	1098.268555	-7.537714
208.706223	1107.036133	1155.035767	1106.367554	-1.392884
209.083267	1104.658569	1158.602417	1103.172485	-2.754872
209.460297	1101.463501	1156.819092	1101.686523	0.402891
209.837280	1088.980713	1147.754028	1086.380127	-4.424773
210.214264	1090.912476	1148.645630	1091.061157	0.257533
210.591217	1094.776245	1153.103882	1089.500854	-9.044410
210.968124	1091.952759	1156.819092	1104.509888	19.358469
211.345016	1090.541016	1153.698364	1091.358398	1.294201
211.721893	1088.460571	1156.818970	1090.095215	2.391284
212.098724	1091.061157	1155.481567	1080.212891	-16.839798
212.475555	1097.822754	1151.469238	1081.996216	-29.501537
212.852356	1098.342773	1148.794312	1090.986816	-14.580243
213.229126	1099.234497	1147.828369	1091.878418	-15.137874
213.605865	1091.952759	1153.103882	1089.500854	-4.009582
213.982590	1087.866089	1146.342407	1074.194580	-23.379564
214.359283	1087.123047	1149.240234	1072.411255	-23.683931
214.735931	1090.317993	1144.261841	1072.262573	-33.470768
215.112579	1090.838257	1151.469238	1078.429688	-20.465725
215.489197	1090.466675	1150.800415	1083.259399	-11.945680
215.865799	1087.271729	1147.159790	1088.014771	1.240718
216.242355	1093.290405	1141.884277	1089.277954	-8.257113
216.618896	1093.810425	1140.918335	1087.866089	-12.618551
216.995407	1095.816528	1146.565308	1086.380005	-18.594582
217.371902	1097.376831	1157.339233	1091.952759	-9.045789
217.748367	1095.816528	1154.664307	1092.918579	-4.924484
218.124802	1093.513184	1153.772705	1089.500854	-6.658415
218.501236	1094.256226	1146.639648	1079.395630	-28.368891
218.877609	1096.931030	1145.227905	1079.618530	-35.846004
219.253983	1092.026978	1150.949097	1082.590698	-16.014833
219.630295	1090.169434	1143.296021	1088.534912	-3.076654
220.006592	1083.779419	1146.936890	1086.305786	4.000108
220.382889	1095.222168	1152.063599	1084.968384	-18.039278
220.759140	1088.906372	1159.791138	1090.912598	2.830263
221.135391	1094.330566	1158.305054	1087.791870	-10.220787
221.511581	1091.729858	1150.280396	1081.773315	-17.005041
221.887772	1091.506958	1147.754150	1073.228516	-32.496632
222.263931	1087.643188	1150.949219	1067.953003	-31.103176
222.640060	1086.528687	1155.704590	1078.949829	-10.955921
223.016159	1094.627563	1163.357666	1085.116821	-13.837811
223.392212	1101.612061	1163.134766	1092.621460	-14.613467
223.768265	1107.853516	1163.432007	1094.776245	-23.529373
224.144302	1114.317871	1154.887207	1098.342773	-39.377274
224.520294	1117.364258	1153.475464	1100.869019	-45.679005
224.896286	1115.135132	1154.812866	1103.692505	-28.838913
225.272217	1102.132202	1168.410278	1103.692505	2.354176
225.648148	1092.993042	1180.373047	1108.522339	17.772141
226.024048	1086.380249	1184.459595	1107.853516	21.893770
226.399902	1087.271729	1180.373047	1100.497681	14.205977
226.775772	1097.005371	1178.589722	1100.943359	4.826892
227.151581	1099.680298	1175.617676	1096.856689	-3.718338
227.527374	1095.593628	1185.277100	1096.856812	1.408491
227.903137	1094.107544	1194.787964	1090.466797	-3.616142
228.278870	1086.305786	1211.357300	1090.541016	3.386788
228.654572	1091.581177	1222.651245	1097.302612	4.365173
229.030273	1087.420288	1238.031982	1097.153931	6.462740
229.405930	1089.723633	1248.359985	1103.915527	8.946180
229.781555	1081.921997	1262.849121	1098.788696	9.322371
230.157181	1085.339966	1255.567261	1098.863037	7.944126
230.532761	1099.308716	1249.623169	1087.643188	-7.760749
230.908325	1105.401733	1227.778076	1087.197388	-14.875707
231.283859	1104.064087	1222.279663	1086.751587	-14.644855
231.659332	1091.804199	1225.623413	1084.522583	-5.441383
232.034821	1095.370728	1234.539673	1082.144897	-9.503435
232.410263	1094.256226	1239.517944	1078.875488	-10.588294
232.785690	1095.965210	1234.391113	1085.488403	-7.568531
233.161087	1092.695923	1234.390991	1084.894043	-5.506105
233.536469	1084.894043	1230.155884	1089.575073	3.222478
233.911804	1084.225220	1230.750366	1092.844360	5.882363
234.287140	1082.442017	1225.920532	1099.011597	11.548474
234.662430	1088.534912	1231.864746	1092.547241	2.799368
235.037704	1087.123169	1243.678955	1092.324341	3.322248
235.412933	1093.438843	1257.350586	1090.318115	-1.903907
235.788162	1091.729858	1262.774658	1090.243774	-0.868827
236.163345	1099.011597	1258.242188	1091.358276	-4.806438
236.538513	1097.376831	1251.183472	1094.107544	-2.125582
236.913635	1097.896973	1249.474609	1099.160034	0.833277
237.288742	1094.627808	1251.852295	1092.101318	-1.606931
237.663834	1089.723755	1254.824341	1094.701904	3.015222
238.038879	1101.909302	1261.660278	1093.513062	-5.255830
238.413910	1108.002075	1267.827271	1093.290161	-9.205003
238.788910	1110.008301	1276.743774	1082.144653	-16.711288
239.163879	1108.225098	1282.985107	1084.968262	-13.307871
239.538834	1105.624512	1289.375122	1082.887817	-12.373671
239.913757	1105.104370	1298.588623	1087.494751	-9.101319
240.288651	1096.188110	1314.043579	1085.859985	-4.740815
240.663528	1088.014771	1327.566650	1103.544067	6.482645
241.038361	1084.299561	1353.795532	1111.568726	10.118580
241.413177	1085.488403	1383.368164	1119.370483	11.374415
241.787979	1093.067261	1426.389282	1117.735840	7.400825
242.162735	1101.017700	1471.119629	1120.782227	5.340293
242.537476	1104.584229	1497.348633	1117.735840	3.348473
242.912170	1107.036255	1516.147095	1112.534668	1.343991
243.286865	1101.760864	1517.187134	1115.209473	3.237303
243.661514	1100.200439	1515.552612	1116.918457	4.025023
244.036148	1099.606079	1494.524780	1108.299316	2.201273
244.410751	1099.457397	1469.707886	1100.348999	0.240810
244.785339	1093.364624	1463.614868	1094.479126	0.301013
245.159882	1090.243896	1474.091797	1102.503784	3.193944
245.534378	1089.352173	1508.196655	1098.268555	2.128805
245.908890	1084.671143	1556.344727	1103.469727	3.985507
246.283356	1081.327515	1630.647461	1099.680298	3.341001
246.657791	1078.132446	1702.943970	1107.853638	4.756825
247.032196	1082.590698	1771.525391	1112.534668	4.346416
247.406586	1086.305786	1813.506470	1117.661499	4.311838
247.780960	1086.157227	1834.682739	1112.088745	3.464347
248.155289	1097.302612	1814.992554	1105.550171	1.149181
248.529602	1098.565796	1775.240601	1107.927856	1.383539
248.903870	1114.615112	1713.123413	1108.968140	-0.943508
249.278122	1111.717285	1659.105469	1111.791626	0.013581
249.652344	1106.144653	1619.427734	1106.664673	0.101312
250.026550	1099.828979	1594.907837	1104.510010	0.945512
250.400711	1095.073608	1581.161987	1108.596558	2.781994
250.774857	1100.126099	1573.880249	1108.299316	1.725202
251.148987	1094.924927	1585.471313	1110.305542	3.135405
251.523071	1091.729858	1610.214233	1102.726685	2.120956
251.897125	1078.355347	1634.213867	1103.766968	4.571599
252.271164	1082.144775	1645.953735	1113.946411	5.640499
252.645187	1086.900269	1645.433960	1114.763672	4.988670
253.019165	1100.571899	1640.529907	1122.714111	4.100729
253.393112	1100.200317	1619.056274	1114.095093	2.677964
253.767044	1100.720459	1593.124634	1117.290161	3.365061
254.140930	1098.045532	1571.948242	1107.110596	1.912853
254.514801	1100.497559	1570.536621	1103.544067	0.648139
254.888657	1098.565674	1573.062988	1093.438843	-1.080476
255.262466	1095.222046	1577.595337	1098.863037	0.754808
255.636276	1091.581177	1575.812134	1099.383179	1.611215
256.010010	1090.689575	1585.843140	1108.225098	3.541431
256.383759	1092.918701	1607.242188	1104.286987	2.210338
256.757446	1091.655640	1649.000366	1110.825562	3.439509
257.131134	1093.513184	1689.792480	1114.838013	3.576316
257.504791	1091.804199	1736.528931	1124.571655	5.082395
257.878418	1098.045532	1791.958862	1127.098022	4.186760
258.252014	1103.172485	1882.013672	1126.503540	2.995611
258.625580	1105.624512	1994.656616	1127.320801	2.440439
258.999115	1100.126099	2133.974365	1135.939941	3.464129
259.372650	1093.735962	2269.353760	1147.085449	4.537996
259.746124	1088.609131	2379.024414	1154.292847	5.090122
260.119598	1093.513184	2444.559326	1153.326782	4.427206
260.493042	1095.296509	2454.813232	1157.041992	4.541723
260.866425	1104.955933	2410.974609	1145.450806	3.100635
261.239838	1102.949585	2327.829834	1148.274292	3.700338
261.613159	1095.593628	2216.598877	1142.627319	4.195671
261.986511	1092.324219	2124.760742	1138.020386	4.426051
262.359802	1087.123047	2057.219482	1126.354858	4.044115
262.733063	1095.444946	2025.046265	1121.673828	2.821519
263.106293	1097.896973	2007.287964	1126.652100	3.162020
263.479523	1099.457275	1989.455200	1129.921509	3.422956
263.852692	1098.417114	1977.492554	1132.596436	3.888099
264.225861	1094.479126	1963.226440	1129.772827	4.062597
264.598969	1097.971313	1969.096313	1128.807007	3.539755
264.972076	1096.782349	1987.597778	1120.410767	2.652448
265.345154	1100.646240	2024.303345	1125.091919	2.646618
265.718201	1093.661743	2066.953125	1129.327148	3.664412
266.091217	1094.107544	2122.011475	1140.175293	4.481718
266.464203	1093.661743	2181.379150	1143.964722	4.624637
266.837158	1098.788574	2236.883545	1137.054565	3.362284
267.210114	1101.389160	2277.526855	1130.367310	2.463840
267.583038	1096.485229	2302.121094	1125.983398	2.446690
267.955902	1093.513062	2306.356201	1133.562378	3.302102
268.328766	1092.621460	2314.158203	1141.438354	3.996351
268.701569	1096.410889	2326.343994	1148.719971	4.253002
269.074371	1096.485229	2344.770996	1149.983154	4.285711
269.447144	1091.358276	2375.309326	1142.181396	3.958338
269.819885	1085.488403	2426.429688	1145.376465	4.466121
270.192596	1089.649414	2526.366943	1151.320679	4.292511
270.565277	1090.986816	2647.851807	1163.729248	4.672366
270.937927	1099.531616	2770.525391	1167.072876	4.041982
271.310577	1097.302612	2861.843750	1165.363892	3.857166
271.683136	1100.794800	2914.301514	1163.580566	3.462119
272.055725	1096.633911	2930.499268	1167.444336	3.861266
272.428284	1095.742188	2904.196045	1170.490723	4.133284
272.800812	1092.770142	2867.490479	1173.462891	4.546787
273.173279	1086.082886	2803.218750	1169.078979	4.833403
273.545776	1091.506958	2770.376953	1160.459839	4.107100
273.918152	1086.231567	2728.618896	1156.744751	4.293334
274.290558	1091.135498	2718.736816	1149.537476	3.588224
274.662964	1085.859985	2713.609619	1149.760376	3.925689
275.035278	1098.937256	2737.089111	1146.936890	2.930109
275.407593	1097.079590	2771.788818	1159.642578	3.735752
275.779907	1095.444946	2817.559326	1168.484619	4.241279
276.152161	1082.070435	2870.983154	1172.496948	5.054831
276.524384	1085.859985	2916.233398	1167.890259	4.481614
276.896606	1096.633911	2944.171143	1165.512573	3.728134
277.268799	1101.983643	2934.734375	1166.404053	3.514957
277.640930	1100.869019	2936.443604	1172.422485	3.898151
278.013031	1090.615356	2928.939209	1170.193481	4.328842
278.385162	1090.838257	2940.158936	1174.577393	4.528102
278.757233	1090.466675	2952.195557	1169.822021	4.262455
279.129272	1090.986816	2993.359375	1174.205933	4.374491
279.501282	1095.222046	3034.746094	1172.348267	3.976554
279.873230	1097.896973	3096.120117	1177.103760	3.963861
280.245178	1099.754517	3174.361084	1178.366821	3.789263
280.617126	1102.801025	3305.430908	1184.088257	3.690463
280.988983	1097.822754	3417.479492	1184.756836	3.747713
281.360870	1103.098145	3534.283203	1191.072632	3.618585
281.732697	1095.965088	3599.669678	1193.524658	3.896609
282.104492	1101.017700	3659.780518	1199.171631	3.835992
282.476288	1092.993042	3670.851563	1191.518555	3.821991
282.848053	1091.284058	3666.764893	1188.100586	3.759163
283.219757	1094.702026	3654.282471	1182.602051	3.434157
283.591461	1101.760742	3634.443604	1189.586548	3.467699
283.963135	1105.698853	3647.891846	1185.202759	3.127375
284.334747	1095.593628	3708.820313	1185.722778	3.448961
284.706360	1089.054932	3803.184814	1188.397827	3.660212
285.077942	1086.305664	3893.536865	1200.434692	4.065537
285.449524	1088.832031	3968.805420	1202.069336	3.931887
285.821014	1095.593628	3985.523438	1196.496704	3.491541
286.192535	1098.268555	4037.535400	1198.428589	3.407654
286.563995	1097.376953	4038.352783	1203.481079	3.607786
286.935425	1093.884644	4041.547852	1219.010498	4.244917
287.306824	1091.284058	3954.613525	1207.567871	4.061140
287.678223	1096.410889	3876.298096	1212.100342	4.161660
288.049561	1086.825806	3816.261963	1202.961060	4.254918
288.420898	1083.333618	3820.645752	1204.595703	4.429969
288.792145	1079.767212	3845.686279	1191.741333	4.048351
289.163452	1085.042603	3947.778076	1193.673218	3.794644
289.534668	1093.735962	4058.266357	1207.642090	3.842299
289.905914	1095.519409	4179.750488	1222.056763	4.102720
290.277039	1103.246948	4278.499512	1226.217773	3.872789
290.648193	1095.816528	4309.482910	1229.710083	4.166380
291.019318	1096.410889	4320.331543	1232.533569	4.222271
291.390381	1090.615356	4258.883301	1230.676025	4.420733
291.761475	1096.633911	4211.849609	1224.286011	4.097697
292.132507	1092.175659	4170.760254	1218.267456	4.095772
292.503510	1092.026978	4166.228027	1218.118896	4.101616
292.874481	1084.448120	4210.586426	1223.468628	4.447037
293.245422	1088.386230	4288.009766	1229.858643	4.421533
293.616364	1089.500854	4421.680176	1236.545898	4.412879
293.987213	1094.553345	4553.567871	1246.799683	4.401437
294.358093	1093.810303	4674.755371	1253.189697	4.450763
294.728943	1091.358276	4789.033203	1249.846069	4.286148
295.099731	1087.717529	4903.087402	1245.759399	4.142242
295.470490	1083.556641	5015.507324	1244.273438	4.087457
295.841248	1089.054932	5100.584473	1258.242310	4.217528
296.211975	1097.376831	5209.883301	1260.917114	3.976657
296.582642	1106.293091	5320.148926	1263.443359	3.729370
296.953308	1105.178711	5374.464355	1262.031738	3.673988
297.323883	1096.708252	5352.545410	1263.146240	3.910817
297.694519	1091.209839	5241.313965	1259.728271	4.060584
298.065063	1091.135498	5122.578125	1258.019409	4.139558
298.435608	1095.147827	4978.208008	1249.177490	3.966708
298.806122	1095.593628	4812.810059	1245.685181	4.037741
299.176575	1094.182007	4655.437012	1229.189941	3.791021
299.547028	1094.256226	4534.843750	1224.286011	3.779290
299.917450	1093.884644	4470.497559	1219.307739	3.714465
300.287872	1092.398560	4472.801270	1223.468628	3.877351
300.658234	1093.215942	4476.812988	1216.261230	3.636523
301.028564	1092.547241	4465.593750	1215.369629	3.641290
301.398865	1093.884644	4409.718262	1210.911499	3.529335
301.769135	1096.485229	4353.396973	1221.165283	3.828168
302.139374	1098.119873	4326.424316	1217.301514	3.691772
302.509583	1103.246826	4285.261230	1215.518188	3.528311
302.879791	1099.903198	4234.512207	1204.669922	3.342258
303.249939	1099.234497	4167.045410	1198.131348	3.223694
303.620087	1091.506958	4134.872070	1198.354126	3.510823
303.990173	1088.757813	4130.116699	1201.697876	3.713474
304.360260	1085.859985	4130.637207	1201.697876	3.804478
304.730286	1081.624634	4126.327637	1201.995239	3.953443
305.100281	1087.123169	4115.999023	1200.880615	3.755764
305.470276	1089.055054	4121.571777	1210.168335	3.993821
305.840179	1097.822754	4133.460449	1208.533691	3.647041
306.210144	1090.317993	4162.586914	1212.917603	3.990523
306.579987	1089.055054	4208.208496	1210.911499	3.906715
306.949890	1087.271729	4271.960449	1217.970215	4.103964
307.319702	1090.763916	4350.869629	1224.806030	4.111588
307.689484	1093.215942	4430.002441	1234.242432	4.226416
308.059265	1098.565674	4516.937012	1240.112427	4.140766
308.429016	1101.017700	4600.453125	1233.202271	3.777311
308.798737	1101.537720	4711.684082	1235.802856	3.719105
309.168396	1092.250122	4771.646484	1239.518066	4.002503
309.538055	1090.689819	4791.411133	1242.192871	4.093879
309.907684	1094.702026	4776.327637	1234.762695	3.804316
310.277313	1095.519409	4797.132324	1231.493286	3.673368
310.646851	1097.525513	4810.061035	1233.945313	3.674572
311.016388	1089.723633	4792.896973	1238.106201	4.006903
311.385895	1092.026978	4726.619141	1232.384888	3.861724
311.755371	1092.398560	4656.997559	1232.236206	3.922956
312.124817	1096.931030	4604.911621	1230.898804	3.818943
312.494232	1095.445190	4568.131348	1238.329102	4.114507
312.863617	1089.500854	4544.279785	1238.254761	4.305743
313.232971	1090.095215	4552.973145	1235.282593	4.192679
313.602295	1092.472778	4624.452637	1230.378784	3.904496
313.971619	1097.228149	4730.036621	1234.688354	3.783855
314.340820	1094.924927	4773.727051	1241.598511	3.986993
314.710083	1092.547119	4766.445313	1242.564331	4.083325
315.079285	1093.884644	4683.597168	1235.357056	3.941051
315.448486	1087.048828	4601.715820	1226.515015	3.968120
315.817596	1089.426636	4467.748535	1221.090942	3.897329
316.186707	1086.677368	4361.718262	1212.917603	3.854615
316.555786	1097.822754	4271.291992	1205.858765	3.404350
316.924866	1100.274780	4227.230469	1197.536987	3.110444
317.293884	1099.160156	4220.394043	1205.041626	3.392295
317.662872	1099.977417	4244.542480	1213.289185	3.603416
318.031830	1097.748413	4282.734375	1220.645020	3.858623
318.400757	1091.506958	4317.285645	1211.803101	3.729212
318.769684	1085.934204	4353.322266	1207.344849	3.715832
319.138550	1088.163452	4359.711426	1208.385132	3.674765
319.507416	1092.770142	4351.612793	1216.335571	3.791697
319.876190	1094.850586	4300.716309	1215.815430	3.773235
320.244995	1098.045654	4233.100098	1209.499634	3.555089
320.613770	1098.491333	4179.676270	1202.218140	3.366458
320.982483	1093.810425	4179.453613	1199.766113	3.433828
321.351166	1085.637085	4218.017090	1200.434692	3.664869
321.719818	1085.339844	4279.910645	1208.087891	3.842396
322.088440	1082.739258	4394.857422	1218.564575	4.100860
322.457062	1084.522583	4559.958008	1231.939087	4.241670
322.825623	1090.169434	4740.291016	1240.484009	4.118071
323.194183	1088.237671	4858.135254	1246.576782	4.200091
323.562653	1087.123047	4930.877441	1244.867798	4.103924
323.931183	1079.024048	4936.598145	1243.827637	4.272208
324.299591	1090.392456	4910.740723	1233.350952	3.742028
324.668060	1095.370728	4859.991699	1235.357056	3.718471
325.036407	1103.098145	4789.330566	1225.326172	3.315798
325.404755	1104.212769	4729.293457	1232.607910	3.541856
325.773102	1101.314819	4648.304199	1227.629517	3.561181
326.141388	1089.872192	4571.028809	1230.973145	4.053278
326.509674	1083.259399	4464.255859	1217.375732	3.966769
326.877899	1081.253296	4383.637207	1215.369629	4.061198
327.246124	1092.992920	4341.285156	1211.357300	3.643896
327.614288	1098.862915	4314.833496	1212.843384	3.544201
327.982422	1100.126099	4310.672363	1218.713257	3.693675
328.350525	1100.943481	4322.263672	1224.286011	3.828943
328.718628	1092.918701	4369.148926	1232.161987	4.250107
329.086700	1090.466675	4417.296875	1232.087646	4.256934
329.454712	1088.757690	4466.113770	1235.356934	4.340651
329.822693	1093.736084	4485.952637	1234.168091	4.139830
330.190674	1097.079712	4536.403809	1234.168091	3.985910
330.558563	1095.370728	4567.908691	1235.208374	4.026958
330.926483	1099.977417	4657.517578	1238.997803	3.907767
331.294312	1099.754517	4739.473145	1245.685181	4.009394
331.662231	1101.315063	4857.688965	1245.908081	3.849271
332.029999	1091.284180	4951.310547	1238.923706	3.824832
332.397766	1090.169556	5018.851563	1231.864868	3.606688
332.765503	1092.027100	5055.037109	1241.375610	3.768563
333.133240	1100.943481	5077.253418	1252.149536	3.802673
333.500916	1099.457397	5083.420410	1264.112183	4.132940
333.868561	1098.714355	5078.591309	1260.768555	4.071839
334.236176	1094.256226	5053.179199	1258.390991	4.145945
334.603790	1093.810425	5014.170898	1245.016357	3.856940
334.971344	1090.466797	4978.728027	1238.997925	3.819988
335.338867	1088.534790	4955.545410	1242.564453	3.983171
335.706360	1095.667847	4949.601563	1245.833862	3.896435
336.073853	1102.355225	4966.542480	1246.279419	3.724566
336.441284	1107.407837	4995.520508	1239.592163	3.399704
336.808655	1108.819580	5052.808105	1235.357056	3.208363
337.176086	1098.862915	5096.869629	1235.208374	3.410336
337.543396	1092.918823	5120.794922	1236.471558	3.563981
337.910706	1082.293335	5127.630371	1243.753296	3.991261
338.277954	1079.915649	5118.714355	1244.644897	4.078669
338.645264	1082.442017	5098.429688	1244.942017	4.046327
339.012421	1087.123047	5041.811035	1237.363159	3.799038
339.379669	1096.039551	4946.332031	1234.242554	3.589416
339.746796	1101.835083	4853.156250	1231.270386	3.450392
340.113953	1098.862915	4780.636719	1229.189941	3.539789
340.481018	1095.965088	4754.185059	1229.561401	3.651949
340.848114	1085.562744	4754.185547	1234.242554	4.052742
341.215118	1091.952759	4801.441895	1239.963867	3.990067
341.582153	1090.689697	4944.994629	1240.260986	3.880629
341.949066	1094.924927	5140.485352	1248.731445	3.801859
342.316010	1088.832153	5407.900879	1256.756226	3.887969
342.682922	1088.460693	5659.861328	1276.297852	4.108963
343.049835	1086.454468	5974.458496	1280.830200	3.976587
343.416656	1090.615356	6264.313965	1295.542236	3.960936
343.783478	1094.479126	6510.775879	1291.307007	3.633994
344.150269	1098.342773	6633.970215	1298.142944	3.609350
344.516998	1101.983521	6636.273438	1295.988159	3.505502
344.883728	1101.537720	6520.063965	1294.502075	3.561196
345.250427	1102.503906	6415.222656	1291.381226	3.555191
345.617065	1102.280884	6261.416016	1285.437134	3.550135
345.983704	1102.578125	6164.153809	1279.492798	3.495249
346.350281	1100.051758	6011.907715	1273.474243	3.530692
346.716827	1096.485229	5885.369629	1267.901733	3.579466
347.083405	1096.931030	5774.881348	1268.867676	3.675470
347.449860	1096.411011	5687.353027	1271.765503	3.819576
347.816376	1091.061035	5667.291504	1274.811890	4.015332
348.182770	1087.197388	5656.963379	1272.062622	4.045398
348.549194	1085.562866	5722.201660	1272.434204	4.030319
348.915558	1089.426514	5807.054688	1267.530151	3.775280
349.281921	1091.358398	5920.143066	1279.046997	3.886870
349.648193	1093.810425	5955.882813	1273.400024	3.693684
350.014526	1097.599854	5980.253906	1283.653931	3.810511
350.380737	1099.234497	5983.152344	1279.715942	3.695423
350.746948	1104.955688	6047.943848	1275.926392	3.458853
351.113159	1103.766968	6121.355469	1274.514526	3.402981
351.479309	1102.578125	6195.360840	1276.446411	3.414013
351.845428	1096.188110	6308.673340	1290.192505	3.721917
352.211517	1090.243774	6426.591309	1293.461914	3.808188
352.577576	1087.940308	6570.589355	1298.514526	3.840739
352.943604	1089.426392	6709.461426	1304.755737	3.831459
353.309601	1099.234375	6871.218750	1306.910522	3.598003
353.675537	1106.590332	7049.619141	1316.421387	3.530709
354.041473	1105.029907	7200.974121	1319.096191	3.511618
354.407379	1099.754517	7315.548340	1326.823730	3.653101
354.773254	1087.643188	7426.854004	1331.504761	3.846876
355.139038	1092.993042	7598.716309	1338.489258	3.773542
355.504913	1092.027100	7858.924316	1344.730591	3.734407
355.870636	1104.881348	8157.398438	1356.916382	3.573689
356.236389	1105.698853	8423.848633	1368.581665	3.592203
356.602081	1103.246826	8719.350586	1379.578613	3.628257
356.967804	1088.980591	8899.980469	1383.962524	3.776494
357.333405	1088.757813	9022.133789	1384.259766	3.724795
357.699036	1088.757690	8992.041016	1390.575317	3.818889
358.064606	1095.222168	8955.855469	1385.745728	3.695931
358.430176	1090.689575	8885.119141	1382.401978	3.742575
358.795654	1092.473022	8929.774414	1383.219360	3.709776
359.161163	1096.633911	9116.201172	1389.609497	3.653259
359.526581	1097.599854	9525.609375	1405.733276	3.656064
359.892029	1099.383057	10059.325195	1413.163452	3.502036
360.257416	1090.986938	10667.566406	1420.593750	3.441801
360.622772	1092.695801	11137.605469	1438.426270	3.441847
360.988098	1087.717651	11464.463867	1450.983398	3.500767
361.353394	1096.931030	11528.215820	1464.209473	3.520932
361.718658	1096.856812	11393.729492	1459.602539	3.522873
362.083893	1103.023804	10953.855469	1453.435547	3.557179
362.449097	1101.612183	10366.418945	1438.055054	3.631407
362.814209	1096.485229	9663.068359	1412.717773	3.691467
363.179382	1100.943481	9030.305664	1394.364868	3.700441
363.544434	1097.525513	8561.679688	1380.098755	3.785737
363.909546	1093.810425	8289.062500	1366.798462	3.794003
364.274536	1091.655518	8136.742188	1358.328125	3.785228
364.639587	1090.615356	8002.552246	1350.972168	3.766771
365.004517	1095.816528	7940.435059	1350.080444	3.714800
365.369507	1086.603027	7882.775879	1344.284790	3.791572
365.734344	1085.711426	7875.791504	1351.046387	3.907685
366.099274	1087.346069	7845.625000	1350.229004	3.889791
366.464081	1096.188110	7816.274902	1344.879272	3.700713
366.828918	1098.565796	7744.945313	1340.346802	3.637785
367.193665	1101.983643	7660.833984	1336.037231	3.568515
367.558411	1100.646118	7580.958496	1333.882446	3.599153
367.923126	1105.401489	7498.333496	1335.442749	3.598369
368.287781	1093.587402	7441.194824	1328.904175	3.707173
368.652435	1092.026978	7393.417969	1326.897949	3.727288
369.017059	1090.020874	7421.058594	1311.220093	3.493886
369.381653	1104.955688	7484.810059	1321.325195	3.391449
369.746185	1103.321045	7569.292480	1326.377808	3.449702
370.110687	1099.903198	7657.415527	1325.634766	3.442335
370.475220	1093.364624	7734.021973	1323.331543	3.463014
370.839661	1094.182007	7798.591309	1324.966187	3.442275
371.204041	1100.571899	7838.863281	1333.882446	3.462459
371.568451	1100.200439	7826.008301	1344.061890	3.625757
371.932770	1095.816528	7813.228516	1347.702759	3.749751
372.297150	1097.079712	7776.002441	1344.879272	3.710172
372.661377	1094.776245	7813.748535	1334.105347	3.561990
373.025696	1099.828857	7853.798340	1336.111450	3.498425
373.389862	1093.661743	7908.855957	1344.730591	3.683957
373.754059	1104.435547	7976.917480	1353.498413	3.624060
374.118225	1104.212769	8107.541504	1351.937988	3.537250
374.482361	1112.534546	8292.480469	1354.687134	3.372624
374.846436	1107.482056	8530.174805	1358.105103	3.376444
375.210510	1110.751343	8844.104492	1362.117554	3.250417
375.574524	1103.246826	9182.850586	1376.829468	3.386090
375.938538	1096.708130	9519.368164	1394.885132	3.540176
376.302460	1094.850586	9769.024414	1413.237793	3.670519
376.666412	1100.571899	9927.290039	1417.918945	3.595301
377.030304	1104.361328	9912.428711	1414.352173	3.519397
377.394196	1102.801025	9766.274414	1400.457642	3.435765
377.757996	1095.444946	9501.385742	1392.730103	3.536608
378.121796	1092.027100	9191.097656	1383.368042	3.597215
378.485565	1095.816528	8902.506836	1375.269043	3.579654
378.849304	1093.735962	8699.881836	1370.290649	3.635937
379.212982	1097.971313	8591.176758	1368.210327	3.606454
379.576630	1092.250000	8524.973633	1377.423828	3.836734
379.940277	1091.284058	8519.549805	1364.049316	3.671991
380.303864	1088.386353	8481.878906	1361.820313	3.698306
380.667450	1094.404785	8506.769531	1363.603516	3.631752
381.030945	1095.593628	8493.395508	1375.640625	3.785543
381.394501	1097.302612	8557.147461	1380.544556	3.796888
381.757935	1094.553467	8623.945313	1380.619019	3.799318
382.121399	1097.748413	8730.346680	1378.389771	3.676878
382.484741	1095.444946	8884.598633	1375.194824	3.591531
382.848145	1097.599731	9019.680664	1379.801636	3.562219
383.211487	1100.943481	9148.967773	1388.123535	3.568330
383.574768	1102.875244	9215.320313	1384.928345	3.476795
383.938019	1100.497559	9256.260742	1383.888184	3.474729
384.301270	1098.640015	9308.347656	1384.408203	3.480857
384.664459	1094.776245	9335.838867	1395.627930	3.650642
385.027649	1093.290161	9361.547852	1400.383423	3.714123
385.390778	1091.061157	9439.937500	1397.931274	3.675586
385.753876	1097.674194	9550.648438	1407.367798	3.663723
386.116943	1094.999146	9678.152344	1410.339966	3.673951
386.479980	1098.194214	9734.399414	1410.711548	3.618688
386.842987	1101.909424	9758.399414	1393.547485	3.369010
387.205994	1102.132202	9733.582031	1386.860352	3.298729
387.568909	1098.937134	9707.948242	1389.609375	3.376372
387.931793	1090.764038	9626.437500	1395.405151	3.569034
388.294678	1093.067261	9630.895508	1404.395874	3.646461
388.657471	1091.432617	9628.295898	1405.138672	3.674723
389.020294	1094.107544	9705.421875	1418.661743	3.768928
389.383057	1093.364502	9880.626953	1420.816528	3.726439
389.745819	1094.033325	10093.875977	1430.550293	3.739143
390.108521	1088.683472	10391.607422	1438.946655	3.765087
390.471191	1088.312012	10654.192383	1450.389038	3.785088
390.833801	1090.392456	10923.391602	1456.481934	3.723070
391.196442	1093.884644	11068.282227	1457.893921	3.649436
391.558960	1095.073486	11115.018555	1453.658569	3.578713
391.921509	1094.256226	11048.145508	1457.745117	3.651727
392.284027	1094.479004	10990.932617	1447.119751	3.563304
392.646484	1093.810425	10917.299805	1453.435547	3.660870
393.008911	1093.215942	10909.200195	1458.042358	3.716656
393.371307	1099.160156	10926.140625	1467.032837	3.743497
393.733673	1093.958984	10914.178711	1464.135132	3.769530
394.096008	1088.980713	10832.815430	1453.361206	3.739600
394.458344	1087.568970	10693.647461	1448.308594	3.755327
394.820587	1084.225342	10468.881836	1447.862671	3.874807
395.182831	1083.259399	10242.258789	1442.067017	3.917542
395.545013	1079.692871	9997.357422	1432.853516	3.960237
395.907196	1096.633789	9815.092773	1413.534790	3.634828
396.269287	1101.017700	9690.858398	1414.575195	3.650330
396.631409	1099.011475	9623.762695	1425.126099	3.825503
396.993469	1088.832031	9590.920898	1438.352173	4.110991
397.355530	1090.095093	9610.313477	1436.494507	4.065617
397.717499	1097.451172	9671.911133	1434.859863	3.935043
398.079468	1100.274780	9713.817383	1438.872070	3.930987
398.441376	1101.091919	9720.059570	1447.193970	4.015586
398.803284	1094.924805	9653.929688	1457.001953	4.230365
399.165131	1097.451294	9635.725586	1454.847168	4.185809
399.526978	1099.606079	9596.196289	1454.549927	4.177486
399.888763	1101.760742	9613.434570	1451.503540	4.108978
400.250519	1107.110474	9619.081055	1456.481812	4.104471
400.612244	1103.395386	9662.325195	1462.203247	4.192205
400.973938	1101.314819	9743.539063	1467.478638	4.236916
401.335602	1094.924805	9852.764648	1484.122559	4.443993
401.697205	1095.742310	10023.808594	1490.215454	4.418349
402.058807	1099.531738	10196.042969	1500.023438	4.402695
402.420349	1104.212769	10456.176758	1503.144043	4.265749
402.781860	1107.704956	10700.483398	1524.097534	4.340688
403.143341	1105.253052	10946.350586	1539.626587	4.413873
403.504822	1092.398560	11151.351563	1564.369507	4.692049
403.866241	1092.398560	11320.166992	1572.988647	4.698875
404.227631	1090.615234	11428.797852	1586.437378	4.796028
404.588959	1098.417114	11432.440430	1587.774780	4.735403
404.950287	1094.627686	11360.885742	1593.942017	4.863645
405.311554	1096.856812	11233.902344	1594.833618	4.912445
405.672821	1093.141602	11129.878906	1600.183472	5.051859
406.034027	1097.228271	10988.481445	1602.561157	5.108887
406.395203	1098.342773	10810.897461	1584.654297	5.007040
406.756348	1101.017700	10662.366211	1575.812134	4.965768
407.117493	1097.748413	10589.846680	1570.982422	4.985557
407.478516	1096.336548	10643.865234	1586.288696	5.131717
407.839600	1104.064087	10727.975586	1591.638550	5.066282
408.200592	1103.098145	10892.481445	1606.870728	5.146112
408.561554	1105.401489	11054.387695	1623.143066	5.203963
408.922485	1097.599731	11218.374023	1634.957031	5.309448
409.283417	1094.330322	11320.390625	1636.220215	5.299107
409.644257	1088.757690	11396.625000	1638.300659	5.331296
410.005096	1087.568970	11456.885742	1648.628784	5.410769
410.365906	1095.742310	11445.887695	1655.984741	5.412894
410.726715	1098.491455	11416.835938	1664.306641	5.483585
411.087433	1097.153931	11348.106445	1651.378052	5.406562
411.448120	1094.182007	11287.698242	1650.783569	5.460349
411.808807	1090.615356	11256.937500	1647.217163	5.474957
412.169434	1094.404663	11197.122070	1656.802124	5.566794
412.530029	1094.256226	11255.969727	1667.873169	5.644884
412.890564	1097.079712	11333.320313	1684.516968	5.738799
413.251099	1091.952759	11516.996094	1700.120483	5.833719
413.611572	1089.129272	11703.718750	1709.259766	5.842247
413.972076	1087.643188	11896.534180	1711.340332	5.770224
414.332489	1086.825806	12014.155273	1714.906860	5.747800
414.692871	1092.398560	12220.346680	1725.309204	5.687577
415.053223	1097.748413	12400.531250	1737.346313	5.658765
415.413574	1099.457397	12708.885742	1753.618530	5.634740
415.773834	1101.835083	12958.989258	1771.005371	5.643600
416.134094	1092.175781	13307.765625	1796.565430	5.766317
416.494263	1101.389160	13623.776367	1821.382446	5.749649
416.854462	1102.132202	14003.983398	1850.063477	5.797085
417.214630	1107.630737	14443.260742	1870.422363	5.719952
417.574738	1105.104370	14864.926758	1895.536743	5.744495
417.934784	1094.776367	15388.241211	1922.731445	5.792543
418.294861	1101.537720	15949.523438	1949.331909	5.709826
418.654846	1097.971313	16604.279297	1982.470703	5.704126
419.014832	1102.132202	17247.964844	2016.427246	5.662731
419.374756	1096.336548	17958.226563	2071.262695	5.781832
419.734680	1095.890747	18717.746094	2122.308594	5.824687
420.094543	1094.850464	19323.908203	2159.905762	5.842624
420.454376	1097.599731	19668.375000	2170.159424	5.775525
420.814148	1091.581177	19842.244141	2183.162354	5.821561
421.173920	1092.175537	20025.251953	2191.113037	5.804326
421.533691	1092.621460	20165.462891	2208.128174	5.848666
421.893341	1090.615356	20189.386719	2200.772217	5.812714
422.253021	1088.311890	20089.748047	2204.858887	5.876119
422.612640	1076.349121	20029.859375	2203.818604	5.948605
422.972260	1078.503906	20046.798828	2212.958008	5.980791
423.331757	1080.213013	20174.080078	2211.620605	5.925503
423.691315	1090.243774	20319.490234	2216.301514	5.855964
424.050781	1095.667847	20334.943359	2214.221191	5.813906
424.410248	1093.958862	20154.685547	2207.533936	5.842249
424.769653	1093.215942	19801.376953	2181.899414	5.819297
425.128998	1097.971313	19418.869141	2155.224854	5.770751
425.488373	1103.246826	18899.417969	2123.572021	5.733397
425.847656	1104.955688	18466.158203	2099.274902	5.727248
426.206940	1103.915649	18026.732422	2077.504150	5.753111
426.566193	1102.280884	17623.935547	2054.321533	5.762381
426.925385	1099.160156	17116.298828	2033.516968	5.833481
427.284576	1094.850586	16619.513672	2011.449097	5.904144
427.643677	1092.695801	16267.168945	2003.573120	6.002695
428.002777	1089.797974	16048.347656	1990.049805	6.018310
428.361847	1092.398560	15886.218750	1975.486328	5.969302
428.720856	1096.188110	15677.652344	1950.074829	5.855974
429.079865	1097.079712	15514.929688	1943.982056	5.873985
429.438812	1089.946655	15458.086914	1937.071899	5.895859
429.797760	1084.373901	15457.863281	1934.471313	5.914343
430.156616	1084.076660	15355.104492	1920.353882	5.859965
430.515503	1089.500732	15270.250000	1913.666504	5.811863
430.874268	1091.209717	15250.484375	1920.948242	5.860035
431.233093	1095.073486	15380.217773	1940.044067	5.915030
431.591827	1097.525513	15576.227539	1957.059570	5.936541
431.950562	1100.869141	15736.424805	1966.644531	5.915562
432.309204	1099.531616	15893.203125	1963.449585	5.839780
432.667877	1101.835083	16050.426758	1986.260376	5.916446
433.026459	1100.571899	16112.692383	1996.885742	5.970602
433.385010	1099.977417	16215.825195	2008.030884	6.007294
433.743561	1099.977417	16183.579102	1997.628540	5.951172
434.102051	1098.937134	16257.434570	1999.337524	5.939906
434.460510	1104.807129	16280.989258	2000.452148	5.901649
434.818939	1101.240723	16291.465820	2000.897827	5.922606
435.177338	1096.485229	16290.723633	1995.027954	5.913707
435.535675	1085.265381	16279.502930	1992.501831	5.970924
435.894012	1088.906250	16291.985352	1989.826782	5.925909
436.252289	1096.187988	16449.507813	2001.566772	5.896957
436.610535	1098.714233	16529.531250	2003.424194	5.863008
436.968719	1090.318237	16831.423828	2025.640747	5.941911
437.326935	1086.751587	17082.716797	2037.306274	5.942465
437.685028	1090.243774	17424.955078	2054.247314	5.901565
438.043152	1093.958984	17707.900391	2061.157471	5.821608
438.401215	1091.655518	18043.451172	2078.395752	5.820860
438.759277	1093.215942	18424.548828	2103.212891	5.827579
439.117249	1094.479126	18941.919922	2141.478760	5.866385
439.475250	1101.166382	19407.798828	2162.952393	5.800007
439.833130	1100.571899	19890.095703	2193.193359	5.815057
440.191071	1099.605957	20061.066406	2194.753906	5.775652
440.548889	1092.027100	20177.646484	2209.688721	5.856040
440.906708	1092.101440	20081.572266	2197.205811	5.819564
441.264496	1095.444946	19863.939453	2170.828125	5.729725
441.622223	1102.057983	19529.132813	2151.955322	5.697580
441.979950	1101.166260	19147.587891	2127.212646	5.685595
442.337616	1096.856812	18899.937500	2133.676758	5.823823
442.695251	1092.844360	18686.466797	2120.970947	5.843746
443.052887	1087.494629	18619.148438	2127.658203	5.933060
443.410461	1088.460571	18742.712891	2126.618164	5.880496
443.768005	1086.602905	19002.402344	2134.791260	5.850637
444.125458	1089.352173	19320.119141	2151.212158	5.824549
444.482941	1089.203491	19703.150391	2170.085205	5.806838
444.840393	1090.763794	20246.154297	2197.057373	5.775364
445.197754	1093.215942	20748.142578	2222.171631	5.743882
445.555084	1097.079712	21180.138672	2247.360107	5.727615
445.912415	1093.513062	21388.853516	2260.140381	5.748252
446.269714	1091.581177	21525.349609	2281.762207	5.824579
446.626953	1087.568970	21529.435547	2287.186523	5.868434
446.984161	1094.330444	21406.017578	2280.202148	5.838371
447.341309	1098.268433	21185.636719	2262.294922	5.794818
447.698456	1093.364624	20848.228516	2240.821533	5.808478
448.055542	1098.417114	20558.298828	2235.471924	5.843072
448.412598	1102.578003	20168.136719	2210.877441	5.813097
448.769653	1111.791626	19763.408203	2191.410156	5.788337
449.126617	1105.847290	19260.603516	2161.020264	5.812102
449.483582	1095.890869	18933.224609	2139.026855	5.848049
449.840515	1094.107544	18665.066406	2128.475830	5.886806
450.197388	1090.095337	18510.070313	2111.237549	5.861904
450.554230	1095.370728	18337.912109	2106.556641	5.864483
450.911041	1093.884766	18236.041016	2084.637207	5.779625
451.267822	1103.618286	18283.595703	2099.646240	5.797609
451.624573	1107.110474	18377.738281	2103.584229	5.769760
451.981262	1103.172485	18352.771484	2111.460205	5.845282
452.337921	1100.571899	18149.626953	2096.302490	5.840386
452.694580	1094.627686	17779.302734	2073.714600	5.868181
453.051147	1097.599731	17580.916016	2069.999512	5.899297
453.407715	1091.506958	17202.863281	2048.005859	5.936800
453.764221	1086.231567	17082.195313	2041.541626	5.972194
454.120728	1083.036499	16695.820313	2006.693726	5.916031
454.477142	1079.321411	16660.156250	1993.393555	5.866644
454.833557	1082.887817	16519.054688	1981.505005	5.821505
455.189911	1090.912598	16544.466797	1985.145874	5.786586
455.546265	1101.240601	16613.716797	1993.987671	5.755026
455.902557	1107.853638	16727.548828	1998.891724	5.704580
456.258820	1105.401489	17000.537109	2014.866821	5.721658
456.615051	1102.057983	17298.193359	2027.498413	5.713958
456.971252	1101.389282	17638.648438	2048.971924	5.729986
457.327393	1103.172485	18260.117188	2085.528809	5.725707
457.683502	1101.315063	18984.716797	2130.853516	5.756949
458.039612	1105.550293	20008.236328	2186.208740	5.716957
458.395630	1103.172485	20919.335938	2238.146484	5.727516
458.751648	1101.760620	21744.615234	2284.214111	5.728149
459.107605	1094.924805	22537.427734	2319.359619	5.710316
459.463562	1093.958984	22827.578125	2344.548096	5.754169
459.819458	1104.881470	22709.734375	2338.381104	5.709363
460.175323	1108.299316	22001.703125	2314.604248	5.773616
460.531158	1109.339600	21195.072266	2263.409424	5.745719
460.886932	1102.652344	20366.525391	2219.645264	5.798382
461.242676	1100.274658	19641.181641	2173.948975	5.790841
461.598419	1100.646118	19074.773438	2139.249756	5.778326
461.954102	1104.138306	18463.408203	2104.847656	5.764698
462.309723	1102.280762	17963.427734	2085.083008	5.828798
462.665344	1100.051758	17533.435547	2071.114258	5.909085
463.020905	1094.181885	17391.814453	2058.259766	5.915447
463.376373	1093.884644	17356.744141	2053.578857	5.901141
463.731873	1088.832031	17438.031250	2050.532227	5.882246
464.087341	1086.677368	17475.478516	2057.368164	5.922891
464.442749	1091.729858	17613.015625	2059.522705	5.857854
464.798126	1097.228271	17695.935547	2054.098633	5.764728
465.153503	1101.240601	17879.390625	2068.364990	5.764190
465.508820	1094.702026	18025.542969	2084.414307	5.845618
465.864105	1098.119873	18128.750000	2098.011719	5.871138
466.219330	1096.856689	18324.908203	2108.934082	5.874590
466.574524	1097.673950	18351.955078	2105.144775	5.838962
466.929657	1096.633789	18271.187500	2104.030029	5.865633
467.284790	1095.890747	18086.470703	2095.708252	5.884540
467.639893	1101.909302	17867.576172	2088.278076	5.883266
467.994934	1101.091919	17696.976563	2083.076904	5.917039
468.349945	1101.537964	17484.470703	2070.742432	5.915940
468.704926	1101.314941	17307.480469	2045.851196	5.828252
469.059875	1103.766968	17149.958984	2028.241333	5.761332
469.414764	1099.308716	17071.720703	2018.210571	5.753056
469.769653	1090.764038	17054.111328	2028.390015	5.873618
470.124451	1089.129272	17164.896484	2033.591187	5.875066
470.479248	1095.519287	17214.603516	2029.058716	5.791517
470.834015	1096.559570	17278.205078	2025.566406	5.741115
471.188721	1085.042603	17419.009766	2033.070923	5.804030
471.543365	1083.928101	17700.914063	2051.720947	5.824118
471.898010	1088.386230	17956.142578	2070.296631	5.821227
472.252625	1093.141602	18318.666016	2088.054932	5.775809
472.607178	1092.324341	18591.060547	2109.454346	5.812591
472.961700	1082.887817	18703.630859	2127.509766	5.928365
473.316193	1084.002319	18701.103516	2128.104248	5.926639
473.670654	1084.151001	18628.806641	2119.930908	5.903677
474.025055	1096.485229	18777.189453	2122.679932	5.804037
474.379456	1096.559570	18859.888672	2131.893555	5.828491
474.733795	1098.268433	19033.013672	2137.317627	5.793498
475.088104	1092.026978	19326.138672	2147.051514	5.785994
475.442383	1094.553345	19649.281250	2158.493896	5.734067
475.796570	1095.519165	20015.296875	2187.694824	5.772666
476.150787	1104.584229	20474.337891	2202.852783	5.670018
476.504944	1110.082642	20959.015625	2231.905273	5.651803
476.859070	1112.608887	21324.138672	2245.056641	5.602979
477.213135	1104.881470	21579.962891	2269.502197	5.687991
477.567200	1099.011597	21854.734375	2281.613525	5.697715
477.921173	1095.890747	22179.287109	2297.217041	5.697973
478.275146	1095.370728	22404.275391	2299.892334	5.652668
478.629089	1094.924927	22702.529297	2320.102539	5.670123
478.983002	1092.695801	23126.203125	2342.021729	5.670118
479.336823	1097.154053	23749.156250	2378.801514	5.657988
479.690643	1102.057983	24458.078125	2426.281250	5.669730
480.044403	1101.537842	25380.695313	2482.082520	5.686131
480.398163	1099.234375	26633.365234	2557.945557	5.712790
480.751862	1089.203491	28423.093750	2646.588623	5.697634
481.105499	1088.683472	30837.486328	2785.460205	5.703681
481.459137	1081.996216	34329.417969	2966.536377	5.668230
481.812744	1084.151001	38855.269531	3228.899170	5.678276
482.166290	1085.785645	44224.753906	3543.422607	5.697023
482.519806	1091.135376	49371.261719	3882.391357	5.781377
482.873291	1091.506958	53518.535156	4193.496582	5.916776
483.226715	1091.432617	56087.332031	4403.327637	6.022077
483.580139	1090.541016	56988.699219	4495.834961	6.091961
483.933502	1090.615356	56375.332031	4427.179199	6.035238
484.286804	1086.454468	54467.613281	4284.815430	5.991554
484.640106	1090.764038	51658.968750	4081.300049	5.913867
484.993347	1095.742310	48771.562500	3887.369873	5.855437
485.346558	1102.726685	46579.558594	3725.018311	5.766214
485.699738	1094.256226	45657.761719	3661.266357	5.760342
486.052887	1095.519409	45992.199219	3685.934814	5.769726
486.405975	1092.473022	47112.906250	3750.727295	5.776248
486.759064	1102.652466	48293.277344	3808.682861	5.734254
487.112061	1099.903320	48829.144531	3822.354736	5.703948
487.464996	1094.999268	48370.253906	3798.577881	5.718803
487.817963	1087.717407	47058.292969	3729.773438	5.747277
488.170868	1089.203613	45012.589844	3612.449951	5.744653
488.523743	1095.370728	42717.675781	3480.710938	5.730918
488.876587	1096.336548	40653.769531	3353.356201	5.705678
489.229401	1094.404663	39429.406250	3280.762451	5.703294
489.582153	1090.392334	39283.480469	3262.706787	5.687716
489.934845	1097.153931	40039.730469	3302.830078	5.663919
490.287537	1095.816406	41367.222656	3376.538330	5.663378
490.640198	1097.302612	42715.964844	3458.345703	5.673039
490.992798	1089.055054	43414.113281	3489.330078	5.671049
491.345337	1093.215942	43099.515625	3476.475830	5.673577
491.697876	1096.188110	41725.214844	3396.674561	5.662174
492.050354	1098.417114	39564.121094	3292.205078	5.703231
492.402832	1094.776367	36815.214844	3135.872070	5.714084
492.755219	1092.175659	33912.578125	2971.885986	5.727262
493.107605	1089.277954	31300.318359	2819.862549	5.728318
493.459930	1094.033203	29328.177734	2704.173340	5.702812
493.812225	1098.937256	27939.978516	2626.750000	5.692077
494.164490	1099.828735	27100.505859	2577.784180	5.684296
494.516724	1097.748413	26675.718750	2560.843506	5.720138
494.868896	1097.748413	26604.314453	2565.078369	5.752754
495.221039	1103.989868	26842.156250	2577.338379	5.724372
495.573120	1100.497559	27148.431641	2575.778076	5.663714
495.925201	1095.667969	27486.953125	2577.858643	5.616212
496.277222	1097.599731	27654.953125	2581.796631	5.588647
496.629211	1101.909302	27662.162109	2594.056641	5.617971
496.981140	1104.732788	27512.142578	2593.239258	5.636700
497.333069	1102.726685	27241.677734	2568.422119	5.607323
497.684967	1098.342773	26880.865234	2555.493408	5.651699
498.036804	1097.451172	26380.509766	2518.713623	5.621402
498.388580	1094.850586	25849.693359	2515.667236	5.739550
498.740326	1095.742310	25331.132813	2477.475586	5.701304
499.092072	1093.810425	24788.576172	2460.460205	5.767729
499.443756	1094.033325	24317.718750	2418.479248	5.702996
499.795410	1091.061157	23897.462891	2400.275146	5.740555
500.147003	1093.141724	23591.632813	2378.355957	5.712447
500.498566	1089.946655	23283.130859	2365.575928	5.747843
500.850098	1098.417114	23050.486328	2343.730957	5.672877
501.201599	1093.661743	22868.000000	2331.990967	5.687104
501.553009	1093.290161	22776.310547	2324.040771	5.676104
501.904449	1086.677368	22781.509766	2328.201416	5.722672
502.255859	1089.649414	22898.242188	2328.275635	5.679533
502.607178	1096.633911	23079.615234	2326.715332	5.595608
502.958405	1103.246704	23157.037109	2336.820557	5.593478
503.309692	1103.395386	23168.333984	2332.585205	5.570783
503.660919	1096.113647	23194.187500	2353.315674	5.689193
504.012115	1090.169434	23222.572266	2357.476563	5.726026
504.363251	1088.311890	23236.986328	2360.820557	5.745304
504.714294	1087.717651	23094.771484	2350.640869	5.738720
505.065369	1087.271729	22971.056641	2345.737061	5.750675
505.416443	1091.432617	22817.474609	2339.123779	5.742836
505.767395	1094.702026	22792.656250	2327.161377	5.680071
506.118317	1100.051758	22773.265625	2323.223145	5.643701
506.469238	1102.206543	22950.328125	2336.448975	5.649192
506.820160	1097.302612	23101.312500	2348.263428	5.685149
507.170929	1097.822632	23366.052734	2355.098877	5.646054
507.521729	1095.370728	23612.662109	2375.012451	5.682930
507.872498	1104.584351	23930.750000	2389.798584	5.630443
508.223236	1105.178589	24242.226563	2414.615723	5.659482
508.573883	1098.714355	24503.625000	2427.395752	5.676934
508.924500	1098.342773	24754.767578	2439.581299	5.669658
509.275116	1094.181763	24937.328125	2441.661865	5.651436
509.625702	1102.355103	25159.865234	2439.358398	5.557530
509.976196	1098.640015	25353.203125	2454.738770	5.591108
510.326660	1100.274780	25572.841797	2469.525146	5.595042
510.677124	1095.147827	25699.380859	2490.552979	5.671403
511.027557	1099.903198	25867.898438	2497.165771	5.641403
511.377869	1099.383057	25998.744141	2502.441406	5.634917
511.728180	1104.286987	26056.255859	2509.500000	5.631672
512.078430	1105.773071	25968.802734	2516.781738	5.675128
512.428650	1099.011597	25836.765625	2509.202881	5.700563
512.778931	1096.782593	25676.421875	2493.822266	5.683727
513.129028	1092.918823	25547.357422	2470.491211	5.633220
513.479126	1095.519287	25386.937500	2461.054932	5.621474
513.829285	1097.525513	25246.205078	2454.962158	5.621163
514.179382	1096.708130	25164.697266	2455.184814	5.644330
514.529297	1098.491333	25138.914063	2456.596680	5.649258
514.879272	1098.714355	25286.404297	2465.215576	5.649573
515.229187	1093.587402	25407.814453	2477.698486	5.692597
515.579163	1090.763916	25851.625000	2510.614502	5.734253
515.928955	1084.373901	26409.935547	2541.375977	5.753088
516.278748	1090.466797	27239.599609	2584.768799	5.714538
516.628540	1097.896973	28127.443359	2619.913818	5.630937
516.978333	1101.314941	29119.906250	2678.464600	5.628940
517.327942	1106.887695	30089.703125	2720.371094	5.567035
517.677612	1103.766968	30824.927734	2770.599854	5.608236
518.027222	1106.070313	31257.369141	2787.243408	5.575790
518.376831	1092.695801	31336.353516	2791.478760	5.616989
518.726379	1096.633911	31067.453125	2767.181641	5.573915
519.075867	1096.188110	30554.244141	2730.253418	5.547091
519.425293	1103.395386	29845.396484	2698.823486	5.550859
519.774658	1101.909424	29125.773438	2658.328369	5.553905
520.124084	1096.708252	28405.853516	2629.796143	5.613826
520.473389	1096.113770	27829.265625	2600.595215	5.627774
520.822693	1095.593628	27409.380859	2582.391357	5.650261
521.171997	1100.497681	27148.056641	2569.090820	5.638122
521.521240	1099.160156	27108.455078	2562.626709	5.626706
521.870361	1093.884644	27228.828125	2568.124756	5.640877
522.219482	1101.314941	27559.771484	2583.877197	5.603359
522.568604	1106.218872	27933.587891	2600.966797	5.571728
522.917664	1103.172363	28476.888672	2631.951172	5.584842
523.266724	1097.896851	29115.744141	2676.161377	5.633069
523.615662	1097.971313	30087.625000	2727.429932	5.620828
523.964600	1098.194214	31281.220703	2793.336670	5.616211
524.313538	1096.485229	32691.712891	2854.710693	5.564845
524.662354	1084.151001	34115.648438	2945.062744	5.633749
525.011169	1091.655518	35530.003906	3017.804932	5.593037
525.359985	1088.014648	36925.925781	3091.587646	5.590652
525.708740	1100.497681	38434.496094	3159.128906	5.514092
526.057434	1103.098267	40234.105469	3255.871094	5.501451
526.406067	1104.807251	42496.105469	3383.746094	5.505841
526.754700	1102.132324	45463.089844	3552.338867	5.523340
527.103333	1106.293335	48861.917969	3753.847656	5.543963
527.451782	1106.739136	52316.699219	3985.672607	5.621823
527.800293	1106.070313	54722.171875	4197.658203	5.766156
528.148743	1094.701904	55936.421875	4312.752441	5.867888
528.497131	1091.655640	55761.218750	4320.628906	5.906345
528.845642	1093.067383	54516.871094	4198.698242	5.813197
529.193909	1098.788696	52086.875000	4029.139404	5.747128
529.542175	1105.921753	48711.082031	3803.853516	5.667309
529.890503	1099.977417	44999.878906	3594.468018	5.682224
530.238770	1100.943359	41742.894531	3407.225342	5.674634
530.586914	1096.708130	39461.953125	3276.452881	5.681561
530.934998	1100.943481	38289.382813	3201.258545	5.647763
531.283142	1097.302612	38263.972656	3182.979736	5.611687
531.631226	1097.079712	39093.261719	3211.735107	5.565441
531.979248	1096.931152	40498.625000	3278.905029	5.537766
532.327148	1098.417114	41926.199219	3367.399170	5.557446
532.675110	1098.937256	42876.234375	3425.206787	5.568263
533.023071	1093.884644	42967.035156	3448.315186	5.622769
533.370850	1086.825928	42122.210938	3401.355713	5.640326
533.718689	1078.355347	40713.433594	3335.895264	5.695813
534.066467	1078.875488	39018.734375	3229.939453	5.669668
534.414246	1077.463745	37389.503906	3135.797852	5.668462
534.761963	1085.116943	36089.800781	3059.340576	5.639884
535.109619	1084.745483	35383.105469	3030.139404	5.671974
535.457153	1085.265503	35128.992188	3009.928955	5.653504
535.804749	1076.572144	35165.843750	3000.715576	5.644425
536.152344	1078.578247	35064.496094	2980.653564	5.596657
536.499817	1085.116943	34697.441406	2956.356689	5.567124
536.847229	1089.872314	33948.019531	2917.867920	5.563294
537.194641	1096.113770	32998.359375	2871.651611	5.565557
537.542114	1094.033325	32005.822266	2819.788086	5.582837
537.889404	1100.423218	31272.009766	2784.642822	5.582138
538.236694	1095.296387	30906.884766	2764.655518	5.599699
538.583984	1096.856689	31179.576172	2786.723633	5.617401
538.931213	1094.107544	32103.603516	2821.794189	5.571476
539.278381	1091.878418	33799.785156	2894.388428	5.510931
539.625488	1088.757813	35972.699219	3013.867188	5.518612
539.972595	1084.745483	38663.574219	3173.246338	5.557653
540.319641	1090.466797	41258.964844	3334.706055	5.587063
540.666687	1096.411011	43299.019531	3441.256592	5.556163
541.013611	1106.293213	44414.750000	3511.546875	5.553773
541.360596	1099.977539	44526.652344	3509.837891	5.549263
541.707458	1098.788696	43710.207031	3470.160156	5.565108
542.054260	1092.844360	42126.074219	3373.566406	5.558232
542.401062	1098.045532	40193.984375	3267.610596	5.549336
542.747864	1102.132202	38107.410156	3153.036133	5.542193
543.094666	1101.686401	36044.769531	3050.795654	5.577955
543.441284	1101.760620	34066.980469	2943.948242	5.588277
543.787903	1098.268433	32483.070313	2855.304932	5.598367
544.134460	1093.884644	31206.546875	2773.720703	5.578504
544.481079	1090.912598	30274.046875	2721.337158	5.586873
544.827637	1092.547241	29620.705078	2686.414795	5.586998
545.174072	1100.274780	29216.421875	2667.987549	5.575845
545.520508	1102.355103	29100.287109	2663.826660	5.577096
545.866943	1099.531616	29059.345703	2662.563721	5.590281
546.213318	1094.850464	28973.007813	2657.436768	5.605056
546.559631	1091.135376	28657.593750	2643.096436	5.629889
546.905823	1091.135376	28162.367188	2617.015869	5.636539
547.252136	1091.135376	27387.912109	2567.381836	5.613792
547.598389	1089.426392	26424.351563	2528.818604	5.681454
547.944458	1091.804077	25337.226563	2459.345703	5.640412
548.290588	1092.175659	24282.873047	2403.767334	5.655680
548.636658	1099.160156	23331.724609	2344.176514	5.599967
548.982727	1094.850586	22545.898438	2301.081055	5.623178
549.328735	1096.782471	21954.968750	2283.396973	5.688963
549.674622	1088.906372	21492.730469	2244.685059	5.664520
550.020569	1086.305786	21197.005859	2234.505615	5.709398
550.366455	1083.928101	21033.541016	2207.979492	5.634452
550.712280	1086.380249	21021.205078	2210.134521	5.637142
551.058044	1091.358398	21109.179688	2219.050781	5.633442
551.403748	1098.194214	21242.330078	2231.236328	5.624674
551.749512	1096.633789	21450.228516	2241.044434	5.622647
552.095154	1100.943359	21585.533203	2245.279541	5.586327
552.440735	1096.113770	21657.236328	2248.920654	5.606731
552.786316	1103.766968	21591.775391	2250.629150	5.597724
553.131897	1102.057983	21400.669922	2242.976318	5.620672
553.477417	1097.896973	21070.617188	2220.016602	5.618261
553.822815	1097.005371	20650.955078	2196.314209	5.621927
554.168213	1089.797974	20296.234375	2169.788086	5.623064
554.513672	1097.154053	19977.177734	2155.373291	5.604968
554.859009	1096.782593	19713.107422	2140.958740	5.608928
555.204285	1102.875366	19445.394531	2130.853516	5.604345
555.549500	1098.119995	19243.216797	2125.875244	5.664093
555.894714	1089.872437	19078.931641	2111.089111	5.676877
556.239990	1088.460571	18981.818359	2103.955811	5.675264
556.585022	1091.878418	18875.935547	2090.804443	5.616975
556.930115	1099.828979	18747.914063	2096.971436	5.650145
557.275146	1100.720459	18567.505859	2084.116943	5.630095
557.620178	1097.599731	18494.837891	2077.652588	5.633382
557.965149	1097.005371	18404.337891	2063.089111	5.581933
558.310059	1094.107544	18354.775391	2058.854248	5.589278
558.654968	1099.308716	18227.646484	2058.631104	5.600791
558.999756	1098.119995	18222.148438	2054.990479	5.587882
559.344604	1099.382935	18247.187500	2063.386719	5.621733
559.689331	1099.605957	18349.947266	2064.575439	5.593915
560.033997	1096.485229	18430.271484	2073.194580	5.634714
560.378723	1095.593628	18575.607422	2080.624756	5.635185
560.723389	1091.581177	18654.740234	2091.324219	5.692274
561.067932	1094.479126	18695.009766	2096.599854	5.693696
561.412476	1090.689697	18653.400391	2086.791748	5.671687
561.757019	1089.872314	18604.658203	2082.630859	5.668117
562.101501	1087.420288	18569.068359	2080.476074	5.680562
562.445862	1090.986816	18477.228516	2080.996338	5.694212
562.790222	1097.525513	18422.988281	2072.228760	5.625843
563.134644	1098.640015	18391.037109	2070.073975	5.617694
563.478943	1095.147827	18512.746094	2068.810791	5.590111
563.823181	1089.426392	18622.935547	2072.822998	5.608669
564.167358	1092.844360	18837.001953	2089.021240	5.614112
564.511536	1094.850586	19102.708984	2110.568848	5.640417
564.855774	1091.729858	19474.000000	2133.453857	5.667004
565.199768	1093.438843	19908.894531	2158.122314	5.658558
565.543823	1100.051758	20231.666016	2163.472168	5.558446
565.887817	1102.355225	20454.275391	2182.716553	5.582709
566.231812	1102.280884	20408.134766	2173.280273	5.547537
566.575745	1095.073486	20241.841797	2176.103760	5.646020
566.919617	1095.816528	20016.408203	2157.008057	5.608659
567.263428	1088.014771	19770.021484	2141.404297	5.638525
567.607239	1092.324219	19580.404297	2123.200195	5.575895
567.950989	1094.107422	19346.941406	2105.293213	5.539884
568.294678	1092.918701	19235.933594	2094.296631	5.519358
568.638367	1094.181763	19148.923828	2098.903320	5.564862
568.981995	1093.884644	19139.935547	2116.290039	5.665535
569.325623	1099.828979	19181.619141	2123.200439	5.659680
569.669128	1101.240601	19251.687500	2125.726563	5.644412
570.012573	1101.760620	19433.728516	2132.413818	5.622163
570.356140	1103.989868	19699.583984	2153.441162	5.643548
570.699524	1101.612183	20001.996094	2168.004639	5.642173
571.042908	1095.296509	20385.544922	2178.035645	5.612884
571.386230	1094.776245	20591.810547	2182.270996	5.577744
571.729492	1093.513062	20748.513672	2199.955078	5.629316
572.072815	1098.714355	20695.982422	2196.537109	5.601917
572.416016	1091.729858	20591.216797	2190.147217	5.633058
572.759094	1090.318115	20412.666016	2170.828369	5.592024
573.102234	1089.054932	20212.048828	2174.468994	5.675963
573.445374	1097.005371	20041.896484	2166.667480	5.646177
573.788391	1100.943481	19890.318359	2149.949463	5.582974
574.131409	1100.943481	19802.121094	2125.503662	5.478586
574.474365	1099.085815	19683.384766	2120.005127	5.493451
574.817261	1099.680298	19566.283203	2131.150635	5.585598
575.160156	1103.024048	19374.880859	2125.578125	5.596334
575.502930	1101.686523	19101.150391	2104.847656	5.573283
575.845703	1099.085815	18770.947266	2084.860107	5.578214
576.188477	1102.800903	18408.275391	2074.829102	5.616883
576.531250	1103.692627	18068.193359	2058.408203	5.627726
576.873901	1103.766968	17702.548828	2033.219360	5.599522
577.216431	1097.376831	17353.697266	2011.002930	5.620129
577.559082	1097.005371	17020.896484	1997.702759	5.656265
577.901611	1099.605835	16699.759766	1971.251099	5.587414
578.244080	1104.881348	16332.778320	1952.155273	5.563959
578.586487	1105.773071	16094.637695	1935.660156	5.536691
578.928955	1130.144409	15854.046875	1951.115112	5.575768
579.271301	1124.869019	15694.442383	1935.808716	5.565981
579.613647	1125.166138	15434.086914	1931.202026	5.633101
579.955872	1095.742310	15248.106445	1899.771973	5.681239
580.298157	1097.228394	15108.492188	1889.221069	5.652543
580.640320	1098.491333	15042.585938	1882.162231	5.620091
580.982483	1103.246948	15014.276367	1873.691772	5.538374
581.324524	1100.274780	14965.309570	1869.382202	5.547101
581.666626	1091.655640	14913.522461	1855.264648	5.524644
582.008728	1087.494629	14830.453125	1856.825073	5.597997
582.350647	1089.129272	14745.895508	1857.493774	5.626255
582.692566	1095.816528	14633.995117	1859.499634	5.640959
583.034424	1097.228394	14553.004883	1862.546265	5.687653
583.376343	1091.581299	14489.179688	1854.075562	5.691276
583.718201	1093.735962	14456.782227	1847.537109	5.640938
584.059937	1093.661743	14384.932617	1839.066528	5.608228
584.401611	1102.132202	14312.041992	1842.113159	5.601711
584.743347	1104.435669	14292.426758	1849.394897	5.648769
585.085022	1112.311768	14294.655273	1851.177856	5.604968
585.426514	1109.859741	14270.135742	1841.890259	5.562425
585.768127	1110.751343	14238.333008	1832.899536	5.500999
586.109619	1103.023926	14206.382813	1829.407349	5.543490
586.451172	1102.726563	14244.649414	1840.701294	5.615424
586.792542	1090.838257	14297.551758	1853.109985	5.771850
587.133850	1089.797974	14370.071289	1856.453491	5.772890
587.475220	1093.438843	14419.409180	1852.664063	5.697335
587.816589	1099.680298	14482.492188	1846.942749	5.583748
588.157776	1098.268555	14610.218750	1856.230591	5.609568
588.498962	1093.438843	14747.456055	1874.806274	5.722619
588.840210	1095.667969	14847.020508	1881.567749	5.715073
589.181335	1093.884644	14908.766602	1886.323242	5.736123
589.522400	1092.175659	14924.147461	1878.372681	5.683911
589.863403	1094.850708	14928.902344	1884.019897	5.704541
590.204407	1092.473022	14825.993164	1873.691772	5.688408
590.545410	1097.748413	14750.129883	1877.778320	5.713508
590.886353	1092.918579	14579.754883	1857.345093	5.667945
591.227112	1099.457275	14452.176758	1852.366699	5.638622
591.567932	1095.890747	14297.999023	1839.809570	5.634849
591.908752	1096.782593	14231.719727	1844.713745	5.694212
592.249512	1096.411011	14240.635742	1846.794067	5.708842
592.590149	1097.897095	14273.031250	1851.698120	5.721392
592.930786	1096.262329	14354.541992	1849.989136	5.684952
593.271423	1096.113770	14479.817383	1847.685669	5.615575
593.612000	1096.336548	14699.828125	1841.147095	5.475142
593.952576	1097.673950	14926.153320	1849.543335	5.437108
594.292969	1090.243774	15122.833008	1856.156250	5.458098
594.633484	1089.500854	15282.583008	1879.710327	5.567568
594.973877	1094.256226	15493.083008	1900.366577	5.598444
595.314209	1097.153931	15791.557617	1932.242310	5.683037
595.654480	1096.336548	16147.541992	1954.533203	5.701847
595.994812	1092.844360	16537.185547	1974.669312	5.709696
596.335022	1103.692627	16819.164063	1980.613281	5.579983
596.675171	1107.927856	16944.068359	1984.774292	5.536996
597.015320	1107.704956	16854.310547	1976.080933	5.514687
597.355408	1101.686523	16523.812500	1961.963379	5.578199
597.695496	1107.853516	16058.825195	1945.691040	5.603900
598.035461	1108.447998	15468.416992	1915.226929	5.618250
598.375366	1107.333496	14925.633789	1873.988892	5.548116
598.715271	1099.531738	14487.620117	1839.066528	5.523827
599.055176	1098.268555	14133.120117	1827.178223	5.592006
599.395081	1100.497681	13910.583008	1820.490845	5.620518
599.734802	1101.389160	13730.324219	1812.911987	5.634068
600.074524	1100.348999	13664.417969	1802.881226	5.591598
600.414246	1103.915405	13627.489258	1805.258911	5.600186
600.753906	1107.407837	13641.309570	1805.556152	5.570080
601.093506	1110.379883	13690.648438	1810.163086	5.562546
601.433044	1111.345825	13843.191406	1819.748047	5.564018
601.772583	1105.327271	14056.588867	1830.298828	5.597691
602.112122	1102.875366	14370.071289	1840.106812	5.556799
602.451538	1103.321167	14752.507813	1865.072632	5.580929
602.790894	1103.915527	15182.573242	1888.180664	5.570596
603.130310	1105.475952	15654.394531	1914.558228	5.561116
603.469604	1101.389160	16085.721680	1928.081421	5.517045
603.808838	1093.438843	16479.523438	1948.588867	5.557944
604.148010	1088.312012	16760.537109	1968.873535	5.618612
604.487305	1091.358398	16810.767578	1970.433960	5.592294
604.826416	1100.051758	16683.412109	1959.139771	5.512855
605.165527	1104.807129	16319.700195	1941.604492	5.499857
605.504456	1100.348999	15865.488281	1926.669556	5.596429
605.843445	1096.856812	15312.082031	1905.939087	5.691660
606.182434	1089.055054	14847.317383	1882.311035	5.765670
606.521423	1093.438843	14474.094727	1855.190430	5.692932
606.860229	1101.909302	14179.633789	1830.967651	5.574811
607.199036	1109.859741	13963.262695	1814.992554	5.485962
607.537903	1110.305542	13871.128906	1809.271362	5.477435
607.876648	1106.516235	13961.333008	1817.816040	5.533333
608.215271	1105.475952	14159.870117	1834.682983	5.585912
608.553955	1095.593628	14439.471680	1847.908691	5.637904
608.892578	1097.822632	14644.992188	1858.831055	5.617472
609.231140	1097.896973	14788.768555	1853.852905	5.521606
609.569641	1102.800903	14782.600586	1855.338867	5.501089
609.908081	1095.593628	14712.011719	1846.794067	5.516873
610.246521	1091.506958	14475.729492	1837.357788	5.572612
610.584961	1083.779541	14127.398438	1822.497192	5.663441
610.923340	1085.562866	13695.773438	1804.515991	5.701357
611.261597	1092.918823	13281.165039	1777.915405	5.620141
611.599854	1102.132324	12930.531250	1764.020874	5.595758
611.938110	1111.568726	12644.688477	1742.547241	5.471013
612.276245	1115.878296	12417.471680	1735.339966	5.481189
612.614319	1110.454224	12226.512695	1721.594116	5.497811
612.952393	1102.875366	12045.882813	1722.411499	5.661479
613.290466	1095.667969	11893.264648	1711.934692	5.707443
613.628479	1095.816528	11720.809570	1701.383667	5.699459
613.966370	1099.457397	11625.627930	1688.232056	5.593436
614.304260	1094.330444	11538.024414	1697.074219	5.771366
614.642151	1090.689697	11502.953125	1694.696655	5.800919
614.979980	1089.277954	11460.749023	1697.965820	5.868867
615.317749	1088.832153	11409.331055	1683.699585	5.763941
615.655396	1099.680298	11372.403320	1681.767700	5.666340
615.993164	1092.547241	11329.604492	1678.498535	5.723825
616.330811	1096.410889	11322.917969	1686.300293	5.768239
616.668396	1094.479004	11305.752930	1688.900879	5.821231
617.005859	1106.739136	11305.159180	1683.699707	5.657352
617.343445	1109.190918	11301.592773	1676.046509	5.561550
617.680908	1108.596558	11319.871094	1665.346802	5.452309
618.018311	1100.125977	11303.375000	1663.489258	5.521410
618.355652	1096.856689	11287.622070	1656.727905	5.493907
618.692993	1104.361450	11223.351563	1666.312866	5.553434
619.030273	1106.887695	11143.179688	1664.158081	5.552553
619.367554	1109.636841	11068.282227	1664.603882	5.572716
619.704712	1100.720581	10991.825195	1654.127075	5.594992
620.041870	1097.376831	10984.691406	1664.529419	5.736164
620.379028	1104.212769	10947.911133	1675.526367	5.803851
620.716064	1099.903198	10946.872070	1677.829712	5.869081
621.053040	1102.355103	10937.508789	1669.433594	5.765833
621.389954	1089.426514	10930.301758	1664.752563	5.846290
621.726929	1087.643188	10936.468750	1657.619507	5.787252
622.063843	1083.408081	10931.862305	1655.984741	5.813873
622.400635	1081.996216	10914.698242	1650.114868	5.777849
622.737427	1080.881714	10909.793945	1659.402710	5.885911
623.074219	1088.237671	10922.425781	1653.755493	5.750529
623.410889	1093.958984	10971.911133	1646.251099	5.591160
623.747559	1097.748413	11029.049805	1645.210938	5.512495
624.084167	1097.376831	11099.786133	1656.430664	5.589192
624.420715	1098.417114	11204.182617	1663.786621	5.594524
624.757324	1105.550171	11355.387695	1665.421265	5.462244
625.093750	1104.732788	11539.508789	1668.393433	5.401751
625.430176	1103.692505	11734.925781	1679.835938	5.419347
625.766602	1093.290161	11926.776367	1699.749023	5.598003
626.102905	1087.048828	12134.898438	1711.265991	5.650124
626.439209	1084.225220	12282.090820	1718.250366	5.662018
626.775452	1094.627808	12395.551758	1714.832397	5.488088
627.111694	1099.531616	12341.831055	1717.061523	5.492914
627.447876	1101.909302	12233.719727	1711.860352	5.479352
627.783997	1101.240601	12034.440430	1707.922363	5.548986
628.120056	1097.971313	11903.593750	1695.810913	5.532672
628.456055	1095.222046	11724.077148	1689.123657	5.587635
628.792053	1093.735962	11539.434570	1676.046509	5.574645
629.128052	1096.708130	11351.301758	1677.012573	5.658970
629.463928	1106.367554	11234.348633	1674.709106	5.611598
629.799744	1101.612061	11136.863281	1671.514038	5.679001
630.135559	1103.469727	11043.835938	1668.616211	5.685369
630.471375	1094.627808	10900.432617	1663.786621	5.804305
630.807068	1099.085938	10781.696289	1663.712280	5.831344
631.142700	1095.445068	10692.681641	1651.006470	5.788764
631.478333	1097.377075	10639.183594	1644.987915	5.739069
631.813965	1100.423462	10608.274414	1636.740356	5.640779
632.149475	1100.126221	10542.515625	1632.653687	5.639753
632.484924	1100.126099	10538.875000	1627.675293	5.589186
632.820435	1093.141724	10548.534180	1630.721802	5.685434
633.155884	1090.392456	10615.778320	1632.876465	5.695139
633.491150	1097.079712	10657.908203	1642.387329	5.703560
633.826477	1106.144653	10668.458984	1635.848633	5.539495
634.161804	1105.995972	10616.001953	1628.195435	5.491053
634.497009	1100.423218	10550.689453	1614.300903	5.437706
634.832153	1099.531616	10472.002930	1612.146118	5.469363
635.167297	1100.423218	10370.579102	1608.579590	5.481637
635.502380	1099.531616	10241.145508	1610.065552	5.584724
635.837463	1081.550415	10104.948242	1603.601196	5.785523
636.172424	1078.949707	9990.818359	1604.195801	5.893782
636.507324	1081.847656	9894.522461	1596.394043	5.838708
636.842224	1089.426514	9790.350586	1596.839844	5.831718
637.177124	1087.643188	9679.638672	1587.031860	5.812255
637.511963	1088.832031	9582.599609	1585.025757	5.841856
637.846741	1098.937256	9494.921875	1573.954590	5.657673
638.181396	1106.664795	9418.910156	1570.016602	5.574328
638.516113	1104.212769	9349.363281	1557.013672	5.491724
638.850769	1100.943481	9280.112305	1554.412964	5.544200
639.185303	1104.584351	9184.930664	1550.400513	5.517291
639.519836	1102.057983	9102.975586	1551.960938	5.623142
639.854370	1099.680176	9025.032227	1546.016724	5.631757
640.188843	1096.559448	8976.958008	1543.193359	5.667656
640.523254	1093.661743	8927.991211	1536.134399	5.647869
640.857605	1095.890747	8906.147461	1539.329468	5.677646
641.191895	1098.491333	8874.344727	1538.437866	5.657855
641.526184	1097.599731	8844.996094	1542.227173	5.739056
641.860413	1094.181763	8773.739258	1539.180786	5.794592
642.194580	1084.448242	8730.346680	1538.289429	5.935747
642.528748	1086.231567	8676.106445	1533.236694	5.889493
642.862793	1088.237671	8655.227539	1517.112915	5.667713
643.196838	1094.256226	8628.254883	1514.735352	5.581089
643.530823	1097.005371	8605.592773	1513.769409	5.550498
643.864746	1102.726685	8575.871094	1516.369995	5.535064
644.198669	1106.738892	8566.137695	1515.552612	5.480518
644.532532	1108.670898	8537.010742	1519.193359	5.526436
644.866333	1107.482056	8539.686523	1530.190308	5.687522
645.200073	1106.070435	8537.903320	1534.796997	5.768786
645.533813	1105.550171	8554.250000	1539.403687	5.824553
645.867554	1096.633911	8579.438477	1533.236694	5.834748
646.201172	1096.856812	8585.680664	1528.555664	5.764575
646.534729	1095.147827	8609.977539	1516.072754	5.601257
646.868225	1096.336548	8588.131836	1519.936401	5.654183
647.201782	1096.782349	8586.793945	1519.862183	5.648587
647.535217	1096.039429	8592.886719	1519.490601	5.648390
647.868591	1098.714233	8600.391602	1524.691772	5.678431
648.201965	1092.993042	8567.327148	1519.342163	5.704175
648.535278	1097.748413	8524.528320	1515.329590	5.622641
648.868591	1095.222168	8519.625000	1508.791016	5.570399
649.201782	1099.011475	8510.930664	1503.589844	5.458483
649.534912	1097.599731	8508.182617	1512.134399	5.593820
649.868103	1099.382935	8486.262695	1508.419556	5.537340
650.201172	1098.640015	8522.149414	1515.998413	5.622118
650.534180	1097.599731	8541.097656	1518.821899	5.658927
650.867188	1098.714355	8558.039063	1523.651489	5.696724
651.200134	1104.435669	8522.745117	1521.645508	5.624055
651.533020	1101.240601	8479.352539	1515.106812	5.609378
651.865845	1106.144653	8444.800781	1517.038696	5.599037
652.198608	1103.023926	8456.467773	1521.199585	5.686800
652.531433	1094.330444	8452.900391	1521.645508	5.807040
652.864136	1090.689575	8441.085938	1513.769165	5.755875
653.196777	1143.890503	8430.015625	1622.325562	6.566386
653.529358	1156.447632	8383.352539	1624.777710	6.480369
653.861938	1161.054321	8309.718750	1615.935547	6.363163
654.194519	1107.110596	8189.645996	1496.085327	5.492027
654.526978	1112.385986	8173.967285	1486.203125	5.293675
654.859375	1106.144531	8164.531250	1487.168945	5.398180
655.191833	1103.766968	8179.614746	1488.580688	5.438412
655.524170	1098.045532	8143.355469	1487.986328	5.534757
655.856445	1098.714355	8106.353027	1492.592896	5.620703
656.188660	1108.447998	8083.170410	1492.592896	5.507673
656.520874	1110.454102	8118.463379	1497.942749	5.529226
656.853088	1105.550171	8228.208984	1505.596069	5.616525
657.185181	1095.742188	8346.350586	1506.636230	5.667028
657.517212	1093.958862	8485.371094	1509.311157	5.619390
657.849243	1091.209839	8654.112305	1518.524780	5.650145
658.181274	1086.974487	8875.906250	1529.595825	5.682696
658.513123	1088.683472	9112.856445	1543.787720	5.671666
658.844971	1091.061157	9305.524414	1546.239624	5.541183
659.176819	1095.965210	9440.383789	1559.539917	5.555506
659.508667	1092.547241	9481.175781	1563.032104	5.608603
659.840393	1097.153931	9437.040039	1570.833862	5.679693
660.172058	1100.794800	9325.660156	1564.443848	5.637163
660.503662	1099.680298	9125.192383	1568.901978	5.846626
660.835266	1100.943359	8923.459961	1554.264282	5.795078
661.166931	1097.525513	8694.235352	1546.685547	5.912560
661.498413	1105.401611	8544.739258	1517.038696	5.533249
661.829773	1105.847290	8360.096680	1510.128540	5.573027
662.161194	1101.389282	8206.883789	1490.066772	5.470098
662.492615	1094.999268	8027.220215	1487.912109	5.667922
662.823975	1098.862915	7899.865234	1475.280640	5.534739
663.155212	1097.748413	7767.828613	1473.720215	5.636691
663.486450	1097.079712	7669.080566	1469.262085	5.663152
663.817627	1088.460571	7570.183594	1471.936890	5.916271
664.148743	1088.163208	7497.070313	1465.844116	5.893063
664.479858	1093.067261	7419.275391	1454.327148	5.710528
664.810913	1094.330444	7382.347168	1451.057739	5.673129
665.141907	1101.612061	7347.201660	1456.036133	5.674789
665.472778	1094.850464	7349.207520	1463.317749	5.891370
665.803711	1094.850586	7350.842285	1453.732788	5.736616
666.134583	1088.386230	7354.557129	1448.754517	5.751013
666.465454	1090.392456	7348.167969	1449.646118	5.740917
666.796143	1089.352173	7313.171387	1452.320923	5.831929
667.126831	1096.485229	7332.267090	1453.955566	5.732566
667.457458	1093.141602	7344.229004	1448.977417	5.692383
667.788147	1093.810425	7368.600098	1448.680054	5.655483
668.118774	1090.689575	7371.646973	1448.382935	5.694886
668.449219	1093.067383	7383.089844	1444.444824	5.586267
668.779663	1097.302612	7394.085938	1445.039429	5.522452
669.110107	1094.256226	7381.603516	1441.992798	5.530736
669.440552	1099.828979	7358.123535	1447.342407	5.552845
669.770874	1090.764038	7313.616699	1436.643066	5.558207
670.101135	1096.485229	7279.363281	1438.797852	5.536461
670.431396	1096.188110	7227.276855	1429.064331	5.429317
670.761597	1107.704956	7171.029785	1433.522461	5.373579
671.091797	1109.413818	7112.702637	1430.253052	5.344391
671.421875	1101.389160	7062.250488	1435.082886	5.598079
671.751892	1098.416992	7044.566406	1436.717407	5.689403
672.081909	1098.268555	6991.662598	1432.259277	5.667205
672.411865	1105.327271	6961.792969	1430.847534	5.558306
672.741821	1101.686401	6922.486816	1423.342896	5.525984
673.071716	1098.268555	6935.936035	1422.748535	5.558384
673.401550	1098.491455	6908.221191	1412.717773	5.408622
673.731262	1102.726685	6904.060547	1413.609253	5.358812
674.060974	1101.463501	6857.695801	1401.497925	5.212340
674.390625	1102.206421	6835.181641	1414.203491	5.442150
674.720276	1098.565796	6777.671387	1410.042603	5.484611
675.049927	1094.776245	6748.099121	1413.312134	5.634490
675.379395	1091.061035	6726.179688	1396.073853	5.412714
675.708923	1095.667847	6698.539063	1394.290527	5.329815
676.038330	1099.011353	6678.031250	1407.516479	5.529737
676.367737	1099.457397	6671.046875	1417.547241	5.709140
676.697083	1094.999146	6689.770996	1419.330566	5.797044
677.026428	1099.383179	6699.728027	1415.095337	5.637370
677.355652	1096.113770	6691.332031	1422.154175	5.827126
677.684875	1091.729858	6734.130371	1425.869263	5.921937
678.013977	1089.352173	6804.197266	1422.525513	5.829963
678.343079	1089.946655	6902.500000	1417.770386	5.639926
678.672180	1092.249878	6968.035645	1422.897095	5.627285
679.001221	1085.859985	7058.386719	1434.785522	5.842176
679.330139	1097.228271	7149.333496	1456.036133	5.928645
679.659058	1103.321167	7254.694824	1462.351929	5.836595
679.987976	1104.064087	7332.415527	1462.054688	5.747758
680.316772	1094.776245	7362.285156	1453.509888	5.723704
680.645630	1097.451172	7365.182129	1450.834961	5.638145
680.974304	1105.921753	7315.696777	1452.692383	5.584270
681.302979	1106.441895	7273.493652	1441.695679	5.436208
681.631653	1101.315063	7198.076172	1437.088867	5.507413
681.960266	1100.646362	7151.191406	1432.110718	5.478256
682.288757	1105.104492	7080.009277	1430.996094	5.454340
682.617249	1106.367554	7010.536621	1428.989868	5.464314
682.945679	1101.017700	6899.156250	1429.212891	5.660354
683.274109	1092.993042	6787.404785	1423.045532	5.796077
683.602478	1089.055054	6667.628906	1419.256226	5.919096
683.930725	1092.398682	6558.329590	1412.197388	5.850764
684.259033	1094.850708	6467.234375	1413.015015	5.922218
684.587280	1094.627808	6397.019043	1409.671265	5.941535
684.915344	1093.438843	6339.582520	1404.618652	5.931592
685.243469	1092.695923	6305.328613	1397.559937	5.848561
685.571533	1090.244019	6266.468750	1385.894409	5.711699
685.899536	1085.339844	6246.853027	1379.355835	5.696314
686.227539	1087.420288	6211.410156	1383.590942	5.780079
686.555420	1091.135498	6222.406738	1393.101563	5.884820
686.883301	1102.206543	6249.601563	1389.163696	5.574803
687.211121	1103.023926	6286.826660	1386.117310	5.461114
687.538940	1102.652466	6309.118652	1379.504395	5.317463
687.866638	1101.760864	6304.808594	1380.693237	5.360942
688.194336	1102.949585	6293.292480	1370.365112	5.152174
688.521973	1102.652344	6256.289063	1370.439453	5.196080
688.849609	1094.850586	6207.323730	1369.027710	5.362906
689.177063	1090.986816	6137.479004	1374.005859	5.608233
689.504578	1090.095337	6054.779785	1370.142212	5.640779
689.832031	1084.745483	5982.334473	1364.346558	5.708953
690.159485	1079.544312	5904.911621	1362.043091	5.854452
690.486816	1083.705200	5852.751465	1359.071045	5.774023
690.814087	1086.974487	5790.708496	1371.108032	6.040596
691.141296	1087.271606	5754.597656	1366.575684	5.984241
691.468506	1084.373901	5688.914063	1367.690308	6.152979
691.795715	1083.110840	5639.576660	1356.396118	5.997746
692.122803	1093.438965	5604.208984	1360.631470	5.923434
692.449829	1100.720581	5579.242676	1360.854248	5.808471
692.776855	1105.104370	5543.949219	1363.009155	5.810178
693.103821	1097.525513	5491.119629	1358.030762	5.929206
693.430664	1092.398560	5463.999512	1353.944214	5.982834
693.757568	1096.039429	5454.339844	1351.566528	5.862999
694.084351	1098.862915	5461.695801	1348.148560	5.713848
694.411133	1097.228271	5461.992676	1347.331177	5.730043
694.737854	1102.206665	5455.306152	1341.609985	5.499606
695.064575	1104.584351	5456.643066	1341.164185	5.436044
695.391174	1105.624634	5479.825684	1335.814331	5.262440
695.717773	1098.863037	5515.639160	1332.545044	5.290782
696.044250	1097.376953	5561.335938	1326.972290	5.143312
696.370789	1094.999146	5622.932129	1335.962891	5.321716
696.697205	1093.438843	5721.086426	1354.612793	5.643774
697.023621	1095.816528	5857.208984	1371.108032	5.781744
697.349915	1098.268555	6024.167480	1381.436157	5.748547
697.676208	1097.525513	6213.416504	1389.386597	5.704990
698.002380	1094.404785	6462.255859	1396.816772	5.633763
698.328674	1096.782471	6689.474121	1411.751587	5.631799
698.654724	1094.776245	6881.472168	1414.352173	5.522598
698.980896	1097.897095	6956.145996	1424.457397	5.574367
699.306946	1096.411011	6950.796387	1420.965210	5.543779
699.632935	1100.571899	6856.952637	1420.370728	5.555553
699.958862	1097.971191	6696.012207	1419.033325	5.735259
700.284729	1095.370728	6512.261719	1411.380249	5.833780
700.610596	1090.763916	6306.518066	1396.519653	5.862158
700.936340	1091.135376	6094.309082	1369.101929	5.555804
701.262146	1091.804077	5874.596191	1349.560425	5.389245
701.587830	1094.924805	5696.566406	1348.817261	5.517432
701.913513	1105.104492	5537.855469	1349.560425	5.514768
702.239075	1104.361450	5396.160645	1345.027832	5.607587
702.564697	1103.692627	5275.567871	1328.681274	5.392986
702.890137	1092.993042	5167.531250	1319.765015	5.565587
703.215698	1096.931152	5093.451660	1311.368774	5.365608
703.541016	1106.590454	5015.285156	1307.356445	5.136395
703.866455	1106.739136	4973.006836	1313.523560	5.348425
704.191711	1107.482056	4942.468262	1306.018921	5.176990
704.517029	1103.766846	4918.320313	1299.926147	5.142392
704.842163	1104.509888	4872.549805	1293.164673	5.006709
705.167419	1108.299316	4826.333496	1299.183105	5.133998
705.492493	1098.565796	4800.698730	1301.486450	5.481183
705.817566	1092.770020	4791.262207	1298.365723	5.558906
706.142578	1085.934204	4779.002441	1298.588745	5.758207
706.467590	1092.844360	4771.720215	1297.474121	5.562290
706.792480	1098.045654	4764.884766	1298.068481	5.454911
707.117371	1099.011597	4786.135254	1299.628906	5.441025
707.442200	1094.107544	4804.265137	1304.607056	5.673600
707.766907	1100.125977	4812.587402	1300.223267	5.389882
708.091675	1101.834961	4810.357910	1297.771362	5.283408
708.416321	1111.940308	4811.695801	1299.108765	5.058941
708.741028	1098.714355	4832.723145	1312.483276	5.724917
709.065552	1096.113892	4855.385254	1321.919556	6.006634
709.390137	1083.853882	4857.912109	1324.148804	6.367017
709.714600	1093.661865	4903.756348	1312.854736	5.752951
710.039063	1095.667969	4932.585938	1306.390503	5.491974
710.363403	1099.531738	4993.142578	1306.613281	5.318496
710.687744	1095.965210	5036.535645	1315.455444	5.570012
711.012085	1091.506958	5096.646973	1322.588501	5.769624
711.336304	1095.370728	5122.875488	1322.514160	5.639805
711.660461	1094.404663	5129.562500	1319.096191	5.568346
711.984619	1099.085693	5097.612793	1315.752563	5.418667
712.308716	1092.770020	5048.572754	1318.204590	5.698833
712.632751	1093.067261	4992.846191	1320.582275	5.834049
712.956726	1089.872314	4939.496582	1317.684448	5.917776
713.280701	1094.330444	4913.861816	1312.929077	5.723180
713.604553	1103.098145	4866.605957	1307.653442	5.435230
713.928467	1109.636841	4842.308594	1307.950684	5.312919
714.252258	1109.042480	4806.345703	1303.418335	5.257233
714.575989	1101.315063	4806.048340	1298.588745	5.324909
714.899719	1095.444946	4810.654785	1298.588623	5.467892
715.223267	1096.039551	4829.602051	1303.343994	5.552457
715.546936	1093.513184	4823.583984	1304.978638	5.669208
715.870422	1087.717529	4814.444824	1300.817749	5.718160
716.193970	1082.070679	4813.107422	1291.084106	5.602020
716.517395	1077.463745	4796.166016	1293.981934	5.822413
716.840820	1083.185059	4750.841309	1303.269897	6.000694
717.164124	1086.974487	4680.402344	1310.625854	6.223900
717.487488	1093.884644	4616.501953	1306.762085	6.043161
717.810730	1097.525513	4549.555664	1290.861206	5.600637
718.133972	1098.714233	4455.785645	1280.978882	5.429276
718.457092	1100.274780	4377.841797	1272.359741	5.250388
718.780212	1099.977539	4306.734375	1271.245239	5.340838
719.103210	1102.726807	4268.245605	1263.146362	5.067718
719.426208	1101.760742	4221.509277	1262.551880	5.153977
719.749207	1100.274780	4182.203125	1261.140137	5.219634
720.072083	1099.605957	4137.026855	1256.904907	5.178701
720.394958	1100.051758	4094.674561	1254.898682	5.170832
720.717773	1092.695801	4035.529297	1248.954468	5.309803
721.040527	1092.324341	4008.928955	1257.202026	5.653069
721.363281	1102.800903	3983.963623	1255.790405	5.309992
721.685913	1107.259155	3994.291260	1264.780884	5.456182
722.008545	1099.457397	3970.365967	1253.858398	5.378123
722.331055	1082.739258	3963.752930	1257.796387	6.076234
722.653503	1078.949829	3948.520752	1247.839844	5.885550
722.976013	1081.104614	3952.533203	1257.127808	6.130161
723.298401	1086.825806	3942.205078	1253.264038	5.828936
723.620789	1095.593628	3938.489990	1264.409424	5.938162
723.943115	1100.571899	3916.422119	1269.090576	5.984647
724.265381	1097.674194	3901.635986	1274.291748	6.298857
724.587585	1094.107666	3896.137451	1265.226807	6.106971
724.909790	1092.473022	3915.456055	1261.140137	5.974783
725.231873	1099.977539	3924.744141	1261.585815	5.721119
725.553894	1099.828735	3936.409424	1264.260864	5.796843
725.875916	1134.751099	3979.579346	1295.839478	5.662499
726.197937	1135.048462	3999.417969	1294.724976	5.574578
726.519775	1133.116455	4009.077393	1291.604248	5.510777
726.841675	1098.937256	3989.759033	1263.814941	5.703488
727.163513	1084.671021	4006.699951	1253.784180	5.787525
727.485291	1088.460571	4014.650391	1258.762329	5.819915
727.806946	1090.540894	4029.065186	1258.242310	5.706994
728.128662	1100.200317	4061.089111	1266.638428	5.621222
728.450256	1101.314941	4105.299316	1263.815063	5.409486
728.771790	1107.184814	4126.921875	1264.855225	5.221329
729.093323	1104.212769	4120.011719	1265.821167	5.358726
729.414795	1106.144531	4096.085938	1265.449585	5.328032
729.736145	1097.599731	4078.550781	1261.140137	5.486182
730.057495	1102.726685	4058.042969	1255.493164	5.169209
730.378845	1098.714355	4060.049561	1257.424927	5.359426
730.700134	1093.067383	4066.587891	1249.623169	5.264997
731.021301	1086.974487	4102.030762	1250.366211	5.419193
731.342468	1088.460571	4113.473145	1252.446655	5.421005
731.663574	1089.426514	4134.574707	1257.944946	5.533998
731.984680	1094.181763	4137.472656	1261.288574	5.490990
732.305664	1093.736084	4141.559570	1263.592041	5.573025
732.626648	1098.417114	4160.506836	1265.672607	5.462135
732.947571	1097.674194	4167.342285	1271.245239	5.654391
733.268433	1098.045532	4169.497070	1270.353638	5.609989
733.589233	1100.051758	4144.085449	1265.672485	5.440831
733.909973	1096.931152	4108.048828	1265.300903	5.591603
734.230713	1095.147827	4055.293945	1263.963501	5.702951
734.551331	1091.878540	3985.746826	1269.313354	6.131406
734.871948	1100.943359	3938.044189	1252.297974	5.334834
735.192505	1103.841309	3899.704102	1242.267090	4.951094
735.513062	1104.732788	3855.419678	1230.601563	4.575903
735.833435	1094.033203	3798.726563	1228.892700	4.986129
736.153931	1093.290405	3738.467529	1232.310669	5.255612
736.474304	1093.215942	3703.024658	1242.638794	5.725433
736.794617	1102.875366	3679.173828	1251.332153	5.762407
737.114807	1101.537842	3682.740234	1247.096802	5.639192
737.434998	1104.286987	3690.838867	1241.226929	5.294305
737.755188	1099.308716	3701.761719	1245.387817	5.613131
738.075256	1102.875122	3729.253662	1248.880005	5.559172
738.395325	1101.909424	3747.754883	1254.452759	5.765391
738.715271	1106.664795	3766.033203	1249.846069	5.384033
739.035278	1097.302612	3786.020752	1254.155640	5.833747
739.355164	1094.404907	3783.717529	1251.555054	5.843506
739.675049	1090.986938	3767.891357	1252.075073	6.017703
739.994873	1097.599731	3728.213623	1251.926514	5.866570
740.314636	1096.559570	3699.829834	1255.121460	6.090873
740.634277	1094.033203	3674.120850	1251.926392	6.119683
740.953979	1094.479126	3638.009766	1245.090576	5.921354
741.273499	1099.457397	3598.703857	1239.443604	5.601136
741.593140	1097.302612	3565.936279	1238.774902	5.730793
741.912598	1092.993042	3537.924072	1239.592285	5.996048
742.232117	1097.154053	3505.676758	1243.381714	6.071259
742.551453	1101.166382	3478.036133	1241.301270	5.895775
742.870850	1103.023804	3450.098389	1233.276611	5.549581
743.190063	1093.215820	3434.569092	1229.189941	5.807501
743.509338	1089.277832	3404.327393	1225.177612	5.870275
743.828552	1079.618530	3387.238037	1227.629517	6.414011
744.147705	1088.386230	3366.878906	1225.771973	6.029677
744.466797	1088.534790	3351.126953	1229.041382	6.209983
744.785828	1104.658569	3338.867188	1232.013306	5.700217
745.104858	1093.736084	3316.576172	1226.589233	5.976730
745.423706	1096.782593	3283.363037	1220.347778	5.651070
745.742615	1093.884766	3237.592529	1216.409790	5.715566
746.061401	1099.977539	3222.955078	1220.422119	5.673380
746.380249	1101.983765	3226.595703	1221.016479	5.602563
746.698975	1104.287109	3232.317139	1218.192993	5.352644
747.017639	1097.005493	3223.623779	1211.877441	5.401626
747.336304	1093.587524	3227.858643	1210.317017	5.469291
747.654907	1087.866211	3233.208740	1215.146729	5.932876
747.973389	1104.955811	3238.632813	1212.100220	5.021585
748.291931	1109.933960	3225.406982	1213.066162	4.875136
748.610352	1102.652344	3226.075439	1209.871216	5.049341
748.928711	1098.714233	3244.799805	1221.016602	5.698858
749.247070	1095.444946	3260.477783	1223.617310	5.920112
749.565308	1102.206543	3269.096924	1225.251953	5.678432
749.883545	1101.612183	3249.035156	1211.728638	5.127842
750.201782	1099.977417	3245.617188	1202.292358	4.768506
750.519836	1096.485229	3232.837158	1195.456421	4.632719
750.837952	1089.500854	3226.149658	1197.982788	5.077200
751.155884	1084.819702	3209.505859	1198.131470	5.333107
751.473877	1098.342773	3200.515625	1201.400757	4.902451
751.791809	1092.695801	3201.406982	1202.143799	5.190279
752.109619	1102.429565	3192.193359	1211.728760	5.230218
752.427490	1093.141724	3176.887451	1214.849487	5.840817
752.745300	1102.503784	3179.041992	1227.480835	6.018529
753.062988	1090.838257	3194.571289	1230.824463	6.654181
753.380615	1088.683472	3216.787842	1226.960815	6.497676
753.698303	1087.791748	3218.645264	1218.118896	6.116195
754.015808	1094.553345	3195.908936	1214.998169	5.731768
754.333374	1102.132202	3175.549561	1211.654419	5.282207
754.650757	1107.779297	3151.698486	1206.230347	4.816778
754.968262	1120.262085	3145.531250	1206.378906	4.252117
755.285583	1114.763794	3143.451172	1207.567871	4.574587
755.602905	1109.711304	3143.525391	1213.214844	5.089135
755.920105	1101.835083	3140.776123	1202.143677	4.919641
756.237305	1106.516113	3139.289795	1199.320190	4.565392
756.554443	1105.624390	3128.887695	1193.821899	4.359171
756.871582	1101.909302	3139.141357	1200.583374	4.843536
757.188599	1094.924927	3142.485107	1206.899048	5.468661
757.505615	1096.485229	3180.082031	1211.654419	5.527422
757.822510	1099.977539	3211.958008	1213.214844	5.361664
758.139465	1101.389160	3238.558594	1215.072266	5.319331
758.456238	1097.525513	3245.245850	1213.883545	5.417746
758.773010	1091.655640	3260.106201	1223.914551	6.099236
759.089783	1095.147827	3287.524170	1223.022827	5.832712
759.406433	1091.506958	3314.718750	1224.211548	5.969048
759.723145	1092.621582	3328.910889	1209.648315	5.233077
760.039673	1087.346069	3334.037842	1212.323120	5.562714
760.356201	1087.866089	3334.037354	1210.391357	5.454850
760.672668	1091.135376	3324.229248	1217.524414	5.659818
760.989136	1094.255981	3318.433594	1214.478149	5.405241
761.305481	1109.785400	3320.217041	1215.666870	4.790081
761.621826	1108.819458	3326.978516	1218.639038	4.950933
761.938049	1113.426147	3346.891602	1214.998047	4.547727
762.254333	1106.664673	3387.832764	1218.193115	4.889094
762.570496	1115.209595	3457.677002	1220.793579	4.507383
762.886597	1108.670898	3578.864990	1233.350830	5.047374
763.202637	1101.835083	3775.024170	1237.214600	5.064345
763.518677	1091.729980	4025.052734	1251.332153	5.441003
763.834656	1097.154053	4269.434082	1263.517700	5.244293
764.150574	1101.537842	4401.173340	1291.307007	5.751216
764.466370	1106.441772	4405.631348	1287.889160	5.499756
764.782288	1098.491455	4302.944824	1277.115356	5.574239
765.097961	1098.714355	4172.097656	1255.270386	5.093931
765.413696	1092.770142	4012.272705	1243.753296	5.171537
765.729309	1093.884644	3838.850342	1245.833740	5.535555
766.044861	1087.420288	3674.195313	1236.174438	5.750564
766.360474	1082.442017	3563.929932	1239.889526	6.344883
766.675903	1081.401855	3481.899658	1233.499390	6.336083
766.991394	1083.259277	3409.009033	1243.010254	6.868795
767.306763	1090.986938	3334.112061	1237.660522	6.538805
767.622131	1089.129517	3273.109375	1231.939087	6.538960
767.937378	1100.051880	3214.187256	1222.799805	5.806058
768.252625	1095.073608	3161.209229	1211.357300	5.628076
768.567810	1093.958984	3107.636963	1203.852783	5.457367
768.882996	1088.609253	3077.544189	1200.509155	5.626122
769.197998	1087.197388	3058.300049	1204.595703	5.955972
769.513062	1094.479004	3034.597412	1207.864868	5.844275
769.828064	1093.067261	2995.142578	1202.812378	5.769757
770.142944	1098.194214	2967.873779	1202.440918	5.575645
770.457825	1100.869019	2942.239258	1200.583374	5.415226
770.772705	1100.051758	2919.279541	1202.292480	5.620007
771.087402	1100.943481	2892.233643	1189.883911	4.965160
771.402100	1098.194214	2888.444092	1178.961304	4.511498
771.716736	1096.113770	2883.317139	1174.354492	4.377830
772.031372	1100.348999	2865.187256	1178.515503	4.429103
772.345947	1093.958984	2841.261719	1186.168579	5.277254
772.660461	1091.952759	2828.184326	1191.369751	5.726021
772.974854	1087.048828	2821.125732	1193.301758	6.127348
773.289246	1086.231445	2811.540283	1194.936401	6.300609
773.603638	1088.832031	2796.679932	1191.592773	6.016973
773.917908	1090.169556	2776.395264	1197.759888	6.380541
774.232178	1097.153931	2758.860107	1195.307861	5.906816
774.546265	1097.748413	2744.668213	1196.199463	5.977890
774.860474	1090.615356	2733.820313	1188.992065	5.986880
775.174561	1090.466797	2724.011963	1186.094360	5.853990
775.488586	1096.633789	2712.718018	1184.682617	5.448282
775.802551	1110.305542	2705.659180	1188.694946	4.913607
776.116516	1111.791504	2692.135986	1191.444214	5.040212
776.430359	1108.076538	2690.724609	1181.859009	4.661963
776.744202	1100.794800	2686.786377	1171.010864	4.427266
777.057922	1107.110474	2690.352783	1167.890137	3.838936
777.371704	1100.348999	2681.733643	1176.286377	4.801955
777.685303	1099.828979	2669.473633	1176.286377	4.871000
777.998962	1091.061157	2658.105469	1173.462891	5.258418
778.312500	1096.633789	2648.223389	1171.233765	4.807971
778.626038	1099.457397	2636.112061	1173.314331	4.806345
778.939453	1103.098145	2632.619629	1171.308105	4.459562
779.252869	1106.516113	2640.050049	1166.552734	3.914920
779.566223	1106.813354	2647.554688	1167.072876	3.911073
779.879578	1103.321045	2649.040527	1166.849976	4.109991
780.192749	1094.479004	2641.684570	1167.592896	4.725545
780.505920	1090.838257	2643.616455	1174.503052	5.388071
780.819031	1090.541016	2631.505127	1181.264648	5.887459
781.132141	1103.989868	2620.211182	1182.676270	5.189638
781.445190	1102.726685	2615.307129	1181.784790	5.226704
781.758118	1101.017700	2614.935791	1181.264648	5.300613
782.071045	1090.392456	2606.539551	1179.109985	5.851512
782.383911	1091.581177	2582.242432	1181.636230	6.041282
782.696838	1090.838257	2571.171631	1180.075806	6.028206
783.009583	1096.782471	2549.697754	1189.289429	6.366989
783.322266	1094.256226	2531.864990	1182.602173	6.145340
783.634888	1095.965210	2501.772461	1175.989136	5.692382
783.947510	1094.553345	2492.410400	1169.450562	5.358003
784.260132	1096.411011	2481.785156	1168.261719	5.186376
784.572571	1092.844360	2486.169189	1172.348267	5.706057
784.885010	1089.426514	2473.388916	1166.626953	5.578218
785.197449	1097.674194	2473.834961	1163.060425	4.751351
785.509766	1106.813232	2464.992920	1160.311401	3.938961
785.822083	1106.813232	2470.268311	1157.859253	3.743873
786.134277	1102.800903	2463.506592	1162.911865	4.417632
786.446533	1099.011475	2461.129150	1154.812866	4.096664
786.758606	1099.234375	2456.596436	1150.949097	3.809943
787.070740	1095.742065	2467.296143	1144.113281	3.526745
787.382690	1090.912476	2478.144287	1157.339233	4.788440
787.694641	1088.757690	2501.401123	1166.775635	5.522833
788.006653	1086.008545	2534.540283	1179.630005	6.463197
788.318481	1095.816528	2584.991699	1182.602051	5.827758
788.630310	1100.794800	2642.724854	1186.614380	5.565724
788.942017	1105.698730	2679.504639	1180.967529	4.782597
789.253784	1090.466675	2691.244629	1178.589722	5.505014
789.565430	1085.042603	2673.114746	1178.886963	5.909326
789.877014	1087.717529	2635.368896	1177.921021	5.828412
790.188538	1091.655640	2589.969971	1177.772461	5.747581
790.500061	1098.194214	2546.874268	1177.846680	5.498279
790.811462	1099.085815	2507.345459	1174.503052	5.355350
791.122925	1106.516113	2487.060547	1170.119263	4.607106
791.434204	1096.485229	2463.209717	1161.277222	4.740677
791.745483	1087.494629	2456.150879	1164.100708	5.597175
792.056702	1086.305786	2429.253174	1165.809692	5.920106
792.367920	1098.045532	2402.504150	1171.233765	5.610621
792.678955	1091.655640	2386.900635	1165.883911	5.730829
792.990112	1096.411011	2367.284912	1160.757080	5.063136
793.301086	1087.866089	2353.538818	1156.521851	5.424448
793.612122	1094.181885	2341.055908	1159.494019	5.238070
793.922974	1082.813477	2343.953857	1161.797363	6.262894
794.233826	1091.061157	2370.108154	1169.376343	6.122932
794.544556	1092.101318	2377.389648	1168.707520	5.960235
794.855286	1100.646118	2379.916260	1168.930420	5.337755
795.166016	1094.033325	2377.687256	1159.122559	5.070621
795.476624	1095.519409	2389.501221	1148.942993	4.128619
795.787292	1091.135376	2413.426758	1150.131714	4.461675
796.097778	1093.067383	2449.314941	1160.757080	4.990954
796.408264	1094.182007	2472.423096	1170.565063	5.542068
796.718689	1090.243896	2487.357910	1174.874634	6.057540
797.029053	1087.197388	2487.209229	1174.354492	6.225455
797.339355	1088.088989	2483.270996	1180.595825	6.630449
797.649658	1097.153931	2469.599365	1180.075806	6.041907
797.959839	1099.160156	2441.958740	1176.286377	5.743692
798.270020	1093.661743	2414.987061	1170.044922	5.780800
798.580078	1088.980835	2392.101807	1166.181152	5.924263
798.890137	1088.014771	2361.266357	1160.162598	5.666423
799.200195	1093.141602	2343.804932	1158.750854	5.245956
799.510071	1091.506958	2332.585205	1155.704468	5.172720
799.820007	1091.135376	2337.340576	1165.883911	5.998092
800.129883	1085.414185	2321.291260	1166.478394	6.559245
800.439575	1087.866089	2310.517334	1162.911987	6.137964
800.749329	1083.779419	2290.232666	1156.818970	6.054072
801.058960	1097.674072	2294.839600	1155.556030	4.834917
801.368591	1098.788574	2289.935547	1151.023560	4.385268
801.678162	1107.927856	2289.043945	1153.029663	3.818575
801.987671	1104.361450	2281.093506	1160.682739	4.786246
802.297119	1101.240601	2271.508545	1168.038696	5.707932
802.606506	1097.971313	2256.573486	1164.546509	5.746165
802.915894	1092.844360	2258.654053	1155.927368	5.411090
803.225159	1095.073608	2253.304443	1155.853027	5.247609
803.534424	1095.816528	2264.375488	1156.818970	5.220314
803.843628	1097.897095	2248.177490	1161.574341	5.535802
804.152771	1101.240601	2246.320068	1165.512329	5.612862
804.461792	1093.438965	2220.759766	1165.883911	6.426294
804.770874	1089.798096	2211.769043	1161.648804	6.403972
805.079773	1082.144897	2214.072266	1155.927612	6.518326
805.388733	1087.420410	2242.381836	1149.686035	5.391143
805.697571	1090.244019	2270.914063	1146.416748	4.757699
806.006470	1102.429565	2278.344482	1149.834595	4.031332
806.315125	1107.482056	2280.053467	1154.589966	4.017488
806.623901	1108.968140	2267.867920	1155.778809	4.039234
806.932495	1098.045654	2272.028564	1147.828491	4.240508
807.241150	1090.764038	2265.935791	1146.045166	4.704089
807.549622	1086.900269	2261.329102	1144.559082	4.909520
807.858154	1092.472900	2250.555420	1141.289673	4.215311
808.166565	1090.838257	2229.676270	1139.952271	4.312643
808.474915	1090.095215	2207.310791	1136.906006	4.189951
808.783264	1091.358276	2187.026611	1143.221680	4.733495
809.091492	1097.153931	2184.722900	1144.559204	4.358829
809.399719	1098.862915	2189.106689	1139.655151	3.741570
809.707825	1101.983765	2188.363525	1143.296021	3.802745
810.015930	1099.234497	2169.565186	1137.797485	3.602904
810.323975	1100.200439	2150.543701	1149.388794	4.683074
810.632080	1090.243774	2133.751221	1146.045288	5.347496
810.939880	1090.689819	2125.429443	1151.246460	5.852355
811.247864	1085.265625	2116.736084	1153.029663	6.569654
811.555664	1089.723755	2111.683350	1155.258789	6.412683
811.863464	1090.169556	2119.782471	1153.995483	6.199022
812.171143	1093.661743	2128.326904	1152.658081	5.701974
812.478882	1090.838257	2120.450928	1155.704590	6.300071
812.786438	1090.169556	2105.590576	1166.478394	7.514995
813.094055	1093.141602	2094.296387	1165.363892	7.213899
813.401489	1092.324341	2082.333740	1159.865479	6.822272
813.708984	1098.862915	2065.838623	1152.583862	5.555563
814.016357	1092.993042	2053.429932	1148.645630	5.794508
814.323730	1101.017700	2058.631592	1150.800537	5.198634
814.630981	1099.828979	2058.482666	1148.348633	5.061228
814.938232	1103.618408	2067.398682	1150.651855	4.880101
815.245361	1097.079712	2054.544434	1147.679810	5.284800
815.552490	1095.370728	2067.250244	1139.803711	4.571861
815.859619	1093.067383	2071.931396	1137.648926	4.554416
816.166565	1094.256226	2089.838379	1142.478638	4.843640
816.473572	1088.386353	2085.008545	1149.165894	6.098554
816.780457	1097.153931	2085.083008	1151.171997	5.467808
817.087341	1098.714355	2088.872314	1151.172119	5.297919
817.394043	1101.240601	2102.469482	1152.360962	5.105762
817.700806	1095.073608	2111.906250	1155.853149	5.977340
818.007507	1091.506958	2122.903076	1152.658081	5.928966
818.314209	1093.438965	2133.751221	1147.828491	5.228192
818.620667	1099.903198	2141.107178	1146.862427	4.510089
818.927246	1104.732910	2162.357666	1147.679810	4.060693
819.233704	1103.395386	2191.113037	1156.447510	4.877380
819.540161	1098.342896	2240.746826	1147.531128	4.305678
819.846497	1099.828979	2302.195313	1148.720093	4.066241
820.152832	1099.977417	2381.996582	1148.794312	3.807813
820.458984	1101.017700	2469.005127	1160.385620	4.339800
820.765259	1098.119995	2563.666748	1171.010864	4.973630
821.071350	1099.754517	2689.906982	1178.515503	4.953046
821.377502	1099.903198	2882.350830	1187.951904	4.939764
821.683472	1093.958984	3255.573486	1208.385132	5.293550
821.989441	1088.460571	3999.120850	1251.852173	5.613558
822.295349	1084.745361	5196.062988	1311.220093	5.508568
822.601196	1085.488403	6753.746094	1396.519531	5.487244
822.907043	1092.993042	8163.045410	1474.611694	5.397678
823.212769	1095.519409	9016.932617	1520.976685	5.370977
823.518494	1096.708130	8963.359375	1518.673340	5.363975
823.824097	1096.856812	8217.805664	1476.989624	5.338233
824.129700	1095.370728	7075.328125	1430.030151	5.596351
824.435242	1100.274658	5937.976563	1366.352661	5.500091
824.740723	1102.949585	4992.399902	1315.009644	5.452186
825.046082	1104.138306	4293.954590	1275.034668	5.357561
825.351501	1101.091919	3825.252686	1251.480713	5.520555
825.656799	1093.587402	3510.729492	1236.397339	5.908215
825.962036	1093.290161	3309.369141	1223.319946	5.867561
826.267212	1091.061157	3198.880859	1215.963989	5.925688
826.572449	1091.952759	3203.190186	1217.152954	5.930181
826.877502	1084.448242	3343.548096	1223.245728	6.143929
827.182495	1081.698853	3649.006592	1240.706909	6.193573
827.487488	1082.293335	4039.319092	1261.140015	6.048194
827.792419	1086.974487	4372.641113	1281.350464	5.915876
828.097290	1096.856812	4500.812988	1291.232788	5.710296
828.402100	1094.999146	4379.996582	1283.059326	5.724820
828.706848	1097.971313	4067.256104	1263.815063	5.585310
829.011597	1093.810425	3650.120850	1236.248657	5.572024
829.316223	1096.336792	3254.161865	1215.295288	5.512888
829.620789	1093.587524	2920.394287	1193.598755	5.474648
829.925354	1095.370728	2675.046631	1176.137695	5.112882
830.229797	1093.587524	2484.088623	1162.094482	4.926782
830.534302	1096.411011	2367.433350	1156.076050	4.694256
830.838562	1092.250000	2272.994629	1149.908813	4.883259
831.142944	1091.432739	2200.326416	1139.432129	4.328584
831.447144	1086.157227	2142.964844	1140.323730	5.125484
831.751404	1090.466675	2126.692383	1146.045166	5.363551
832.055542	1087.494507	2125.949463	1149.240234	5.945922
832.359619	1091.209717	2134.568604	1154.441406	6.060397
832.663635	1089.277832	2156.636475	1153.326782	6.000696
832.967651	1092.472778	2202.258545	1160.385620	6.119455
833.271545	1094.181885	2305.018799	1164.546509	5.811239
833.575439	1094.627686	2458.974121	1178.441162	6.143123
833.879211	1095.965210	2698.897705	1190.032349	5.868441
834.183044	1092.175659	2958.957275	1193.970459	5.452957
834.486694	1097.153931	3182.905518	1198.800171	4.873363
834.790344	1103.841187	3293.393555	1209.499634	4.825573
835.093933	1107.184814	3239.078369	1213.066284	4.966546
835.397522	1107.704956	3073.606201	1210.837158	5.246052
835.700928	1104.955688	2827.441406	1190.032471	4.939187
836.004395	1110.602783	2614.638428	1176.880859	4.406682
836.307739	1106.144653	2421.451416	1154.515747	3.677552
836.611023	1098.268433	2284.437256	1149.537476	4.322238
836.914307	1089.723755	2165.924561	1141.809937	4.839820
837.217529	1092.324341	2088.575195	1142.478638	5.034304
837.520691	1095.222168	2026.458130	1136.162964	4.396393
837.823730	1092.398560	1970.656860	1128.807007	4.145528
838.126831	1091.581177	1918.198853	1122.416870	3.730345
838.429749	1086.157104	1876.960938	1118.850464	4.134193
838.732727	1086.008667	1857.122192	1123.085571	4.808229
839.035522	1085.414185	1845.085327	1128.286743	5.643568
839.338379	1094.256226	1833.122437	1132.373413	5.158875
839.641113	1098.862915	1833.939941	1133.190796	4.669971
839.943848	1099.754517	1869.382202	1132.150513	4.209308
840.246460	1094.776245	1921.468384	1136.906006	5.096185
840.549072	1098.862915	1986.854858	1145.227905	5.221330
840.851563	1101.017700	2026.606812	1154.738647	5.803974
841.154053	1104.955688	2041.913086	1152.806763	5.107070
841.456482	1096.262329	2008.105469	1145.376587	5.386262
841.758850	1090.689575	1951.263672	1131.927734	4.791936
842.061157	1088.609253	1893.901978	1123.902954	4.382717
842.363403	1097.674194	1834.385620	1121.079346	3.176977
842.665588	1100.794922	1778.064087	1128.212524	4.048258
842.967712	1101.983765	1735.860229	1122.045288	3.164895
843.269775	1105.475952	1703.761353	1119.073364	2.272730
843.571777	1104.732788	1688.306519	1114.540894	1.680697
843.873840	1105.401489	1663.192017	1119.296265	2.491038
844.175659	1098.417114	1639.638184	1116.472656	3.336075
844.477600	1101.017700	1632.133667	1116.695557	2.951871
844.779297	1101.612183	1618.684692	1114.466431	2.485966
845.081116	1103.915527	1615.638306	1109.488281	1.089018
845.382751	1103.989868	1596.171021	1107.779297	0.769926
845.684387	1101.092163	1585.545776	1112.088867	2.269919
845.985962	1088.832031	1578.264038	1118.999023	6.163674
846.287537	1081.773315	1565.112671	1115.803955	7.040734
846.588989	1081.253296	1559.762695	1113.129150	6.661490
846.890381	1089.352173	1541.707153	1115.135254	5.699745
847.191711	1096.336792	1540.221313	1116.769897	4.603248
847.493042	1097.971313	1528.407104	1116.026978	4.194740
847.794250	1098.491333	1515.924194	1110.156860	2.794588
848.095459	1092.398682	1508.939819	1109.488281	4.102740
848.396606	1096.039551	1507.825195	1111.420044	3.735073
848.697693	1097.971313	1523.428711	1114.986694	3.999315
848.998657	1098.640015	1520.456543	1116.695435	4.280396
849.299622	1096.931030	1518.747681	1117.067017	4.773635
849.600464	1098.862915	1509.682617	1116.472656	4.286489
849.901367	1102.726685	1507.527832	1110.677124	1.964036
850.202087	1097.748413	1502.475220	1110.677124	3.194429
850.502808	1099.160278	1501.138062	1110.751465	2.883539
850.803467	1097.302612	1495.267944	1116.398438	4.798364
851.104065	1096.782471	1491.255737	1112.311768	3.936717
851.404663	1098.788696	1488.654907	1112.831909	3.602060
851.705139	1095.890747	1492.370117	1112.980469	4.310369
852.005615	1106.887695	1497.571289	1115.952515	2.320246
852.306030	1101.686401	1495.490845	1113.723511	3.056621
852.606384	1099.011597	1501.509277	1113.351929	3.562836
852.906616	1091.804199	1492.964478	1103.544067	2.926478
853.206909	1092.026978	1484.345337	1099.977539	2.026559
853.506958	1098.565796	1468.890503	1100.869141	0.621980
853.807129	1100.646118	1471.565430	1106.590454	1.602595
854.107178	1104.435669	1478.549805	1114.615112	2.720946
854.407166	1107.853638	1472.902954	1112.386108	1.241605
854.707092	1106.218872	1463.392212	1108.819580	0.728136
855.007019	1104.212769	1454.550171	1104.064209	-0.042405
855.306763	1094.256226	1462.723267	1102.503784	2.238344
855.606567	1100.423340	1462.797729	1114.466553	3.875333
855.906250	1096.782593	1465.695679	1113.946411	4.652537
856.205933	1104.807129	1461.386108	1117.364380	3.521590
856.505493	1103.098145	1459.008301	1117.587280	4.071009
856.805054	1106.144653	1450.463501	1127.172241	6.107010
857.104492	1099.828979	1451.206421	1130.887329	8.839027
857.403931	1098.417236	1451.503540	1125.760498	7.744073
857.703308	1097.674194	1455.961792	1121.599609	6.677712
858.002563	1095.668091	1450.983521	1112.683228	4.788741
858.301819	1086.528687	1454.029907	1107.333496	5.661154
858.601013	1089.797974	1448.308594	1102.280884	3.481880
858.900208	1095.816528	1449.348999	1102.652466	1.933609
859.199219	1102.875244	1435.825806	1100.869141	-0.602523
859.498291	1094.033325	1440.284058	1106.218872	3.519284
859.797302	1092.621460	1434.488403	1106.590454	4.086091
860.096191	1092.101440	1436.494629	1113.129150	6.105728
860.395020	1088.609253	1432.705078	1114.540894	7.536168
860.693787	1085.414185	1427.652466	1111.717407	7.685646
860.992554	1082.144897	1421.262329	1107.333496	7.427692
861.291260	1087.717407	1414.872437	1102.578125	4.542408
861.589844	1088.906372	1417.027222	1108.596680	6.000932
861.888428	1088.534790	1428.024048	1119.296265	9.061104
862.186890	1091.358276	1436.940430	1114.540771	6.708244
862.485413	1096.336548	1438.500610	1112.386108	4.690604
862.783813	1106.664673	1438.203491	1105.996094	-0.201659
863.082153	1103.989868	1430.327515	1109.042480	1.548277
863.380371	1093.215942	1428.321289	1106.887695	4.079837
863.678589	1084.373901	1426.983765	1108.447998	7.026680
863.976746	1084.002441	1429.138550	1111.717285	8.030120
864.274902	1094.033325	1427.058105	1118.107422	7.228920
864.572937	1090.466675	1423.268555	1114.095093	7.099845
864.870911	1095.147827	1424.160156	1107.333496	3.703712
865.168884	1100.051758	1418.958984	1103.618286	1.118359
865.466736	1108.076538	1416.358398	1106.516113	-0.506168
865.764587	1109.413940	1415.318237	1113.426392	1.311669
866.062317	1106.070435	1421.485352	1106.887695	0.259107
866.360107	1110.677124	1423.862915	1100.571899	-3.226591
866.657715	1108.076538	1418.215942	1090.244019	-5.749840
866.955322	1110.231323	1407.442017	1094.330566	-5.349995
867.252808	1101.686523	1401.572266	1092.695801	-2.998049
867.550293	1101.389160	1400.977905	1099.828735	-0.520856
867.847717	1101.612183	1406.030640	1103.618286	0.658995
868.145081	1102.652466	1405.658813	1114.095093	3.776366
868.442383	1099.011597	1408.408203	1119.221924	6.532175
868.739624	1090.392456	1401.943726	1114.317871	7.679447
869.036804	1091.729858	1402.909790	1114.466553	7.306607
869.333984	1092.993042	1399.343262	1107.407837	4.705332
869.631042	1095.222046	1399.788940	1104.212769	2.951970
869.928101	1093.735962	1402.240845	1098.417114	1.517367
870.224976	1095.593506	1398.971680	1095.370728	-0.073433
870.521851	1100.571899	1403.801270	1108.968140	2.768940
870.818726	1105.550171	1403.429810	1106.961914	0.473931
871.115479	1104.435669	1415.244019	1111.345825	2.223285
871.412231	1097.674072	1417.770142	1102.949585	1.648103
871.708862	1086.825928	1413.089233	1105.475952	5.716249
872.005493	1086.380249	1398.377319	1107.779297	6.858734
872.302063	1099.754517	1392.804321	1108.373779	2.941228
872.598572	1104.138550	1392.358765	1105.475952	0.464021
872.895020	1106.664673	1402.984009	1110.379883	1.253786
873.191406	1095.444946	1406.550415	1104.658447	2.961536
873.487671	1099.754517	1410.414185	1113.129028	4.305197
873.783997	1105.029907	1414.055176	1103.915527	-0.360611
874.080200	1105.475830	1419.702148	1108.522339	0.969527
874.376343	1112.609009	1425.126343	1102.726563	-3.162207
874.672424	1106.813477	1420.296509	1103.023926	-1.208854
874.968445	1106.664673	1413.683594	1102.949707	-1.210012
875.264465	1089.872314	1418.587524	1104.287109	4.385192
875.560364	1091.655640	1417.993042	1110.380005	5.737732
875.856201	1094.850464	1424.531738	1110.156982	4.642823
876.152039	1105.104370	1416.804199	1108.522339	1.096558
876.447754	1106.738892	1421.485352	1103.841309	-0.920609
876.743469	1102.429443	1420.073608	1112.460327	3.157900
877.039063	1097.005493	1419.256226	1108.893799	3.689148
877.334595	1095.519409	1413.014771	1110.379883	4.680532
877.630127	1099.605957	1416.432739	1101.463501	0.586296
877.925537	1107.407715	1421.039429	1103.395386	-1.279312
878.221008	1107.036133	1425.869141	1092.695801	-4.497756
878.516296	1104.584229	1427.132324	1096.782471	-2.418789
878.811646	1102.429321	1432.630737	1104.955688	0.765099
879.106812	1095.742188	1457.001953	1115.358032	5.429845
879.401978	1091.878418	1484.419800	1115.878296	6.113974
879.697083	1089.500732	1511.391602	1106.664917	4.068394
879.992126	1088.088989	1531.973511	1110.008423	4.938094
880.287109	1086.974487	1564.963867	1114.094971	5.673867
880.582031	1084.522583	1642.238647	1125.463257	7.340774
880.876892	1091.506958	1795.451050	1127.543701	5.119262
881.171753	1101.463501	2068.364990	1133.785156	3.342808
881.466492	1102.800903	2501.178467	1156.670410	3.852286
881.761230	1100.571899	3069.296875	1194.713501	4.781857
882.055786	1092.250000	3627.087158	1236.248657	5.680785
882.350403	1091.729858	3995.182861	1257.425049	5.706832
882.644958	1090.318115	4055.145264	1264.557983	5.876898
882.939453	1100.497681	3833.723389	1254.304321	5.627294
883.233826	1104.732910	3429.887939	1242.044312	5.905473
883.528137	1104.435669	3001.087158	1216.781372	5.923371
883.822449	1097.005371	2623.852295	1185.351318	5.786169
884.116577	1093.661743	2341.501709	1159.048218	5.239973
884.410828	1093.958984	2124.909424	1145.376465	4.987386
884.704956	1094.479126	1962.557983	1144.187622	5.726265
884.999023	1097.005371	1849.097656	1140.398071	5.769598
885.292969	1096.559570	1758.225220	1140.323853	6.614259
885.586914	1094.627808	1695.885254	1132.522095	6.302506
885.880798	1093.141724	1644.170532	1127.840942	6.297170
886.174622	1094.553345	1615.341187	1115.952515	4.109000
886.468384	1095.667969	1595.428101	1115.432495	3.954803
886.762085	1093.661743	1570.165039	1118.553223	5.223779
887.055664	1092.101440	1543.118774	1123.085571	6.869832
887.349304	1089.055054	1514.586548	1116.546997	6.460613
887.642822	1100.943481	1492.816040	1109.116699	2.085683
887.936340	1102.429443	1471.713989	1092.473022	-2.696138
888.229736	1104.138428	1452.915405	1092.250000	-3.408604
888.523071	1089.797974	1441.769897	1092.993042	0.907762
888.816284	1093.141602	1424.977539	1099.903198	2.037632
889.109619	1090.764038	1416.655640	1102.057983	3.465553
889.402710	1090.243896	1407.367798	1099.085815	2.788159
889.695862	1090.838379	1401.349243	1100.720459	3.182523
889.988892	1096.931030	1390.872559	1104.064087	2.426692
890.281921	1103.172607	1379.132690	1116.101196	4.684949
>>>>>End Processed Spectral Data<<<<<
